labels,F4,F3,Fz,Cz,timestamps
0,7.195421678696457,5.328164334722227,5.1032733310361165,1.0971329227565447,-2.000166608816393
0,8.902099969669802,5.499211600940977,6.44782470735244,2.897660891085317,-1.9951661922943522
0,6.278780831284265,3.490260960783032,2.5323785492677646,-0.0018132857614694027,-1.9901657757723115
0,-6.544535740676518,-4.558687602372263,-5.983065143387101,-2.631289612688581,-1.9851653592502707
0,2.6921502492242797,2.902365894653954,4.361493629057358,-0.03076809461348485,-1.98016494272823
0,-2.641161203594441,-10.046578564920898,-5.123945133686761,-2.1502487363612808,-1.9751645262061857
0,-1.6444701036165443,-9.385520997593852,-4.0993814317866155,-3.6197315426174486,-1.970164109684145
0,-9.097776455159488,-12.284461419234557,-10.224815265130268,-0.7692165178795664,-1.9651636931621042
0,-3.611080262189338,-2.29339984482964,-2.5402466330929143,-2.2987036664275005,-1.9601632766400634
0,-5.624381528161704,-9.862336288511534,-7.915675534435307,-6.75819299231466,-1.9551628601180226
0,-12.577680255955004,-16.511270763631757,-12.52110196728242,-5.977684499268733,-1.950162443595982
0,-9.75097644773313,-9.70020328258988,-12.81652592896296,-10.217178190502137,-1.9451620270739411
0,-8.564270104752207,-11.969133856619052,-8.641947415775624,-10.466674068517912,-1.9401616105519004
0,-9.557561227304722,-11.508062495774478,-11.747366422915578,-12.176172134929987,-1.9351611940298596
0,-13.430849814741716,-13.546989208974654,-13.572782944505253,-15.05567239029674,-1.930160777507819
0,-9.354135865413367,-12.84591400395904,-8.858196973565196,-9.545174833989773,-1.9251603609857781
0,-0.14741937666565316,-5.964836887270033,-3.3036085020455164,-3.924679464214252,-1.9201599444637374
0,3.109299654867414,-3.423757864414674,3.1309824788906235,1.565813721700096,-1.9151595279416966
0,10.096021232729075,1.2873230597887195,6.475575978383547,6.136304726815746,-1.9101591114196559
0,-0.25725463983432345,0.8884058808335559,-4.379827994537816,2.0567935541294817,-1.9051586948976151
0,-2.8605279599964697,-10.55050940567143,-4.585229431002071,3.747280206326848,-1.9001582783755744
0,-1.7837987251062524,-11.489422803833639,-7.100628321999893,3.077764685749414,-1.89515786185353
0,-8.427066932368094,-12.63833431704776,-9.856024658054805,1.758246994428608,-1.8901574453314893
0,-9.400332578587843,-15.267243947636556,-13.68141842896862,0.3487271341348195,-1.8851570288094486
0,-12.413595659898029,-15.27615169665235,-14.966809623558275,-4.7107948935033646,-1.8801566122874078
0,-12.44685617149375,-14.855057563749565,-13.042198229413994,-6.380319086778087,-1.875156195765367
0,-7.000114107490771,-6.433961547174945,-7.917584232819863,-3.2498454436535638,-1.8701557792433263
0,-7.633369460973321,-10.262863643948561,-10.642967618878695,-13.56937396158641,-1.8651553627212856
0,-8.506622224154016,-9.07176385009542,-7.418348371690625,-15.728904637304558,-1.8601549461992448
0,-1.7798723885022596,0.7493378391977943,-2.5537264744988404,-10.748437466473378,-1.855154529677204
0,-7.753119944857578,-7.269558570609239,-6.5791019098659,-11.557972443501816,-1.8501541131551633
0,-3.3263648835320967,-12.968453073544648,-3.114474659836541,-6.867509561616915,-1.8451536966331226
0,-3.75960719435513,-5.677345662983694,-1.6998447060214512,-0.9370488130931711,-1.8401532801110818
0,-2.092846866731015,-7.9562363314688795,-6.875212029658318,-1.5165901895753016,-1.835152863589041
0,-10.796083889681668,-12.425125070705779,-10.060576611578435,-7.486133682353647,-1.8301524470670003
0,-4.739318251749074,-5.814011871554086,-5.035938432025901,-4.905679282386373,-1.8251520305449596
0,-4.612549940863571,-3.3828967240292376,-4.11129747055218,-1.365226980187815,-1.8201516140229188
0,-6.015778944357531,-4.411779617473936,-2.166653706123817,0.2552232341301839,-1.8151511975008745
0,-5.3890052490345095,-0.9606605407768759,-2.9620071173034344,-4.3443286293091665,-1.8101507809788338
0,-2.0022288411937517,-2.36953948250992,-0.04735768237057114,2.9461174397591834,-1.805150364456793
0,-0.5554497067108801,-1.3284164310160747,1.8572946205707561,0.41656145168649217,-1.8001499479347522
0,-8.468667831155502,-8.98729137441448,-7.648050186494901,-7.662996583142512,-1.7951495314127115
0,-6.901883199747114,-10.856164300427203,-8.123392081396416,-4.492556654189904,-1.7901491148906707
0,-12.715095797124572,-19.71503519601684,-17.028731041426276,-10.632118750491719,-1.78514869836863
0,-16.138305607057152,-20.603904046916945,-25.144067042837783,-16.521682860376174,-1.7801482818465892
0,-2.891512612219442,-13.532770837237681,-7.19940006036154,-4.181248971199423,-1.7751478653245485
0,-0.35471679427238034,-8.741635549407626,-2.6247300671540503,0.24918293067254793,-1.7701474488025077
0,-1.93791813428007,-2.730498164509616,-3.9100570353054827,-3.0903871404938394,-1.765147032280467
0,-6.071116613041228,-10.829358662720047,-10.545380936322275,-6.449959170124028,-1.7601466157584262
0,-4.404312211082649,-4.30821702352998,-3.6607017411805103,-1.3695331433460167,-1.7551461992363855
0,-2.407504908538344,-2.7970732257935293,-2.9060194202541885,-1.1791090449378265,-1.7501457827143447
0,-0.13069468516225247,-2.2659272478450485,0.23866605656727713,3.7513131405541937,-1.745145366192304
0,5.976118479490847,7.435220932264018,8.32335471959704,14.921733428517241,-1.7401449496702632
0,6.1729346057731345,4.52637133645067,2.7780465990132104,12.092151833801633,-1.735144533148219
0,-11.630246286243267,-7.992476013628993,-6.897258275324151,1.7325683703233437,-1.7301441166261782
0,-4.4034241765464275,1.3786789035347806,0.9274401263020993,2.412983051113523,-1.7251437001041374
0,2.313400955207107,1.8098361095435376,9.682141833660566,5.243395888664029,-1.7201432835820967
0,2.180229129697369,1.4309956260628574,5.356846876369058,8.173806895085377,-1.715142867060056
0,-3.482939632334023,-0.6178425253238955,2.2915552835667072,-5.075783917940918,-1.7101424505380152
0,4.713894689802092,3.5433216768553892,12.926267083820946,-0.8753765390453988,-1.7051420340159744
0,8.370732116688359,7.67448825391657,8.270982305061134,2.5250290431017377,-1.7001416174939337
0,1.7975726685926774,4.1456572268402,2.835700974437117,-6.464567160086017,-1.695141200971893
0,15.224416365246615,19.226828616026104,23.390423118256585,8.205834862872425,-1.6901407844498522
0,16.531263225612392,22.47800244090891,24.975148761721815,11.146235123370246,-1.6851403679278114
0,10.568113267534525,16.269178719427007,17.649877928345372,7.75663363232445,-1.6801399514057707
0,16.12496650751621,27.570357467640058,27.144610639545807,14.517030399806982,-1.67513953488373
0,20.50182296066197,32.74153869947845,25.80934691452837,11.677425434860522,-1.6701391183616892
0,19.898682640508877,27.212722426369147,27.95408677012578,12.157818745382418,-1.6651387018396484
0,22.565545558766292,30.433908656924867,29.408830220599732,13.808210338062358,-1.6601382853176077
0,23.872411725124334,25.895097396900262,27.403577277514398,13.32860021835599,-1.6551378687955633
0,11.999281147184881,19.57628864932641,16.248327949755286,4.938988390492568,-1.6501374522735226
0,10.656153830649881,20.387482414780994,17.16308224382024,6.659374857643497,-1.6451370357514818
0,14.273029779718142,21.92867869168054,17.937840164240153,4.8997596221990065,-1.640136619229441
0,17.989908997304447,26.179877476369093,25.222601713766338,20.75014268585901,-1.6351362027074003
0,21.616791484900187,19.61107876301711,23.507366893220105,13.600524049364266,-1.6301357861853596
0,14.783677242310382,23.182282543561982,17.69213570128027,10.050903712144965,-1.6251353696633188
0,18.390566267553435,20.553488807763827,19.116908134496374,13.691281672271547,-1.620134953141278
0,17.92745855691517,15.554697543303885,14.681684187490317,14.651657926567026,-1.6151345366192373
0,20.644354104955216,25.47590873589478,21.266463853125263,23.07203247052935,-1.6101341200971966
0,16.55125290443764,21.437122369288367,18.291247122525174,16.94240529806192,-1.6051337035751558
0,17.378154946314194,18.068338425169845,20.196033984994884,22.252776401236968,-1.600133287053115
0,17.645060219790366,15.199556883193864,19.72082442795223,19.043145770198894,-1.5951328705310743
0,6.691968712437178,6.560777721267716,6.7256184369811045,5.803513393227183,-1.5901324540090336
0,-2.781119589488825,-0.8579990839816314,1.6604159961677163,-6.84612074283896,-1.5851320374869928
0,10.195795299494357,6.243226443336015,6.575217088669211,4.744243348166261,-1.580131620964952
0,1.612713364442727,3.534454278716294,2.2000216971244946,-6.155394347676706,-1.5751312044429078
0,9.499634589968524,4.265684397295594,8.874829803743411,1.1849661558135107,-1.570130787920867
0,5.196558960131311,2.376916773816107,6.269641390231146,-6.35467515502093,-1.5651303713988263
0,7.763486458368867,3.6181513826602467,12.234456437647315,2.805681706377306,-1.5601299548767855
0,3.950417067473949,1.4093881979014693,6.239274926257634,-0.6839632732574863,-1.5551295383547448
0,11.187350769607981,3.0206271933444406,8.724096835469084,7.156389892826912,-1.550129121832704
0,14.574287546205678,12.931868342487581,11.878922143839587,11.266741191135065,-1.5451287053106633
0,14.50122737770637,9.553111618289506,14.07375082900721,10.527090607571502,-1.5401282887886225
0,6.598170243327701,3.7843569928985548,5.608582867548526,7.6574381271559915,-1.5351278722665818
0,1.4651161211646286,-2.1243955622983055,4.173418235022176,4.087783733994504,-1.530127455744541
0,-8.65793501135392,-4.0831460762872265,-4.301743093708954,-0.7018725885070625,-1.5251270392225003
0,-6.090983176853194,-4.001894578003205,-7.0769011440091845,1.198469142667303,-1.5201266227004595
0,-12.744028397492324,-11.920641096033426,-9.882055940988053,-4.841191089586757,-1.5151262061784188
0,-9.477070694637899,-11.589385658345734,-10.137207509115798,-10.330853302244464,-1.510125789656378
0,-6.5001100887196746,-3.5281282920462527,-5.782355872020613,0.9494824881168098,-1.5051253731343373
0,-8.183146599265468,-3.336869023397097,-4.657501052507632,-6.640183734574898,-1.5001249566122965
0,-18.26618024494715,-3.7156078780727535,-8.412643072698936,-7.499851985938159,-1.4951245400902522
0,-15.82921104338017,-4.794344881349704,-11.067781954071718,-5.119522281095182,-1.4901241235682114
0,-21.11223901075995,-16.11308005805104,-14.772917717287896,-12.26919463453892,-1.4851237070461707
0,-13.045264161615746,-7.541813432275671,-6.00805038197568,-4.79886906002437,-1.48012329052413
0,-19.068286508774637,-14.080545027125186,-8.07317996670724,-15.848545570474457,-1.4751228740020892
0,-19.981306063391273,-13.689274864577769,-14.548306489122842,-12.018224177848017,-1.4701224574800484
0,-22.07432283485627,-24.2680029653345,-22.74342996583904,-12.91790489296197,-1.4651220409580077
0,-12.937336830670109,-8.156729348566849,-7.258550412109885,-7.457587725418937,-1.460121624435967
0,-10.690348056544465,-10.655454031877333,-6.933667841735765,-7.847272683731292,-1.4551212079139262
0,-11.513356516728724,-16.18417703153812,-8.278782267390806,-8.226959775510108,-1.4501207913918854
0,-5.7363622143164745,-6.162898362654109,-2.6638937009624257,-5.0466490075883685,-1.4451203748698447
0,-4.209365151477213,-4.591618039251862,3.5609978462205336,-0.8263403861340063,-1.440119958347804
0,2.177634670264586,3.0496639254194564,7.475892363037847,-3.5660339168409245,-1.4351195418257632
0,2.2746372496805467,-3.3190524815270424,2.8507898381554506,-2.2757296050989293,-1.4301191253037224
0,-0.448357414451633,-4.227767272833792,5.7356902597912995,-6.865427456019605,-1.4251187087816817
0,9.028650676489997,4.87351953890507,11.890593615643223,-1.7351274743617167,-1.4201182922596374
0,1.945661520844458,7.204807941149503,10.285499892732526,-1.0148296645077655,-1.4151178757375966
0,11.932675116497258,15.366097921035523,19.680409077119027,9.345465969372086,-1.4101174592155559
0,10.969691460689083,14.277389464882052,21.145321153553905,7.335759422956321,-1.4051170426935151
0,10.676710549789346,15.66868255779839,22.22023610509684,8.226050691389014,-1.4001166261714744
0,22.353732379069147,27.609977183404663,31.595153912759475,18.356339769012347,-1.3951162096494336
0,23.4407569423818,26.58127332347311,27.45007455517055,13.846626649101573,-1.3901157931273929
0,25.607784231711324,22.962570957511872,29.38499800828725,15.236911323586051,-1.3851153766053521
0,11.62481423688123,13.273870062650358,15.579924245349405,5.18719378298992,-1.3801149600833114
0,28.861846945614058,27.93517061387044,31.904853237088417,14.387474016617803,-1.3751145435612706
0,28.588882343564578,26.57647258410605,29.299784951828833,10.07775201271767,-1.3701141270392299
0,24.85592041404661,21.097775944031948,28.03471935528726,10.398027758484265,-1.365113710517189
0,19.382961137832915,23.829080661932135,23.899656410409737,4.3583012400824135,-1.3601132939951484
0,20.190004493321066,20.020386703800526,22.484596077492235,6.478572442818516,-1.3551128774731076
0,20.437050456805622,17.701694033489673,21.219538314419044,9.958841351306766,-1.3501124609510669
0,14.214099002635791,9.08300261292571,13.18448307690395,0.7691079495082902,-1.345112044429026
0,8.911150103404426,4.394312402507544,7.089430318828311,-0.5006277791797127,-1.3401116279069818
0,5.778203730311693,1.5656233616329192,5.554379992731609,-1.8903658516465134,-1.335111211384941
0,6.625259853581505,0.21693544917046492,3.149332050289647,-1.1901062847889439,-1.3301107948629003
0,2.2323184427476077,-1.2017513762284704,-1.5057135573449578,-11.59984909532795,-1.3251103783408595
0,-6.640620533106808,-2.7604371559394343,-4.020756879252026,-9.369594299552094,-1.3201099618188188
0,-0.17355710501406918,-3.539121931219971,-0.14579796446807736,-0.739341913053249,-1.315109545296778
0,5.573508696111682,5.682194256852684,6.279163138100315,6.260908049188683,-1.3101091287747373
0,8.940576839320954,5.473511367233348,4.084126379480661,7.191155572323264,-1.3051087122526965
0,-3.4523527066919604,-12.475170641284972,-5.720908289564933,-2.758599358811803,-1.3001082957306558
0,-0.3752799736071868,-5.62385180988808,-1.6459409184266454,3.5716432402557796,-1.295107879208615
0,-10.728204993156139,-13.362532179255586,-8.650971556330187,-10.508116646136916,-1.2901074626865743
0,-9.741127796706406,-15.741211789170059,-13.026000252037168,-5.78787903346898,-1.2851070461645335
0,-7.664048414919479,-12.129890678255677,-11.641027053529958,-4.367643936738112,-1.2801066296424928
0,-5.216966877619178,-9.358568883849768,-12.00605200773778,-5.907411370354283,-1.275106213120452
0,-11.099883213852193,-15.957246442056878,-14.611075160413606,-8.08718134816967,-1.2701057965984113
0,-20.7627974518321,-29.3159233876812,-25.226096555999572,-17.20695388337764,-1.2651053800763705
0,-17.555709618580508,-22.934599753788856,-23.971116237280384,-17.1267289881822,-1.2601049635543262
0,-13.918619739546415,-17.23327557126612,-18.586134244993964,2.4034933264763354,-1.2551045470322855
0,-10.521527838561639,-18.671950868817028,-15.631150617751068,-3.4062869492859944,-1.2501041305102447
0,-13.374433938057503,-13.440625673242621,-18.44616539225351,-10.266069824773787,-1.245103713988204
0,-13.747338059225955,-11.719300009703996,-14.51117860349575,-11.465855308801768,-1.2401032974661632
0,-5.130240222063496,-11.607973901955459,-11.256190284882933,-1.4956434094528723,-1.2351028809441225
0,-3.2231404455301442,-9.476647372541946,-10.961200468405188,-2.2254341340706167,-1.2301024644220817
0,-4.5460387478758415,-3.2553204429664877,-10.746209184842801,-4.165227489522409,-1.225102047900041
0,-2.178935146900777,-5.343993133920189,-8.241216463901818,-2.4550234823718866,-1.2201016313780002
0,-3.62182966005346,-10.472665465479924,-10.596222334294817,-3.9648221188834243,-1.2151012148559595
0,-8.904722304430935,-19.831337457014452,-15.981226823749857,-14.484623404931844,-1.2101007983339187
0,-15.737613096604104,-20.35000912675334,-17.126229958847777,-14.394427345721517,-1.205100381811878
0,-9.750502052274314,-24.388680491270076,-17.861231764752446,-10.814233945400224,-1.2000999652898372
0,-17.72338918598424,-31.62735156506168,-26.696232264950293,-23.924043206803663,-1.1950995487677964
0,-12.396274510975427,-22.48602236021076,-23.21123148096972,-17.393855131245452,-1.1900991322457557
0,-21.159158039078232,-20.234692886256145,-25.71622943210294,-25.5236697182354,-1.185098715723715
0,-5.722039780629072,-10.32336315044093,-12.501226135333308,-9.303486965321179,-1.1800982992016706
0,10.125080255295513,-4.452033158250451,-0.8962216056667902,4.296693131651484,-1.17509788267963
0,8.692202060120277,-2.6107029140390186,1.1587841431295443,-1.4331294221918998,-1.1700974661575891
0,2.1393256249425647,-9.269372421503647,-6.646208902205487,-1.8129546214545627,-1.1650970496355484
0,-7.1935490596770615,-17.218041683744165,-12.831200754637372,-16.682782460589955,-1.1600966331135076
0,11.953577996572518,-1.426710703003165,2.873808573383183,3.527387066408343,-1.1550962165914669
0,5.21070678383742,-2.2053794806045257,-0.9011809300350577,1.917553966111519,-1.1500958000694261
0,6.097837291825251,-8.574048017238288,-4.0861692764894455,-1.7522817546570897,-1.1450953835473854
0,6.15496950961999,-10.652716313100793,-4.441156477408736,-8.312120089034863,-1.1400949670253446
0,-9.207896574210507,-19.071384367637194,-15.35614254386691,-17.541961029854395,-1.1350945505033039
0,-2.4607609712642478,-16.43005217911691,-12.851127486218477,-6.031804569149604,-1.1300941339812631
0,-4.5036236929026865,-15.53871974430636,-11.476111313740816,-6.7716506979124125,-1.1250937174592224
0,-4.106484750075878,-18.777387058349635,-10.871094034495709,-4.031499406247498,-1.1200933009371816
0,-4.919344153323633,-15.66605411475464,-16.56607565535338,-4.741350683630971,-1.1150928844151409
0,-8.40220191273975,-12.484720905407173,-12.111056181951982,-13.69120451899148,-1.1100924678931001
0,-5.645058037872126,-8.79338742071148,-9.416035618638068,-12.821060900533627,-1.1050920513710594
0,-10.737912537614132,-17.94205364979647,-14.951013968525526,-17.230919815404697,-1.100091634849015
0,-4.2207654201312925,-8.020719580584686,-9.365991233567355,-7.180781249458063,-1.0950912183269743
0,-5.373616692872529,-11.509385199787829,-6.480967414600369,-13.690645187263895,-1.0900908018049336
0,-5.296466362673707,-12.118050492979965,-9.545942511481304,-10.590511612234424,-1.0850903852828928
0,-1.0393144358709292,-12.096715444641502,-5.200916523246838,-10.240380506681827,-1.080089968760852
0,-3.242160918405334,-12.575380038109898,-8.09588944819479,-20.050251851782996,-1.0750895522388113
0,7.314994184016317,-3.4940442555881264,4.219138716010834,-4.700125627482317,-1.0700891357167706
0,8.18215086563493,-7.342708078321568,2.994167972065361,-10.97000181249701,-1.0650887191947298
0,13.499309120228236,3.838628513107345,9.249198322609967,-3.729880384531791,-1.060088302672689
0,8.026468940739143,0.22996553845108947,2.9142297698796353,-6.5697613205235035,-1.0550878861506483
0,8.04363031912911,2.6913030175001236,4.739262315572818,-2.9496445967990215,-1.0500874696286076
0,10.140793246430233,8.912640969867837,10.53429596085945,-6.309530189177412,-1.0450870531065668
0,15.947957712759173,11.433979414753768,15.789330706255356,-0.9094180730280075,-1.040086636584526
0,11.455123707159085,7.705318370639533,10.204366551312319,-6.439308223316534,-1.0350862200624853
0,-2.9977087824656197,-6.223342144794077,-2.240596505514832,-24.07920061450053,-1.0300858035404445
0,9.319460230936693,8.297997885620568,7.504441533416058,-5.939095220119204,-1.0250853870184038
0,14.336630733837268,8.209338478769238,15.22948066520883,-2.2789920125112566,-1.0200849704963595
0,9.103802711965336,-0.4093203488583861,8.364520886263788,-5.338890963084882,-1.0150845539743187
0,5.8609761500605595,-2.6079785812107166,5.049562192021578,-16.298792042644564,-1.010084137452278
0,3.1381510319621615,-3.4266362023872454,4.194604577052351,-13.258695221230479,-1.0050837209302372
0,4.665327340881564,-9.815293196289065,0.5896480353394395,-10.648600467755875,-1.0000833044081965
0,-0.6474949403922072,-13.10394954630736,-6.805307439434348,-20.48850774983603,-0.9950828878861557
0,-1.340315829328813,-6.802605235014763,-7.810261853526145,-23.22841703363506,-0.990082471364115
0,7.296864656481153,1.8787397559087256,3.744784787181997,-2.8083282836456247,-0.9850820548420742
0,5.214046499274353,0.5500854453614163,2.7698324771477014,-6.188241462842198,-0.9800816383200335
0,1.6012296809203483,0.621431852401257,-1.6451187891340138,-4.178156533230075,-0.9750812217979927
0,4.558414182862226,-0.8972210039478805,0.4199309827245242,-6.478073456237407,-0.970080805275952
0,5.845599986166462,-2.045873104675472,0.1349817870701313,0.5020078071827512,-0.9650803887539112
0,7.582787071473665,-2.4045244306921356,0.5900336182499171,-2.897912703541479,-0.9600799722318705
0,3.219975418886155,-6.1131749627198575,-2.264913529394201,-11.047834948678915,-0.9550795557098297
0,9.197165007924433,-5.581824681154831,-0.019859661492552028,-6.267758888058227,-0.950079139187789
0,12.63435581747069,-9.200473565906828,3.335195216372096,-9.367684480827482,-0.9450787226657482
0,19.521547825519622,1.6608784036955835,13.010251098509041,2.3123883145950854,-0.9400783061437039
0,20.88874100875837,-0.19776875120599313,13.125307978723336,-2.4575404596879977,-0.9350778896216632
0,28.045935342117943,10.293584990669384,18.01036584983404,0.0025292386672242095,-0.9300774730996224
0,34.123130798323274,13.214939650294447,17.675424703297974,1.0425974520891517,-0.9250770565775817
0,37.23032734738988,18.47629524782622,28.2904845289119,9.882664222965875,-0.9200766400555409
0,29.327524956190878,11.137651802171824,18.42554531450795,3.362729593401556,-0.9150762235335002
0,26.79472358836088,13.039009330828414,21.70060704576367,0.6427936050277907,-0.9100758070114594
0,30.131923204512447,18.030367849928584,24.1056697062115,6.8128562990495904,-0.9050753904894187
0,21.359123762475203,13.441727374223973,21.670733277251642,9.032917716285151,-0.9000749739673779
0,18.47632521751402,7.423087917049731,14.3057977381483,-0.2570221029504689,-0.8950745574453371
0,23.403527522624195,12.72444949047336,14.070863066220916,2.463036881149069,-0.8900741409232964
0,27.580730628684954,15.475812105449943,13.98592923716372,-0.6869052919175569,-0.8850737244012556
0,29.587934484288546,16.697175771728684,18.510996225223472,3.293151417206114,-0.8800733078792149
0,22.295139035481267,9.328540497674958,12.666064003178624,-1.1867929522296417,-0.8750728913571741
0,19.6923442257516,10.989906290295869,9.991132542335793,-1.5767383610545564,-0.8700724748351334
0,19.139549996289066,8.571273155437042,9.546201812701437,0.0033152299071455005,-0.8650720583130926
0,16.71675628627282,15.612641097910094,8.461271783212087,-1.4966321400929947,-0.8600716417910483
0,12.473963033084884,13.224010121428353,8.026342421880308,4.143419568253053,-0.8550712252690076
0,-1.508829827384285,2.2853802285232696,-1.3885863040710174,-4.986529605752842,-0.8500708087469668
0,1.7683776398024311,6.966751420712875,0.11648557205691779,-4.82647962277316,-0.8450703922249261
0,-3.294414630791043,1.4181236988362085,-3.8984419832124617,-7.166430443218636,-0.8400699757028853
0,-6.967206704581704,-4.8605029366632095,-7.10336900323678,-4.006382027028664,-0.8350695591808446
0,-13.119998646651151,-6.389128485419958,-12.038295520979428,-6.966334333593074,-0.8300691426588038
0,-14.292790521350035,-2.89775294679485,-10.973221568690077,-5.866287321745874,-0.8250687261367631
0,-11.205582391943857,1.013623680258942,-4.628147177686851,5.153759050185779,-0.8200683096147223
0,-10.89837432047516,-1.6649986029354524,-5.863072378401658,1.6538048241477794,-0.8150678930926816
0,-16.77116636778151,-5.403619794908881,-11.437997200544839,-5.5561499579236076,-0.8100674765706408
0,-16.463958593433553,-5.832239893971364,-14.25292167306765,-4.666105254078572,-0.8050670600486001
0,-16.326751055555636,-12.300858897984243,-12.537845823908953,-1.8460610221111005,-0.8000666435265593
0,-9.949543810737927,-0.339476804152444,-4.6227696798396,0.563982780522085,-0.7950662270045186
0,-3.8023369142051733,-1.278093609040555,-4.907693266613001,-0.835973803429634,-0.7900658104824778
0,-8.565130420176764,-2.876709308817182,-3.5926166092806193,-2.0659307311310333,-0.7850653939604335
0,-6.267924382144084,-2.125323899438019,-3.707539732415193,-0.255887959667108,-0.7800649774383928
0,-4.48071885295327,1.8560626233199495,0.9475373397739312,-2.2158454460107664,-0.775064560916352
0,-1.7135138848698066,0.39745026378767145,0.002614583306560725,-5.005803146985376,-0.7700641443943113
0,-1.0063095297426883,4.488839026260454,0.8276919742757317,-1.4057610191845966,-0.7650637278722705
0,-7.269105839142897,3.0102289148592307,-5.327230511214686,-6.375719018890297,-0.7600633113502298
0,4.978097135612,11.501619933376652,4.927847103003628,7.024322897914672,-0.755062894828189
0,0.3852993433804084,3.0830120850847704,0.07292479315245592,1.3243647753660448,-0.7500624783061483
0,-4.477499266959912,2.2844053726460025,-2.3819974645887103,-5.175593342493901,-0.7450620617841075
0,12.099701253413585,19.36579979813803,14.333080305839825,16.684448588220835,-0.7400616452620667
0,2.116900853139582,11.297195362869761,4.318158080177941,10.014490611043083,-0.735061228740026
0,-0.0259005195301385,6.958592067050729,3.033235833575821,8.10453276872095,-0.7300608122179852
0,-3.998702916663568,6.889989909780941,5.858313540581732,6.2745751030265335,-0.7250603956959445
0,4.688493609616181,13.501388889263104,9.503391175240264,12.034617654864034,-0.7200599791739037
0,2.5356890071899336,8.522789002829494,4.108468711025462,11.304660464288549,-0.715059562651863
0,-0.19711677619559342,2.014190246889143,1.5335461207937597,3.1947035704183446,-0.7100591461298222
0,-4.7499237929423055,-0.5344073828768283,-6.561376623013322,-0.6352529884461482,-0.7050587296077779
0,-3.1327320954009483,0.1969961088613142,-1.366299547999699,6.70479082550474,-0.7000583130857372
0,-8.4755417356313,0.9184007173414261,-8.69122268150612,-0.8351649502009106,-0.6950578965636964
0,-2.0683527652424765,3.1398064377534296,0.6738539495350748,-1.185120278256313,-0.6900574800416557
0,-4.411165235351893,-3.2287867348045745,-7.891069681386783,-2.525075121439455,-0.6850570635196149
0,-0.613979196664546,1.9526211946938172,-1.1259936003874542,2.5049705575409025,-0.6800566469975742
0,3.083205300373246,9.274030221207152,1.5590821667598638,-2.1849832039456785,-0.6750562304755334
0,0.2503882053818627,2.6554403394399606,3.544157594451368,-0.9349363684934697,-0.6700558139534927
0,0.33756946790184483,-6.6431484562940355,-1.760767342973673,-2.414888898625153,-0.6650553974314519
0,-1.9552509626020926,1.3082638281379584,-1.4856926712844967,5.185159243236159,-0.6600549809094112
0,-3.3580731366353405,-2.6503228130255474,-3.510618416224415,0.42520809466243215,-0.6550545643873704
0,2.5391028954252244,-0.478908385380583,0.44445539662167644,-1.3447423069011766,-0.6500541478653297
0,-6.673722916650307,-12.307492894331311,-2.8904712581493284,-11.684691924032848,-0.6450537313432889
0,1.7734493770608075,2.233923655078306,-1.4453984057828326,-5.294640718986712,-0.6400533148212482
0,4.510619726612923,-2.4646587417576753,0.73967392862248,-2.0645886534185056,-0.6350528982992074
0,0.6877880820288897,-1.6932400891539123,-2.7052542799133397,-8.034535688398499,-0.6300524817771667
0,4.564954393119271,7.458179608681399,7.759816943674834,-1.1444817845189643,-0.6250520652551224
0,3.8121186094148762,4.909600347436722,2.5948875743360253,0.8555730980265208,-0.6200516487330816
0,-4.890719319827413,-7.8289778774873895,-5.06004241323454,-9.57437100066793,-0.6150512322110409
0,5.936440554476997,6.742444929108367,7.925026955466093,1.4956859597610008,-0.6100508156890001
0,4.323598181300561,11.803868762308355,5.740095654786946,2.045744019963946,-0.6050503991669594
0,5.9807535093529145,8.45529361677241,4.325163658728831,4.765803220685819,-0.6000499826449186
0,7.277906486880479,10.676719486341813,7.300230940771599,5.52586360246913,-0.5950495661228778
0,19.795057061472722,25.968146363802404,17.50529747376396,18.445925205376433,-0.5900491496008371
0,16.452205179698588,20.98957424051206,17.51036322961507,15.105988068598641,-0.5850487330787963
0,7.599350786743715,11.04100310599016,10.125428178902421,3.326052230101458,-0.5800483165567556
0,8.506493826429413,14.982432947931994,6.570492290806772,0.4361177267319214,-0.5750479000347148
0,17.743634241462743,19.473863752476863,13.525555533363336,10.41618459466161,-0.5700474835126741
0,12.600771973446818,9.755295504286398,11.470617873615215,7.26625286957537,-0.5650470669906333
0,0.3079069627736808,-0.20327181335740074,3.655679277588173,1.006322586563377,-0.5600466504685926
0,5.935039148847756,8.85816178185667,10.11073971036858,9.646393780111005,-0.5550462339465518
0,4.252168470477041,6.019596271638662,4.25579913627611,2.5364664841761093,-0.5500458174245111
0,7.279294866020603,9.531031637116072,3.400857518977424,12.536540732157329,-0.5450454009024668
0,-1.7535817266306628,0.44246785874723116,-5.6440851783329595,7.196616556770541,-0.540044984380426
0,7.003538630008183,6.423904916391885,3.9809710073630473,12.876693989899387,-0.5350445678583853
0,-1.7393441268765972,-12.274657210456802,-9.113973960860383,-0.03322693746938077,-0.5300441513363445
0,-17.452230060207757,-15.40321854221647,-19.128920119619224,-10.56314619500571,-0.5250437348143038
0,-13.685119232495737,-3.6717790986180434,-12.363867504718092,0.7269362475169032,-0.520043318292263
0,-15.73801170518496,-15.000338898389264,-14.668816150674862,0.49702042061260165,-0.5150429017702223
0,-14.580907538312758,-10.888897959242241,-10.70376609061193,4.757106354985247,-0.5100424852481815
0,-8.1538067904965,-5.647456297858508,-5.668717356402982,7.457194081206017,-0.5050420687261408
0,-14.716709519066612,-12.55601392992023,-15.533669978865984,8.3972836294231,-0.5000416522041
0,-8.889615780192452,-10.444570870177273,-12.578623987806923,2.757375029171933,-0.49504123568205927
0,-5.582525628967628,-8.53312713241093,-9.573579411896135,7.007468309361007,-0.4900408191600185
0,-13.015439119538133,-5.101682729441806,-10.658536278634095,2.7075634983610715,-0.48504040263797776
0,-5.928356305186453,-5.250237673291895,-3.833494614487522,13.05766062402309,-0.480039986115937
0,-8.301277238335114,-1.2887919753897237,-4.278454445105087,13.737759713510162,-0.47503956959389626
0,-3.3442019706166013,5.142654353204249,-0.5534157955695351,15.007860792973773,-0.4700391530718555
0,-13.78713055297097,-4.385898698462963,-12.908378690557242,6.037963887327029,-0.4650387365498112
0,-16.610063035541064,-0.8944511413567011,-9.863343154222408,6.96806902033132,-0.46003832002777045
0,-12.88299946735109,1.0769970136158822,-6.098309209930889,3.0981762148896297,-0.4550379035057297
0,-13.975939896063878,1.378445755621135,-11.653276880151136,4.258285493310838,-0.45003748698368895
0,-4.728884368013908,7.0498950737579715,-4.958246186495794,10.148396877418627,-0.4450370704616482
0,-4.281832928469104,7.031344956839851,2.166782850163991,8.928510388461758,-0.44003665393960745
0,-9.174785621945915,3.602795393189215,-4.888189790564005,3.038626046959759,-0.4350362374175667
0,2.0722575076072953,14.514246370515696,0.6868358711557669,14.27874387267215,-0.43003582089552594
0,2.9992964166409983,9.565697875771313,3.641859815275343,16.688863884518813,-0.4250354043734852
0,-3.9236689382697083,4.267149894988522,-4.723117978231482,10.368986100300143,-0.42003498785144444
0,-0.2666386005559145,7.008602413328387,-3.818097529373551,16.829110536485747,-0.4150345713294037
0,-2.9396126135677108,8.080055415254876,-5.593078857952513,16.249237208164445,-0.41003415480736294
0,-6.452591020456548,2.7515088846002485,-11.43806198333199,6.819366129018866,-0.4050337382853222
0,-7.625573864032887,0.9829628046320728,-12.043046924197633,4.3994973114723495,-0.40003332176328144
0,-12.18856118653793,-0.7555828417414905,-12.428033698289038,-0.2103692329049185,-0.3950329052412407
0,-13.801553029379091,2.9258719282363215,-10.023022322229691,-0.5702334929598047,-0.39003248871919993
0,-7.674549432910524,3.3973270972171243,-6.118012811544594,8.289904542283137,-0.38503207219715563
0,-6.31755043641346,5.67878264764092,-4.913005180837695,9.530044883538721,-0.3800316556751149
0,-9.500556078267067,1.5202385616092178,-10.687999443985643,7.220187540958067,-0.3750312391530741
0,-5.433566396083793,-4.628305179093152,-7.932995614166069,11.650332523898994,-0.3700308226310334
0,-9.096581426741759,-12.546848592706812,-15.057993703724952,4.430479840862332,-0.3650304061089926
0,-10.039601206366948,-7.995391697020655,-15.732993723965912,5.380629499548829,-0.36002998958695187
0,-3.512625770298148,-1.9539345090553226,-9.147995684945503,14.58078150694999,-0.3550295730649111
0,-8.45565515311514,-2.26247704514417,-11.242999595438917,3.65093586930462,-0.35002915654287037
0,-2.948689388745862,4.328980678750539,-7.598005463092923,7.591092592025821,-0.3450287400208296
0,-8.941728510536203,-1.3495613532516386,-6.493013294599893,2.4612516798056037,-0.34002832349878886
0,-14.984772551188513,-15.118103156997515,-20.35802309576345,-3.4785868631578167,-0.3350279069767481
0,-18.22782154247887,-15.01664474791658,-19.60303487128124,-5.588423032844373,-0.33002749045470736
0,-11.150875514888915,-2.775186140496976,-14.278048624338838,1.3017431749151067,-0.3250270739326666
0,-7.473934497497774,-1.4537273482255424,-9.773064356463065,4.701911764503176,-0.32002665741062586
0,-6.666998518219682,1.697731615995111,-5.458082067786467,2.8820827402802185,-0.3150262408885851
0,-3.700067604128435,7.8191907393854265,-0.7831017574803204,8.002256106318153,-0.31002582436654436
0,-6.703141781673404,-1.2193499910268084,-2.9781234241541585,4.652431866238145,-0.30502540784450005
0,-7.70622107675087,1.5121094114886517,-8.753147066070593,6.562610023116855,-0.3000249913224593
0,-6.24930551465571,4.423568933441942,-2.9681726810999596,7.872790579440872,-0.29502457480041855
0,-9.522395120005504,-3.07497143881888,-7.243200266599253,-2.377026462882169,-0.2900241582783778
0,-9.67548991667041,-9.113511719006393,-9.298229819352727,-4.416841102335659,-0.28502374175633705
0,-7.22858992769371,-6.532051920576066,-8.123261335478555,3.1133466625408337,-0.2800233252342963
0,-6.161695175281771,0.5094079435534834,-6.648294810322546,0.9635368332974819,-0.27502290871225554
0,-6.494805680894337,0.7208678609260604,-6.483330238461923,6.663729411428361,-0.2700224921902148
0,-4.6579214653437075,1.7023278192535307,-8.638367613766018,2.2739243981677326,-0.26502207566817404
0,-2.0410425488858026,6.413787806168287,-4.103406929420835,7.394121794363276,-0.2600216591461333
0,-7.314168951316116,6.695247809022888,-5.348448177965721,6.8343216003899965,-0.25502124262409254
0,-1.0473006920179764,10.93670781466017,-0.6034913514067074,6.414523816051377,-0.2500208261020518
0,1.1495622099888518,12.488167809169479,2.661463558596962,8.684728440498153,-0.24502040958001103
0,4.546419735857566,13.569627777651855,3.7164165604754773,10.45493547216018,-0.24001999305797028
0,-12.496728133264954,-6.088912295848396,-16.35863233738148,-8.094855091253043,-0.23501957653592953
0,-6.509881416075875,-2.9674524279868812,-7.94368312633463,7.795356747485273,-0.23001916001388878
0,-4.2130401307490155,4.274007364442873,-3.178735797040988,9.195570985344302,-0.22501874349184448
0,-7.016204294798745,-4.9845329352522745,-8.353790339363233,6.225787618879941,-0.22001832696980372
0,-15.609373925084812,-13.383073343609409,-15.53884674245722,1.1260066440134278,-0.21501791044776297
0,-13.722549037605043,-8.281613876693255,-16.83390499456663,-3.2037719438410335,-0.21001749392572222
0,-20.32572964713227,-16.290154549683407,-19.24896508261784,-13.3735481493582,-0.20501707740368147
0,-22.09891576688621,-15.798695376607817,-17.854026991915177,-8.76332197678246,-0.20001666088164072
0,-21.9621074082424,-11.327236370162566,-18.649090706007495,-13.053093429505179,-0.19501624435959997
0,-21.025304580528406,-15.93577754164658,-20.31415620664207,-8.082862509885897,-0.19001582783755921
0,-22.32850729095926,-18.53431890096025,-23.15922347369758,-11.38262921924591,-0.18501541131551846
0,-19.85171554464808,-22.82286045645947,-22.81429248504466,-2.882393557945477,-0.1800149947934777
0,-21.56492934463228,-14.73140221472063,-19.91936321642301,-0.7521555255780424,-0.17501457827143696
0,-17.89814869191748,-14.939944180488464,-15.924435641469065,-0.32191512128508426,-0.1700141617493962
0,-16.671373585565654,-12.298486356862002,-14.33950973192027,-3.151672344013884,-0.16501374522735546
0,-17.474604022826156,-10.20702874553548,-15.194585457866342,-5.071427192556678,-0.1600133287053147
0,-6.967839999304214,-1.8455713470403987,-9.359662787937728,-3.5911796654327595,-0.15501291218327395
0,1.888918490706358,6.215885838862065,0.3752583104626743,5.129070239158854,-0.1500124956612332
0,4.7056714536183835,5.517342812616595,4.590177870693889,10.51932252310388,-0.1450120791391889
0,2.9324188959198265,5.958799574377391,3.675095926287102,8.339577187912296,-0.14001166261714815
0,1.3391608238431165,3.0902561237928747,-5.2399874894032,11.859834234331384,-0.1350112460951074
0,2.665897243339105,5.821712460011069,3.104927656837165,8.120093662178071,-0.13001082957306664
0,2.8126281601270104,3.683168581724161,5.079841398190097,7.800355470323858,-0.1250104130510259
0,3.599353579688514,8.974624487155763,6.234753767667916,13.030619656734657,-0.12000999652898514
0,1.7360735072306452,8.006080173967092,3.6096647978792067,10.750886218438788,-0.11500958000694439
0,5.022787947671812,13.197535639091079,7.404574520929781,10.0411551514261,-0.11000916348490364
0,1.9894969056276324,10.79899087854013,4.599482968402133,8.411426450633304,-0.10500874696285933
0,-5.123799614551315,-1.7295541126575344,-4.4456098286018735,0.37170011008202514,-0.10000833044082214
0,1.0128983913986103,1.9619006597919555,0.39929616075436547,5.481976123134355,-0.09500791391877783
0,-1.1804090721679583,0.9133551898488673,-1.3157990326888396,-0.5977455172571835,-0.09000749739674063
0,-2.4537220007775495,-2.2851905286300926,-0.3808953779905704,-3.3674648183655163,-0.08500708087469633
0,-4.317040389820639,-7.5637365017571305,-6.0159928440990535,-5.597181787461299,-0.08000666435265913
0,-5.8103642344350295,0.6977172645848212,0.48890860022458016,0.7231035684207596,-0.07500624783061483
0,-4.143693529367151,-6.590829235137789,-5.876191013519755,0.6633912425145503,-0.07000583130857763
0,-10.467028268867018,-12.829376006047115,-14.101291653472117,-5.246318771799853,-0.06500541478653332
0,-10.320368446546787,-10.977923052616347,-12.626393287113618,-0.296026481020781,-0.06000499826449612
0,-13.643714055166347,-11.716470378355119,-15.701495880866156,-9.155731891412382,-0.05500458174245182
0,-16.94706508639287,-19.33501798561639,-17.74659939982149,-8.19543500883142,-0.05000416522041462
0,-5.720421530632286,-5.0335658754782076,-7.921703807623755,4.054864161413809,-0.045003748698370316
0,-6.733783377096468,-9.452114047780173,-10.436809066553359,2.555165614424906,-0.04000333217633312
0,-5.897150614092776,-9.250662501349174,-11.441915137749431,1.1854693453411755,-0.03500291565428881
0,-4.290523229269964,-1.7192112341908554,-3.4070219813698372,8.465775349079262,-0.03000249913224451
0,-3.383901209737541,2.832239756312436,-3.732129556746167,2.3360836202052724,-0.02500208261020731
0,3.052715457800023,1.3436904730469117,3.002762177328891,6.296394152836431,-0.020001666088163006
0,2.2993267868136655,-1.3648590811309573,-1.0623467377147682,4.146706940612743,-0.015001249566125807
0,14.235932790629084,12.296591096486168,14.142543739494382,12.477021976658628,-0.010000833044081503
0,7.7025334820404705,5.978041008269561,6.807433649930385,0.6573392534719171,-0.005000416522044304
0,6.959128873017492,9.999490655960026,6.622323033852357,4.857658762909606,0.0
0,10.885718974652132,14.7009400404557,11.907211930698594,9.747980496297908,0.005000416522037199
0,9.692303797183964,14.732389161621454,10.28210037906179,7.2783044444121385,0.010000833044081503
0,7.078883349958925,13.86383801806202,13.036988416566492,8.39863059732052,0.015001249566118702
0,6.495457641449868,12.795286607009611,11.651876079743442,12.658958944277103,0.020001666088163006
0,13.412026679328873,19.156734924313458,15.156763403947831,15.579289473589451,0.025002082610200205
0,4.058590470448084,12.528182964385405,8.27165042330989,3.539622172452802,0.03000249913224451
0,-0.004850979130474498,-0.7003692797593914,2.216537170828193,0.9699570270419499,0.03500291565428171
0,-9.598297663800569,-3.868921816067159,-3.1985763212752643,-5.789705977042705,0.04000333217632601
0,-9.591749577844126,-6.467474652746637,-6.4836900210360255,-14.079366854190262,0.04500374869836321
0,-13.50520671490126,-17.09602779766299,-11.598803896248615,-11.819025618208803,0.050004165220407515
0,-10.558669067634922,-9.864581257870165,-5.753917914088731,-12.858682281890756,0.05500458174245182
0,-3.662136627643112,-0.8931350393709401,-0.9290320409851149,-8.738336856852728,0.06000499826448902
0,-4.575609385633841,0.998310852663629,-1.3141462428040758,-5.5579893536211795,0.06500541478653332
0,-4.409087331703745,2.9097564133973233,-1.1192604851283594,-2.8376397818655583,0.07000583130857052
0,1.5474295444689115,3.861201637944999,7.2156252665485425,5.522711849274042,0.07500624783061483
0,-8.466058746485125,-2.077353478784995,-3.179488953344943,-6.876934469142877,0.08000666435265202
0,-8.719552193597693,-5.195908942020229,-9.444603110473926,0.4034212540097404,0.08500708087469633
0,-13.963050785304182,-8.714464756844421,-12.579717170249216,-13.476220989936309,0.09000749739673353
0,-21.44655450905445,-23.413020927769715,-19.78483109727685,-20.525861209076727,0.09500791391877783
0,-7.620063350956331,-12.601577458203833,-8.899944854917566,-4.485499410455661,0.10000833044081503
0,-11.56357729568396,-13.980134350063421,-13.10505840514936,-1.5551355999232368,0.10500874696285933
0,-6.687096326704635,-8.778691603787701,-11.580171708676817,0.465230217451282,0.11000916348489653
0,-14.090620426497715,-11.717249218570688,-12.545284725030209,-3.9144019630979177,0.11500958000694084
0,-15.904149576530775,-12.425807192507582,-17.13039741253423,-5.984032146156633,0.12000999652897804
0,-17.10768375703183,-15.014365522572627,-20.445509728151375,-5.803660335988513,0.12501041305102234
0,-11.281222946778879,-12.08292420450816,-13.210621627264018,-1.6332865363948317,0.13001082957306664
0,-10.614767123112419,-17.281483232734796,-12.785733063614803,1.0170892492383548,0.13501124609510384
0,-15.758316262093066,-21.11004260024094,-14.990843989458993,0.9474670177316363,0.14001166261714815
0,-7.581870338585041,-8.478602298432591,-6.695954355732683,1.747846765910113,0.14501207913918535
0,-7.565429326318793,-6.417162317204536,-6.56106411222971,1.6982284904963132,0.15001249566122965
0,-6.028993198078714,-3.2457226453465666,-1.2661732078886996,2.5086121880632626,0.15501291218326685
0,-5.122561925914246,3.2257167289802826,-2.461281591108769,1.718997855001888,0.16001332870531115
0,-2.6261354812832063,-1.88284418212553,-0.3863892099800166,0.3193854875156461,0.16501374522734835
0,-12.479713835123746,-5.601405366485487,-9.63149601236318,-3.510224918312456,0.17001416174939266
0,-4.133296957787758,4.860033188195866,-1.9166019457918424,7.240166633573028,0.17501457827142985
0,-1.2368848189674266,8.721471494273334,6.01829304258743,5.620560139127148,0.18001499479347416
0,1.9795226121336325,6.142909563822197,8.993189005732983,11.11095559391934,0.18501541131551136
0,0.6059253664818267,3.564347408343737,9.418085996212863,4.1513529928630275,0.19001582783755566
0,14.642323474922637,17.795785038677575,18.412984065789836,10.131752330121891,0.19501624435959286
0,11.178716967814252,14.477222464809062,12.717883265101372,10.422153599093317,0.20001666088163716
0,7.695105874634082,13.32865969551549,11.992783643445602,7.362556792336911,0.20501707740367436
0,8.551490223850996,11.3400967381967,8.657685248805528,8.932961901526028,0.21001749392571867
0,6.157870043046389,2.631533599012629,4.0425881280688944,-2.936631082450184,0.21501791044776297
0,4.964245359053312,-1.22702971676049,7.51749232729299,-7.356222169155159,0.22001832696980017
0,9.020616198048552,5.754406795695076,9.072397891866046,3.8241886318483584,0.22501874349184448
0,9.886982585546404,10.165843140906711,9.767304866469516,4.264601311164279,0.23001916001388167
0,8.533344546280118,5.887279322922046,2.5622132949927776,6.7950158593087435,0.23501957653592598
0,5.1097021041332376,9.038715345086349,5.0471232206080545,8.505432266376427,0.24001999305796318
0,3.7960552822338696,13.89015120994249,9.16203468592278,13.345850521798432,0.24502040958000748
0,-0.337595896834332,6.281586919121488,8.316947732964062,11.936270614105858,0.2500208261020447
0,1.2287485891975591,9.723022473278823,6.09186240304635,10.546692530739055,0.255021242624089
0,3.775088762434746,9.404457872153188,7.976778736729361,9.437116258011233,0.2600216591461262
0,-5.648575355135439,-5.304106885306174,-5.5983032260681025,0.10754178124808478,0.2650220756681705
0,-15.912243741456477,-19.57267180052023,-15.293383445688105,-8.052030914852871,0.2700224921902077
0,-22.265916373842117,-28.531236874354075,-22.818461881988075,-13.341601845614248,0.275022908712252
0,-22.609593228230363,-30.279802106006752,-22.273538493488,-22.021171025666202,0.2800233252342892
0,-26.33327427861302,-32.038367492193764,-27.128613236760152,-18.050738468309564,0.2850237417563335
0,-24.14695949672884,-22.73693302679196,-21.62368606612226,-20.220304185104258,0.2900241582783778
0,-13.150648851999986,-10.40549870097963,-9.638756933634362,-10.599868185776486,0.295024574800415
0,-8.164342311818052,-10.284064503824116,-6.5438257894954726,-4.45943047845467,0.3000249913224593
0,-8.448039842095636,-0.2726304230117172,-3.3188925826817153,-0.5189910701663106,0.3050254078444965
0,-0.6317414077696886,5.218803554513673,2.8660427384998077,9.151450032562355,0.3100258243665408
0,-1.4354469731665866,-7.7397625579482225,-0.4290197739859234,7.251892823130163,0.315026240888578
0,-3.919156502274383,-10.088328746968953,-0.2840800681458584,2.6823372944484483,0.3200266574106223
0,-4.642869958838843,-7.9368949986689445,-1.8491380920026907,1.3327834388705888,0.3250270739326595
0,0.19341269368823966,1.3245387015418466,3.625806206447268,0.7532312483825294,0.3300274904547038
0,-2.5203085078600953,-0.11402763119536585,-1.3392471207952146,-0.4563192852033632,0.335027906976741
0,1.7959664735286935,5.767406018434637,5.035701978186654,1.7241318298494768,0.3400283234987853
0,1.7222376749293238,5.568839665592902,1.8906535551477397,1.8445845852146514,0.3450287400208225
0,-8.541494866578939,-7.829726674863352,-5.844392338341506,-6.774961027494403,0.3500291565428668
0,-9.685231113741608,-9.588292988171116,-7.159435650707751,-6.884505016563904,0.355029573064904
0,-10.90897102874239,-6.736859259177511,-5.834476330031422,-7.274047389876065,0.3600299895869483
0,-11.712714572876788,-10.135425471997006,-2.949514323840128,-13.573588154648085,0.3650304061089855
0,-14.966461706377794,-15.0739916098781,-10.314549579104012,-10.543127317227913,0.3700308226310298
0,-5.7502123883264415,0.4274423448877831,-1.939582042237062,-1.7326648829810711,0.3750312391530741
0,-7.853966576717436,-1.1511235891557114,-1.5846116591117154,-4.612200856443143,0.3800316556751113
0,-9.887724228647949,-3.2996893930035434,-5.73963837518728,-1.391735241626053,0.38503207219715563
0,-9.561485300398553,-3.808255047423847,-1.6046621356055777,-6.041268042196256,0.3900324887191928
0,-9.55524974737131,-3.6968205329234505,-0.05968288520881693,-0.4707992614965588,0.39503290524123713
0,-2.69901752408109,-0.7653858296881142,1.5652994313607027,1.5896710974147483,0.40003332176327433
0,1.297211415657085,2.436049082348261,5.430284869465843,3.4001430315927625,0.40503373828531863
0,8.483437118334791,14.317484223246213,14.435273484203076,8.560616537947707,0.41003415480735583
0,6.85965963027102,12.12891961259607,10.30026533001872,6.891091612979355,0.41503457132940014
0,9.615878997234768,13.670355269031859,11.09526046037153,14.981568252523466,0.42003498785143734
0,-1.7579047356939224,4.541791210020556,-0.2997410723086624,3.2920464515498002,0.42503540437348164
0,-1.9416915239501364,5.65322745200212,0.06526078367048704,1.2625262041731342,0.43003582089551884
0,-3.215481323113532,0.5546640107030145,2.3602660796635986,3.933007503926722,0.43503623741756314
0,-4.459274088603637,-4.883899098534656,-4.914725133064929,-2.62650965595384,0.44003665393960034
0,-4.133069775530517,-7.102461860392016,-7.129712803173561,-3.126025282344164,0.44503707046164465
0,-4.28686833862475,-8.751024259193505,-5.884696878989628,1.564460617939186,0.45003748698368895
0,-13.670669732149536,-14.379586278588008,-15.519677308237155,-3.695051961781722,0.45503790350572615
0,-21.764473909618825,-20.45814790122717,-21.514654037712553,-12.78456302798222,0.46003832002777045
0,-19.798280823266843,-25.636709108326926,-18.449627012822084,-5.324072586677783,0.46503873654980765
0,-20.07209042356952,-21.67526987919596,-17.5145961772169,-8.603580643154473,0.47003915307185196
0,-8.285902659126933,-3.563830191071382,-7.059561472785931,-1.2230872019529677,0.47503956959388915
0,-14.8197174768995,-8.032390019513864,-10.394522839963134,-7.0225922670198555,0.48003998611593346
0,-11.34353482250585,-11.960949339001667,-9.829480218072526,-6.012095841807256,0.48504040263797066
0,4.952645359547293,4.260491876764631,3.9155664544354334,8.638402070664913,0.49004081916001496
0,13.018823125378525,13.821933654550593,10.200617239608173,11.708901467493467,0.49504123568205216
0,6.27499853093723,10.463376020906171,10.335672199341278,13.339402345282306,0.5000416522040965
0,12.25117163141793,13.714819001507037,10.85073139480446,20.759904699582712,0.5050420687261337
0,14.717342481050956,12.436262620874565,17.11579488614922,20.880408524488196,0.510042485248178
0,8.373511132977512,9.677706902328262,13.530862732317724,18.830913812314755,0.5150429017702152
0,11.949677639188087,13.289151868019259,13.975934990885445,20.411420553445986,0.5200433182922595
0,9.355842050586794,23.990597538889027,12.211011718035415,17.95192873633657,0.5250437348143038
0,10.342004417056115,19.97204393437641,14.276092968622827,19.912438347551177,0.530044151336341
0,9.698164787484497,22.693491072036892,14.881178796195197,18.24294937179136,0.5350445678583853
0,6.624323209805187,19.87493896735753,14.166269252947986,13.843461791941053,0.5400449843804225
0,13.070479731047657,22.93638763374046,20.24136438964246,17.63397558917934,0.5450454009024668
0,13.37663439730039,17.697837082521332,13.566464255498094,19.044490743068508,0.550045817424504
0,10.252787253566016,9.779287323085121,6.381568898189799,7.15500723157145,0.5550462339465483
0,8.088938343700908,6.880738363210873,9.976678364101474,3.735525031244458,0.5600466504685855
0,5.61508771055057,-0.4578097904151151,4.26179269866166,2.086044117707887,0.5650470669906298
0,3.281235396176994,0.5836428683039366,2.1069119465799946,1.1265644660976295,0.570047483512667
0,3.0273814420794927,4.955096345209997,2.7820361520600203,3.737086051288558,0.5750479000347113
0,-2.406474110607985,-2.5734493540120513,-3.3628346409835244,-3.4623911520287196,0.5800483165567485
0,3.449668779062373,6.018005776156372,0.1422996112667645,4.158132830718451,0.5850487330787928
0,0.17581015194658,2.859461741039473,-1.3725610473250747,6.818657973988727,0.59004914960083
0,-0.5380499511858536,-0.49908145429224576,-3.41741657278069,8.889184251930109,0.5950495661228743
0,-5.241911489596227,-4.817623804962268,-5.432266920938449,0.1797116381439008,0.6000499826449115
0,-5.215774422391919,-4.006165306040359,-2.7671120473301793,3.7402401056882844,0.6050503991669558
0,-2.549638708334258,-2.5447059523125724,-1.6719519071200781,6.020769627228961,0.6100508156890001
0,-3.1635043057820003,-2.6632457382199335,-0.05678645517710823,0.9913001750838597,0.6150512322110373
0,-5.367371172731984,-7.161784657875294,-10.18161564614572,-3.0381682787466815,0.6200516487330816
0,-4.151239266815393,-3.370322705012945,-10.076439434300527,-6.547635762354199,0.6250520652551188
0,-4.445108545247384,2.9611401270389184,-3.161257773268953,-1.457102303611788,0.6300524817771631
0,-2.1889789648190527,-0.7373961548018568,-2.7560706159677895,7.793432069902925,0.6350528982992003
0,-0.7228504819682735,-2.32593154356777,1.709122085165633,4.333967330626937,0.6400533148212446
0,-0.8167230528965095,-2.9544660322413194,-2.005679622096312,1.6745034506724203,0.6450537313432818
0,-1.65059663366885,-8.072999613599098,-3.2304756898891336,2.515040401756079,0.6500541478653261
0,-4.074471180224041,-2.62153228003594,0.1747339297778121,0.8855781553139337,0.6550545643873633
0,-6.228346648279713,0.41993597649540715,-1.9200507149407602,1.3661166825929758,0.6600549809094076
0,-0.4422229932049284,0.0814051643419979,3.795170424217779,0.9866559546972131,0.6650553974314448
0,1.0638998299724127,-4.927124708023511,-4.739602604461777,-0.1928040573789811,0.6700558139534891
0,-3.689978133586395,-4.155653631980494,-0.9143697526668373,-5.69226338267661,0.6750562304755263
0,-5.583856838586529,-5.924181598595484,-1.9891309719574046,-5.1117220500921405,0.6800566469975706
0,-4.677736239456836,-7.202708598475667,-1.7738862137094489,-4.041180088166557,0.6850570635196149
0,-1.05161629021872,2.0287653782823463,0.6313645708648874,-6.66063752497516,0.6900574800416521
0,5.964503055424887,10.250240341902956,8.026621430607738,3.0999056118567685,0.6950578965636964
0,7.10062184376914,8.911716302443939,8.301884414147398,9.720449294942096,0.7000583130857336
0,8.006740120723645,5.0431932693354105,8.087153569563242,10.84099349666457,0.7050587296077779
0,15.05285793151307,15.70467125120158,12.832428944156826,11.401538188684482,0.7100591461298151
0,8.378975320443356,15.1261502557284,8.48771058431929,10.162083341670982,0.7150595626518594
0,17.035092330723835,17.667630289375193,16.862998535415976,10.28262892524357,0.7200599791738966
0,10.861209004362081,9.779111357145954,15.648292841634504,5.593174908022359,0.7250603956959409
0,5.747325382147621,6.730593462655934,7.6735935458339,1.7337212577881862,0.7300608122179781
0,5.253441503836058,6.732076608436205,2.088900689640018,0.014267941763181025,0.7350612287400224
0,3.2995574084564803,2.3335607962480136,5.694214313828522,1.9648149268947295,0.7400616452620596
0,-5.494326865406777,0.27504602732471567,0.9195344586730689,-4.884637819964501,0.745062061784104
0,-6.33821127928067,-2.5834676973813417,-4.79513883585214,-5.484090331892199,0.7500624783061411
0,-0.9520957944433188,2.268019623023261,-0.5998055298367954,-0.6735426416979235,0.7550628948281854
0,4.954019628165038,5.4895079894169125,6.475534416722174,2.397005218117889,0.7600633113502226
0,4.900135027676636,9.010997402467817,3.9208810437793247,5.727553215149537,0.765063727872267
0,9.42625044292748,9.612487862326098,5.786234390966353,6.108101316776693,0.7700641443943113
0,8.232365912180466,11.923979368358642,9.221594497419877,5.758649489931899,0.7750645609163485
0,3.698481472981352,4.365471919011355,0.5269614017032866,4.489197701002927,0.7800649774383928
0,1.2345971622181073,1.2969655118914525,-1.6676648581252564,9.199745915818115,0.78506539396043
0,4.260713016330024,6.588460144026042,0.8477157557496302,10.480294099576714,0.7900658104824743
0,-2.053170928520057,-0.09004418794391611,-2.2568967188721274,3.740842216719443,0.7950662270045115
0,6.282945363633761,3.141452512306825,1.028497755864826,5.791390230926502,0.8000666435265558
0,10.33906192850572,12.102950240788166,10.233899217800017,8.251938105238908,0.805067060048593
0,0.815178801347539,4.774448993033627,-0.2606922954619494,-1.0175141978635298,0.8100674765706373
0,3.6912960168502966,-4.4440512360305435,2.8647232532870746,-0.40696671633884973,0.8150678930926745
0,4.817413609266472,3.0674495481231174,5.950145900903477,5.233580511633597,0.8200683096147188
0,5.773531612478049,-0.2010486600790099,2.8255756839207335,6.31412744769836,0.825068726136756
0,5.96965005991964,8.150454133711985,9.26101263846145,12.364674053095746,0.8300691426588003
0,6.435768984489731,5.271957923573908,4.636456800129534,5.8252202883736794,0.8350695591808375
0,8.361888418492649,9.223462703088655,13.191908203891622,9.71576611324196,0.8400699757028818
0,5.258008393580085,10.494968465159811,6.0373668839446495,1.4563114866125315,0.8450703922249261
0,4.06412894075304,-0.6835247980754895,2.832832873670253,-0.9231436332044298,0.8500708087469633
0,1.830250090467647,1.5879829048868752,6.658306205769907,0.5674007117948541,0.8550712252690076
0,-1.7136281271819722,-2.1805084347611325,-0.10621308754633774,-7.082055520417313,0.8600716417910448
0,-0.9675056822515636,-8.368998825828823,-0.5807249744119697,-9.181512371647564,0.8650720583130891
0,-4.0313825447555525,-7.3974882768315116,-5.395229423088705,-5.850969883192518,0.8700724748351263
0,-5.665258684509486,-6.865976795713362,-6.809726401682481,-7.100428095659021,0.8750728913571706
0,-7.63913407096387,-10.92446438969755,-7.004215877878439,-7.36988704895543,0.8800733078792078
0,-10.133008673010009,-15.252951065166526,-15.038697818716365,-10.989346782286077,0.8850737244012521
0,-3.566882458829043,-9.25143682746359,-6.8031721903735,-3.998807334085562,0.8900741409232893
0,-8.04075539587599,-3.969921680817561,-7.927638958051848,-8.218268742017003,0.8950745574453336
0,-9.694627450927397,-11.098405628517199,-15.952098086005824,-10.067731043023501,0.9000749739673708
0,-9.268498590024844,-11.526888673047605,-6.68654953751412,-5.577194273304545,0.9050753904894151
0,-5.99236877837632,-12.115370815980992,-3.0509932748566775,-5.716658468296809,0.9100758070114523
0,3.843762019556627,1.3261479421128768,1.7245707404315027,1.9738763371892505,0.9150762235334966
0,-2.6601061602616936,-3.1623323985579415,-0.7698574528505152,-0.1255898912982869,0.9200766400555338
0,-1.3039732817320182,-0.010811837391578746,-4.274277815807297,-1.845057188095828,0.9250770565775781
0,-2.557839308667648,-4.249290373603107,-3.248690309414382,-2.134525587490756,0.9300774730996224
0,-3.691704204708454,-6.317768006196179,-7.013094894361169,-6.793995123618567,0.9350778896216596
0,-3.9555679332386755,-4.556244733818233,-1.8374915309278976,-2.7034658303090042,0.9400783061437039
0,-3.3894304573205454,-3.0747205546526613,-3.9118801789647213,-6.4429377409757045,0.9450787226657411
0,0.6567082603118388,3.9168045335143282,0.13373920203021283,1.95758911139015,0.9500791391877854
0,4.172848257126298,7.458330533017449,4.639366652757632,10.638114694027509,0.9550795557098226
0,7.518989570525402,9.71985744591023,10.37500221384381,8.668638973965116,0.9600799722318669
0,5.295132237548618,5.961385273623936,7.40064592546824,5.739161917588751,0.9650803887539041
0,0.3212762947244723,2.8029140168671907,-0.8037021728577866,-4.4903165094159725,0.9700808052759484
0,-6.75257822178736,0.1644436757795205,-8.08804204210499,-5.369796341706714,0.9750812217979856
0,-1.056431275842516,3.1059742501706618,5.577626356704605,-0.7592776138343176,0.9800816383200299
0,5.119717168904103,9.327505739607478,7.363303062638419,6.451239639899994,0.9850820548420671
0,14.055867148788863,14.849038143204757,10.608988114517722,11.481755385154038,0.9900824713641114
0,5.472018699651668,3.8105714592751183,6.144681550512753,3.522269587099869,0.9950828878861486
0,6.688171856527491,0.2921056852480573,5.210383408011754,11.332782210183163,1.000083304408193
0,5.934326653678586,5.533640817954734,7.036093723705197,7.343293218081119,1.0050837209302372
0,12.640483124682564,7.605176853851372,10.97181253364113,9.793802573663132,1.0100841374522744
0,0.5966413023929531,-4.043286210998772,1.1275398731722235,-4.495689760978601,1.0150845539743187
0,-3.1171987809796384,1.1282516191446668,-2.6567242229642503,-6.585183824207514,1.020084970496356
0,7.388962906440934,7.549790339877612,8.439020279631418,3.145320345634903,1.0250853870184002
0,6.165126396335379,3.8013299465997292,6.694773415115338,1.9358227104093633,1.0300858035404374
0,3.0812917200180703,5.572870434305653,0.25053521722853833,4.4063232319753265,1.0350862200624817
0,5.7774589083071195,6.864411797482953,4.606305719244194,11.606821871907313,1.040086636584519
0,3.943627991547806,-2.5740459698744678,3.5120849540782704,3.1173185912506307,1.0450870531065632
0,-2.850201000316238,-0.5125028741164444,0.4778729543433107,-4.60218664954025,1.0500874696286004
0,-0.8640280375706737,1.8390410783013595,-2.246330247588541,-3.561693890300231,1.0550878861506447
0,0.90214690948739,5.750585880883185,0.14947538057821785,-5.121203170725144,1.060088302672682
0,3.868323870592109,6.222131526916149,4.745289871155297,1.6192854698275208,1.0650887191947263
0,-0.3154971246084609,3.8836780092606453,4.471113256357815,-5.17022800770607,1.0700891357167635
0,3.710683953359654,13.395225320222357,8.356945568078142,3.5902563578017217,1.0750895522388078
0,1.6268671337829712,3.436773451431449,4.472786837697936,6.920738527529524,1.080089968760845
0,7.04305244571364,1.398322393804138,2.28863709603285,9.381218462415202,1.0850903852828893
0,8.879239917830407,0.8898721377417027,6.804496373407437,8.761696122806025,1.0900908018049336
0,0.16542957827547755,-0.3485773265903781,0.7203646997329198,9.042171468247894,1.0950912183269708
0,6.651621454640327,-3.5070260090843117,-0.2637578954274523,6.032644457438931,1.100091634849015
0,3.5178155740684907,-3.475473919543122,4.172128617265076,2.063115048317302,1.1050920513710523
0,-1.6759880366732842,1.3360789324377471,-1.7919757329908867,-1.1964168017160728,1.1100924678930966
0,-3.5397893510475438,-1.2623674625474437,-4.576070917075443,-2.675951135491778,1.1150928844151338
0,1.4264116574957226,-5.250813113784574,-1.0001569057858792,-0.8754879958134179,1.120093300937178
0,4.092615015596183,6.7607419695619395,3.3557663302694896,0.9149725746456127,1.1250937174592153
0,4.3388207498108775,9.65229777831865,5.5516988205265205,-2.8545694666885657,1.1300941339812596
0,5.265028886396848,1.8038543029547032,6.897640594172847,3.445885837662737,1.1350945505032968
0,3.741239451193537,3.495411533388723,7.023591679907136,3.256338445161961,1.140094967025341
0,-1.5525475303644956,2.206969459098706,0.42955210584693226,0.5167883131270468,1.1450953835473783
0,-6.246332033058125,-9.26147193066497,-7.1144781003157345,-1.3227646013139358,1.1500958000694226
0,-9.310114031525847,-7.959912646554828,-7.2184989109005455,-1.0323203411137367,1.1550962165914598
0,-12.463893499860086,-8.0683526987171,-8.462510297792997,-9.401878949126703,1.160096633113504
0,-7.027670411305834,-5.176792096567061,-6.766512232197063,-6.151440467873909,1.1650970496355484
0,-1.191444738209153,-1.2452308488414767,-3.9005046846000853,2.178995060636499,1.1700974661575856
0,-7.1152164522272825,0.6463310361833505,-2.6444876248808984,0.6794275947991745,1.17509788267963
0,-9.958985524492569,-6.192106449526233,-2.4284610224806014,-3.2401429068604486,1.180098299201667
0,-9.732751925504402,-7.6005433137685765,-10.792424846482598,-8.449716485727144,1.1850987157237114
0,-12.086515624906546,-7.868979563891081,-7.796379065483067,-10.019293182830298,1.1900991322457486
0,-8.590276591355654,-5.8474152065893525,-7.110323647375377,-8.66887303851916,1.195099548767793
0,-4.98403479252871,-4.655850247878073,-7.704258559270912,-10.388456092277211,1.20009996528983
0,-5.667790195280254,-7.764284693159708,-3.0781837675591603,-8.468042382671014,1.2051003818118744
0,1.648457234128216,-0.9827185472813356,-1.1420992380455735,-7.227631947365648,1.2101007983339116
0,-4.015292470199433,-2.9811518146153437,-4.1760049361392255,-8.007224823186315,1.215101214855956
0,-1.2290392739462979,-0.8895844992027687,-3.629900826961487,-7.666821046182787,1.220101631377993
0,2.527216857360067,0.21198339511579986,2.7762131246365316,0.1335793483007368,1.2251020479000374
0,2.2534759582499504,0.5135518646025834,3.562336953955721,0.4839763254331776,1.2301024644220746
0,3.1297380631412146,3.905120905515601,3.5384706962014345,-0.715630149393474,1.235102880944119
0,-0.6339967937567264,-0.07330948600037535,3.724614386293844,-3.255240110724323,1.2401032974661632
0,1.2922714215884783,-2.1217393139421397,2.0507680588177317,0.27514640698684356,1.2451037139882004
0,-1.741457256878375,-0.9801685823446298,-1.0930682519294876,0.8655293694074575,1.2501041305102447
0,-3.635182795198894,-10.518597295099156,-5.856894511775751,-0.3240912577404984,1.255104547032282
0,-2.99890515927198,-3.0870254557342376,-1.0407106864319207,-7.35371550870065,1.2601049635543262
0,-2.8626243147385892,0.40454693271524134,2.5254832586283444,0.9366565824454774,1.2651053800763634
0,-2.776340226944379,-2.963880132402353,-5.318312641909612,0.14702498186402124,1.2701057965984077
0,-3.580052860945835,-4.652306653513829,-2.252098353249284,-4.102610344110472,1.275106213120445
0,-9.583762181464806,-11.590732632744926,-6.845873840358035,-8.862249428973238,1.2801066296424892
0,-9.127468152718123,-9.059158071644223,-9.089639067784761,-9.071892305807852,1.2851070461645264
0,-7.5511707382000095,-6.007582970948487,-6.563393999480207,-8.831539007000215,1.2901074626865707
0,-11.534869900562537,-10.236007330544318,-5.8171385986867215,-9.791189564089636,1.295107879208608
0,-1.2285656016125353,-6.534431149518625,-4.400872827975945,-8.120844007730016,1.3001082957306522
0,0.39774219753139217,-6.622854426183584,-6.514596649344771,-5.380502367716857,1.3051087122526894
0,-4.905946463857531,-10.301277158102682,-6.24831002425128,-8.230164673075345,1.3101091287747337
0,-0.9096315462952841,-1.249699342117714,-2.6920129136042217,-0.7398309521722333,1.315109545296771
0,6.176686989863408,3.25187902551759,7.544294722120915,5.1504987670937945,1.3201099618188152
0,4.643009184235888,10.073457948745776,9.220612922498935,4.400824456931762,1.3251103783408595
0,3.739335076129816,5.015037431207892,2.566941726692778,-1.3288539106680943,1.3301107948628967
0,2.675664704430524,7.716617475936435,6.103281173260727,9.9214636359745,1.335111211384941
0,10.811998107606044,8.908198085273254,11.739631300177692,8.101777068159041,1.3401116279069782
0,13.16833532356342,13.319779260796983,14.895992144699624,13.842086356546458,1.3451120444290225
0,14.17467638931944,11.001361003151096,15.042363743035946,8.042391470882299,1.3501124609510597
0,12.251021340711162,5.962943311924229,10.098746130100032,5.822692379917436,1.355112877473104
0,4.107370212347537,8.26452618572919,4.1951393395510035,-0.917010948413703,1.3601132939951412
0,0.5437230378619147,4.326109622384228,0.8615434041141848,-2.556718546631565,1.3651137105171856
0,-1.419920149652293,2.4876936190731174,0.027958356002946272,1.4935695526392943,1.3701141270392228
0,4.116440682713716,5.249278172491493,6.16438422719775,-0.6761466831774685,1.375114543561267
0,5.932805567745971,10.730863278895267,4.95082104945109,-0.09586728662825994,1.3801149600833043
0,0.17917453796566019,1.4724489339913478,1.3072688541553925,-2.2755922902390804,1.3851153766053486
0,-1.454452374409541,-8.39596486703293,-3.6962723276366383,-7.385321726424814,1.3901157931273858
0,-3.2680751372831884,-4.604378129104959,0.9201975350057996,-3.09505562731204,1.39511620964943
0,1.868306281522515,-8.312790856783808,-2.943321526917958,-5.944794024590063,1.4001166261714744
0,0.4946919142902939,-6.241203054024406,-3.756829482265206,-2.734536949479847,1.4051170426935116
0,-2.5089182066736493,-3.7696147241398705,-1.1903262996876136,-7.184284432754822,1.4101174592155559
0,-2.3625240490313693,-8.948025869838599,-4.773811947574651,-11.034036504682348,1.415117875737593
0,-2.8861255803013246,-2.756436493254055,2.3927136059383343,-2.7237931948796557,1.4201182922596374
0,1.8202772322013216,-0.3648465959936543,3.6392503928616415,-4.263554532277044,1.4251187087816746
0,7.246684421251285,5.1367438206543765,7.695798445106691,1.736679454700686,1.4301191253037189
0,7.483096019419344,0.6683347554075808,5.922357794198875,0.3969087378730726,1.435119541825756
0,6.959512058760235,6.259926206767084,3.7389284711124606,2.167133289093755,1.4401199583478004
0,12.59593257062201,12.651518172857303,11.865510506232622,5.467353080099606,1.4451203748698376
0,13.042357585485538,7.223110651174304,9.272103929271282,4.277568082368778,1.4501207913918819
0,1.1887871328316795,-4.5052963615528725,1.438708769145411,0.9377782670145668,1.455121207913919
0,6.985221241244496,3.686297130881996,7.235325054042386,5.707983604790372,1.4601216244359634
0,3.661659938678152,-0.9821088754871012,2.231952811609328,4.148184066113419,1.4651220409580006
0,1.958103252621561,0.9894856153229461,1.568592069073455,6.798379621001108,1.4701224574800449
0,5.464551210172138,5.791080599209411,5.395242853324537,13.778570238925353,1.475122874002082
0,8.581003838038413,7.1926760718499585,10.561905190900992,4.658755888609903,1.4801232905241264
0,4.127461162425588,-1.2057279714751121,1.4585791078266235,0.04893653797068398,1.4851237070461707
0,0.3039232089777594,-0.5741315358624882,0.8052646295572518,-6.580887845584568,1.490124123568208
0,-3.209609997041827,-7.022534626518468,-1.4880382188043835,-7.290717294642752,1.4951245400902522
0,-4.243138430429369,-9.64093724841304,-2.7213294122323872,-2.1805518413889433,1.5001249566122894
0,-2.1766620657803584,-4.529339405976157,-1.954608925596865,-2.1703915175156934,1.5051253731343337
0,-0.16018087740501752,-2.0777411029879156,-3.347876733568713,-6.170236354327807,1.510125789656371
0,2.056305160580852,1.0938576572582648,0.9888671894026849,-5.570086382769301,1.5151262061784152
0,5.82279607406008,5.215456871655636,5.335622868998552,-0.6799416333527131,1.5201266227004524
0,11.739291888644477,1.2570565370009987,9.672390330768101,7.120197863749543,1.5251270392224967
0,2.95579262937989,-1.9713433501320563,-1.6108304001636489,-1.9296679215987134,1.530127455744534
0,2.0522983206451504,-8.309742793250859,-1.784039299110714,0.24046098030245333,1.5351278722665782
0,3.4388089863183446,1.0218582043429967,1.3427636584385076,5.700584539013611,1.5401282887886154
0,3.9353246499515695,3.6734596396446713,4.939578496979038,8.810702723897446,1.5451287053106597
0,9.521845334749473,4.075061509711977,5.30640524085688,6.200815503862514,1.550129121832697
0,6.4683710634056535,6.886663811353186,6.913243914044829,6.8109228471622005,1.5551295383547412
0,11.004901857924699,12.768266540886488,6.860094539983152,0.8810247214033984,1.5601299548767855
0,10.981437739483527,3.809869693922802,8.076957141484137,3.0511210936992135,1.5651303713988227
0,10.48797872831115,-0.30852673467663105,6.7838317406704896,5.581211930818806,1.570130787920867
0,2.8045248436551757,2.9730772494465705,3.84071835897265,1.6812971992106136,1.5751312044429042
0,-2.948923896004646,-0.27531835957899664,1.0976170172342983,-4.658623134972656,1.5801316209649485
0,3.357632527437937,-2.173713567729146,6.654527735877028,4.891450894289152,1.5851320374869857
0,5.4241941319503235,9.397891618955546,4.831450534956518,4.0015192529679275,1.59013245400903
0,2.6707609352833903,4.189497194248208,2.918385434099545,0.8115819068579643,1.5951328705310672
0,7.107332954818018,7.961103151482745,6.415332452477459,6.601638821456532,1.6001332870531115
0,3.2139102074921064,-0.02729051656932835,1.0722916088341563,-2.948310038038792,1.6051337035751487
0,4.490492709780266,4.5443161823865035,2.009262921540598,3.081735293337278,1.610134120097193
0,1.6570804777309707,-1.0840767596776804,1.936246408693356,-1.6382252195730178,1.6151345366192302
0,-5.3463264729005795,-7.672469350930589,-5.606757911762101,-2.408191611953691,1.6201349531412745
0,-4.109728126393591,-8.960861599370277,-3.7497500218477544,-5.1081639188965555,1.6251353696633117
0,-5.273124466767218,-4.689253512469203,-5.4127299033149585,-6.248142175221656,1.630135786185356
0,-1.2365154776347103,-3.2776450970448163,-3.0456975375037865,-5.108126415310616,1.6351362027073932
0,1.8500988577347948,0.44396364059878807,2.801347094626467,-2.1381166730403907,1.6401366192294375
0,-2.243281443760323,-3.6244273055427603,-1.5915959876763708,-6.438112981826845,1.6451370357514818
0,-2.006656365160804,-6.1128179412563055,0.5154732348759207,-6.358115374649605,1.650137452273519
0,-4.340025889386965,-7.091208271994935,-4.827445218403035,0.6218761159806417,1.6551378687955633
0,-5.413389999104348,-6.599598302690215,-8.790351328025524,-2.798138542042372,1.6601382853176005
0,-7.8167486765777205,-13.16798803760271,-6.753245074075807,-2.488159380570693,1.6651387018396449
0,-4.2901019035399734,-6.626377480181067,-6.236126435999362,2.1718135687171776,1.670139118361682
0,-6.033449661138791,-5.274766632995565,-5.218995392568406,-7.488219725709744,1.6751395348837264
0,-3.456791929973819,1.8568445021035727,-1.3018519219741571,-6.5782592951613985,1.6801399514057636
0,-0.7201286901842279,-0.2815440763431952,3.065303997988864,-1.6583051705418401,1.6851403679278079
0,4.55654007838089,1.9300676303007556,5.092472389632698,-2.6183573822892985,1.690140784449845
0,-1.5667856040826316,0.15167962062126972,1.2796532750896923,-6.008415960475267,1.6951412009718894
0,-5.49010571743488,-5.296708106842236,-4.383153323765723,-8.308480934798327,1.7001416174939266
0,-2.5934202414357124,-2.235095553458607,-2.595947385125246,-6.098552334424262,1.7051420340159709
0,0.3332708444269429,-5.863482720328504,-0.8887288870147304,-2.8386301878872224,1.710142450538008
0,1.7399675608845566,-1.9418696081881746,-0.2814978072422687,-6.3287145231522,1.7151428670600524
0,3.6666699286879827,-0.4702562174229671,3.4757458764918026,0.5711946322695096,1.7201432835820967
0,1.0333779684370386,-0.5786425481758403,4.303002186424089,-0.6089027488062577,1.7251437001041339
0,6.080091700490637,5.312971399492067,7.24027114452761,5.170993306569958,1.7301441166261782
0,2.6968111449059142,-1.19541437455806,6.387552772320161,7.360882771224122,1.7351445331482154
0,14.453536321316488,14.09620012930122,15.944847090676426,11.270765617556618,1.7401449496702597
0,3.6802672487289594,3.787814910248747,5.832154119611323,0.35064181729993243,1.7451453661922969
0,7.767003945382404,4.829429966823543,5.389473878182926,4.970511341525726,1.7501457827143412
0,3.7137464288006963,1.2710452969649741,3.356806384657661,-3.249625839128026,1.7551461992363784
0,4.330494715930362,5.692660898192351,3.854151656760182,-3.109769754183749,1.7601466157584227
0,1.2172488232575207,-4.045723232276207,2.151509711819373,-4.6399204330646695,1.7651470322804599
0,-7.995991233008872,-8.634107097339712,-0.8911194331383734,-10.540077904854057,1.7701474488025042
0,-2.78922543662018,-3.2024906996660105,-5.993735761221558,-7.090242198070664,1.7751478653245414
0,-3.4924537710027757,-0.4208740414631841,-1.2163392554281602,-5.680413340508742,1.7801482818465857
0,-1.415676219200057,2.730742875406203,0.24107010149897268,-4.710591359251789,1.7851486983686229
0,-3.4688927639560068,0.9223600491534225,2.068492326995125,-5.670776280789806,1.7901491148906672
0,7.467896612178757,6.913977477855164,9.20592743844554,-0.6209681311171709,1.7951495314127044
0,1.7646919266429932,1.6855951593118776,-0.8866245470567853,-4.37116693583012,1.8001499479347487
0,1.4014931966445823,-2.8127869089916375,1.550836387205249,-0.6013727202254127,1.805150364456793
0,6.758300439090659,9.478831270204731,6.348310257667505,6.318414490585759,1.8101507809788302
0,14.095113670498305,17.890449693840974,17.075797080416542,16.248194671371643,1.8151511975008745
0,7.5719329067036405,-2.657931641850495,2.2532968708449044,1.6279677963052472,1.8201516140229117
0,3.248758162650843,0.9336872585545913,1.6308096434926065,0.3577338387740724,1.825152030544956
0,1.145589452536422,3.0953063900426416,3.3583354123027354,0.05749277166294703,1.8301524470669932
0,4.312426790114581,-3.4430742525326914,0.7258741909136952,-1.8427554322851045,1.8351528635890375
0,0.08927018886637396,0.06854532564610494,-0.38657400722740176,-1.0830108002962893,1.8401532801110747
0,-0.8338803379291095,5.850165119403939,1.9909908312055904,-3.3032733594867003,1.845153696633119
0,5.002975222881199,2.3417851234714435,5.518568719432633,5.356456863159529,1.8501541131551562
0,8.679836884278581,5.973405332291611,8.396159670420502,7.546179840640265,1.8551545296772005
0,9.1067046588139,10.795025739867596,10.033763696622618,9.615895545602267,1.8601549461992377
0,12.813578558304787,8.306646339578403,11.491380809724909,10.045603950011085,1.865155362721282
0,8.74045859362872,0.08826712404616854,4.559011020501559,3.62530502499796,1.8701557792433192
0,10.66734477464302,10.399888085224852,9.266654338843392,6.804998740917208,1.8751561957653635
0,12.094237110185048,7.921509214495643,8.874310773854424,6.794685067480718,1.8801566122874078
0,1.0111356081102727,-4.076869497360924,-5.078019666065787,-4.485636026136096,1.885157028809445
0,4.938040275465334,4.344751939965377,4.649663026999473,-1.3059645710764636,1.8901574453314893
0,-1.1450488812128554,-0.44362648342569266,-2.242641139219165,-4.896300598465145,1.8951578618535265
0,-3.7181318556159457,2.17799522245561,-3.184932157017214,-3.9066441391681135,1.9001582783755708
0,1.1887913585635559,4.059617047456419,6.342789981347669,4.533004776253998,1.905158694897608
0,2.325720767723449,4.5712389812019945,2.7205252835903515,-1.117353882593108,1.9101591114196523
0,2.0926563782463488,2.872861012990154,-0.08172624278130458,-2.1377201461042965,1.9151595279416895
0,-0.2204018036260199,-1.7955168682194649,1.1160354095019922,-4.2380940446419855,1.9201599444637338
0,-1.2434537717793177,-2.513894673649078,1.2838102475720259,-6.488475608348454,1.925160360985771
0,0.853500479868631,-0.7222724144875334,-0.6684017215215436,-0.6488648669903561,1.9301607775078153
0,-2.809539042565051,0.2093498982106487,0.8193995092085015,-5.46926184993187,1.9351611940298525
0,2.0974276670922705,1.8809722534730815,2.227213946702353,-7.279666586152286,1.9401616105518968
0,1.344400615043487,6.012594640269996,4.545041597796769,-3.340079104178064,1.945162027073934
0,5.071379807414638,3.6542170473337356,4.772882469091308,-1.6304994320414252,1.9501624435959783
0,4.058365250100341,4.9658394630106,4.560736566816441,-5.7909275973669745,1.9551628601180226
0,0.7153569486612159,2.1174618752217578,1.0786038967863931,-6.871363627411398,1.9601632766400598
0,-0.27764509163740514,1.5590842715203292,2.346484464464776,-5.011807548961898,1.9651636931621042
0,-6.020640865643029,-6.739293360758012,-5.035621724891643,-7.052259388238569,1.9701641096841414
0,6.976369631869337,3.1123289657287687,3.2522853339376523,-0.6027191709006601,1.9751645262061857
0,-1.546613593813892,-0.19604876155652207,-0.21979435378483392,-6.153186922133681,1.9801649427282229
0,-6.959590537432724,-6.384426555066489,-4.981860782771209,-6.26366266671093,1.9851653592502672
0,5.677438806331605,6.127195572836803,7.246086052303414,3.975853571005035,1.9901657757723044
0,-2.3255255570775315,-6.861182390097157,-5.655953843211229,-10.964638232996089,1.9951661922943487
0,1.4615163778029043,-4.6895604559903,-3.5079804639476757,-5.0351381023822475,2.000166608816386
0,-10.18143538354889,-16.80793863660779,-9.929993804332742,-11.345646060287848,2.00516702533843
0,-3.2643808354179904,-4.1163169429793225,-3.2119938583096053,-1.1061621291373471,2.0101674418604674
0,-5.617319971625318,-6.23469538522644,-3.173980619241507,-5.496686330691261,2.0151678583825117
0,-9.020252785441935,-13.233073972650127,-12.875954079955335,-10.007218686167914,2.020168274904549
0,-7.343179269527739,-7.431452713753404,-7.357914232665506,-8.487759216193211,2.025168691426593
0,-0.8160994158726684,-2.4298316161834204,-1.0698610688329209,-2.1883079406672263,2.0301691079486304
0,-4.309013215898643,-9.518210686838444,-6.6517945792508275,-7.518864878803566,2.0351695244706747
0,7.298079339296715,-0.08658993203415943,-0.3937147542507897,-4.889430049255423,2.040169940992719
0,-0.8248217413351031,3.1150306423490455,1.2643784161506182,-4.03000347015282,2.045170357514756
0,2.8622835510034115,1.1366510305976871,2.4324849420748427,1.9094148408357454,2.0501707740368005
0,-2.7806047750641634,-4.351728773056649,-3.439395166391745,-2.3411751336783713,2.0551711905588377
0,2.3165132890101154,0.37989122560457816,0.9687381007981125,1.9282265890196961,2.060171607080882
0,-2.4363622482305303,-6.328488979058693,-0.6631152462690524,-0.35238000833665617,2.065172023602919
0,-0.01923137821701898,-0.6968693924428704,0.9750448025370555,-4.742994943001363,2.0701724401249635
0,-0.7220940923268494,1.1547499803139685,-1.556781742646352,-8.893618232078737,2.0751728566470007
0,4.855049618097122,1.696369134212571,1.4814051283222773,-7.544249892240422,2.080173273169045
0,0.33219976163295517,-1.7220119357638106,-2.5803945743998757,-5.4748899394984525,2.085173689691082
0,4.719356346662565,2.219606765310556,3.197819159366736,-3.145538389191415,2.0901741062131265
0,6.796519381285485,-0.5487747676746899,4.006046339766405,1.0238047438503783,2.0951745227351637
0,10.873688873159633,5.512843460100479,9.274286976726552,4.033139445041233,2.100174939257208
0,4.050864829287745,-3.615538556679745,2.8025410797232104,-0.5175343002270407,2.105175355779245
0,8.788047255929657,6.926079176513214,10.030808657647237,7.471783493251512,2.1101757723012895
0,4.285236158650674,-1.9423033459477637,1.5090897187833705,7.09109281037201,2.115176188823334
0,5.372431542392919,5.039313870128261,6.757384270847676,8.090393635522618,2.120176605345371
0,9.339633411516086,5.420930818700898,7.065692321031872,3.349685952436546,2.1251770218674153
0,5.5468417697642005,4.022547493394283,7.104013875967709,0.13896974425071454,2.1301774383894525
0,0.2740566202464827,-4.105836112549384,-0.607651058314099,0.438244993733503,2.135177854911497
0,1.4212779655943626,0.2957799939007423,1.0406975237530092,1.407511683498072,2.140178271433534
0,-5.821494191762142,-4.3726041941861515,-3.6109403724618714,-5.9532302038801985,2.1451786879555783
0,-1.5042598493342847,0.19901131642917097,-0.09256474156751082,-0.47398068574100666,2.1501791044776155
0,-0.02701900442058147,4.8206265191292115,4.815824421910714,5.545260220734384,2.15517952099966
0,13.490228345787575,14.642241407187399,14.144227123328715,7.484492498337588,2.160179937521697
0,3.1174822038242445,1.3838559733577847,2.0726433675338196,0.533716129520054,2.1651803540437413
0,1.0747425716577663,-6.244529790254697,0.2910731586880294,-3.827068903661856,2.1701807705657785
0,2.312009450774475,3.9470841081464516,-0.610483499500152,-0.07786261929395118,2.175181187087823
0,-0.2707171575916274,-3.6713023396106896,-0.6320266034504223,-0.9786650353728263,2.18018160360986
0,4.316562747644249,2.290310858376656,2.176443850422566,5.2505238301897545,2.1851820201319043
0,-0.07615083259073341,-2.7780763059513673,-0.6150721343093963,-1.820296040574067,2.1901824366539415
0,1.1111421024606332,3.983536159370455,5.573425445846623,1.1188753342379487,2.195182853175986
0,-1.701558446561716,-1.734851753711144,3.7819365941975382,0.07803793644505433,2.20018326969803
0,-1.2342524790343772,-5.593240053264835,-3.0695386862243597,-8.522808252112167,2.2051836862200673
0,-0.19693999426664566,-0.03162874723973719,2.698999607400903,-3.5236632493830755,2.2101841027421116
0,-3.219620991464087,-3.4400178433408226,-2.172448522172978,-3.7445270729058198,2.215184519264149
0,-2.8922954696881735,-4.888407349011708,-0.2738830721844083,-4.925399739761578,2.220184935786193
0,7.4650365721542435,3.8232027285603762,8.124695960117355,3.163718733343637,2.2251853523082303
0,1.7223751351491825,-5.085187617611546,1.683288577321868,-8.00717167003208,2.2301857688302746
0,-3.680279779819187,-2.0935783943774813,-0.6581052182956795,-11.658070966037211,2.235186185352312
0,-0.27292817200280295,3.2980303915658715,-3.6594854246789152,-4.75897917026224,2.240186601874356
0,2.114429959387273,4.669638733590135,3.939147960226916,-3.919896297556032,2.2451870183963933
0,-4.48820538479494,-9.358753375028416,-3.952205061456006,-10.280822362102988,2.2501874349184376
0,-0.7608342036297202,-8.127145940974168,-0.4535444875568464,-8.491757377455567,2.255187851440475
0,6.326543503896475,0.6344610294706001,3.5951296841546996,-5.272701356427132,2.260188267962519
0,-1.0860722612256373,-11.903932469423129,-3.196182544069745,-9.983654311057629,2.2651886844845563
0,-1.638681498154254,-6.112326442825399,-3.2074811699780357,-5.214616252649854,2.2701891010066007
0,5.828715793847027,0.9292791047056491,7.7312338087452614,1.3744128081563707,2.275189517528645
0,4.606119615392208,1.2908841690908184,3.64996239437826,2.3634328611394317,2.280189934050682
0,1.68352996680673,-4.167511253567868,0.03870458892496065,5.142443896126292,2.2851903505727265
0,4.290946848048678,0.8440928328954571,3.5574603940646856,-1.3385540972612384,2.2901907670947637
0,3.2583702587425933,4.585696424713294,7.096229811209862,2.530438870362193,2.295191183616808
0,8.155800198158254,11.857299517997024,8.285012841396004,8.899422788175281,2.300191600138845
0,-2.1667633348534823,-1.5310978915839986,2.0238094850991155,-2.081602354938503,2.3051920166608895
0,1.5206796581976016,5.220504191095102,2.9026197422304536,0.9373634295708961,2.3101924331829267
0,4.908129175596272,1.3721057607629197,2.911443612294354,2.686320130058105,2.315192849704971
0,-1.274414784537044,-8.95629318805637,-3.2897189054616085,-1.2347322652177832,2.320193266227008
0,2.5730477757297514,-4.22469266076268,-1.6508678118885927,-6.575793768035887,2.3251936827490525
0,0.04051685418427653,-0.48309266238823056,-0.1620031077655446,-6.736864390000125,2.3301940992710897
0,-4.5120075514523155,-4.211493197563672,-0.12312479374377006,-2.017944142284435,2.335194515793134
0,-1.874525443394215,-1.5298942706326943,-0.9642328703995227,-3.5090330355780255,2.340194932315171
0,-2.347036823647367,0.5717041142859371,0.6546726617285094,-4.410131080180356,2.3451953488372155
0,2.940458305999724,-2.6766980467625876,2.1235918021127445,-2.4512382860501636,2.3501957653592527
0,1.1579599438386434,-3.395100757605349,4.972524550143195,4.227645337146702,2.355196181881297
0,2.695468088077462,4.796495978077306,3.5314709049798827,-0.33348022013837897,2.3601965984033413
0,2.2129827367455883,1.6780921566636928,4.6104308654317405,-1.304614967505735,2.3651970149253785
0,-2.209496112312391,-3.9703122255608143,0.1294044299312449,-6.785758914558619,2.370197431447423
0,-1.7019684613414463,-0.9987171723654649,-0.8916084033713711,-1.3369120706966742,2.37519784796946
0,3.1255656874461613,2.292877312565758,0.9773923635509469,-1.4880744449962147,2.3801982644915043
0,0.1231063318640534,-0.6955287743797256,3.016406728685469,-2.949246046257661,2.3851986810135415
0,7.560653469617483,14.086064563081363,14.735434689840282,4.64957311689071,2.390199097535586
0,12.228207098082542,16.10765732076689,16.734476244235207,7.968383035810785,2.395199514057623
0,2.2157672140265294,4.169249493565555,7.663531388017757,0.8771837015761508,2.4001999305796673
0,-0.09666618646875957,3.900841075313559,2.8326001161427774,-2.5040248951321824,2.4052003471017045
0,-1.4790931077347182,-2.7175679408616804,3.0116824227010657,-4.525242763799039,2.410200763623749
0,-1.8615135541801937,-3.9559775620845787,3.4307783012973516,-8.036469913728329,2.415201180145786
0,-5.583927530091909,-4.794387795375037,-1.0601122547668393,-9.687706353748524,2.4202015966678303
0,-9.146335039460173,-9.302798647392738,-7.540989252333964,-11.578952091962673,2.4252020131898675
0,-4.598736085766378,-0.1512101242818053,-2.3318526981116365,-1.0102071356084172,2.430202429711912
0,0.06886932810099766,-0.4596222316992953,0.7772974015248507,-0.02147149119107028,2.435202846233956
0,-4.823518800293752,-3.0480349750112428,0.3864610404539208,-4.392745164810533,2.4402032627559933
0,0.8840995268903264,0.3435516405655794,1.9556382126073766,1.3759718376273655,2.4452036792780376
0,9.71172430761622,0.6751376099253777,3.20482891183116,0.4246795103482297,2.450204095800075
0,10.229355539633339,6.176722927972756,8.514033131755216,3.933377847599938,2.455204512322119
0,4.786993220065559,3.7583075894246507,4.263250865609617,-2.0279331564752816,2.4602049288441563
0,0.804637345299573,-2.890108411320263,-2.3675178938664354,-1.3192535078399066,2.4652053453662006
0,5.312287911187468,0.8614749199102095,3.6817268457196755,0.7394167875464461,2.470205761888238
0,8.90994491318898,5.983057577207151,13.660985076517724,4.648077723751757,2.475206178410282
0,9.627608346246145,6.214639554494203,5.5002567902090735,1.536729294739035,2.4802065949323193
0,9.30527820454942,0.04622084532141352,9.439541977709515,0.3953714942512696,2.4852070114543636
0,7.582954481416124,-0.10219855713958231,4.218840629122794,-1.155995684144464,2.490207427976401
0,4.740637169320745,5.319381340063443,7.9981527338396,-6.737372246892498,2.495207844498445
0,2.3683262600462776,-0.05903947028160228,-0.5525217193584644,-4.338758200223064,2.5002082610204823
0,-4.453978255069601,-4.177460995552199,-3.7731827421052673,-10.330153549926315,2.5052086775425266
0,-5.996276384792032,-4.435883243123655,-7.453830346098348,-12.291558301136288,2.510209094064571
0,-4.818568137635256,-8.354306220090926,-8.054464542701542,-11.062972458096192,2.515209510586608
0,-6.000853521645642,-13.632729932998195,-5.115085342684081,-11.89439602398069,2.5202099271086524
0,-1.9431325443634524,-1.5811543876095604,-2.095692756179178,-5.9458290008720445,2.5252103436306896
0,3.7245947870694,-5.9395795888860485,0.8837132071540434,-2.437271389914312,2.530210760152734
0,7.912328465618525,-1.5680055411937295,7.1631325378410615,3.761276808359211,2.535211176674771
0,-5.309931515963354,-4.86643224849249,-5.007434773686124,-5.050184406339349,2.5402115931968154
0,-4.372185165135427,-3.024859714393798,-2.6879887371278164,-8.541655034164762,2.5452120097188526
0,0.6855675107245867,-2.4032879421686215,-1.848529362104617,-1.3531350749480529,2.550212426240897
0,-1.4166734955290283,-3.3517169347704647,-1.1690566580084203,-3.304624528054786,2.555212842762934
0,-2.418908190878554,-0.7601466948755141,-0.229570634037654,-3.3461233924615246,2.5602132592849784
0,11.358863417745056,9.351422775000923,9.509928700661023,5.09236833311116,2.5652136758070156
0,11.246641323184392,8.56299147218783,10.949441336690498,8.600850649977414,2.57021409232906
0,9.434425517603538,8.324559393452226,3.378967264032326,4.179323559131966,2.575214508851097
0,-0.32778400773423355,-1.8538734651661974,1.8985064719434093,-7.7122129389029315,2.5802149253731415
0,1.6400127377450207,-0.7023071081478682,1.5480589491773686,-1.1337588438036676,2.5852153418951787
0,-5.432184255678067,-3.5007415401219593,-3.732375315745359,-9.575314155032949,2.590215758417223
0,3.3656250022796277,5.6908232343531635,5.617203665628685,-4.996878871586132,2.5952161749392673
0,-6.846559497978535,-4.647612789234975,-2.713204118279882,-11.008452991845742,2.6002165914613045
0,-1.6187377658733277,-4.556049615376231,-0.6235986791047416,-10.50003651343927,2.6052170079833488
0,2.0490901894027287,4.485512751575669,5.456019971488189,-2.6716294331404997,2.610217424505386
0,-3.333075641167338,-0.8629256925920462,0.6156518217501061,-1.2032317469687388,2.6152178410274303
0,-2.9052352664950867,-2.0813649520830584,-1.4247031402410097,-0.40484345049094284,2.6202182575494675
0,-0.61738869533594,-2.31980503108618,1.7149550734652221,-1.5264645390823435,2.6252186740715118
0,5.610464063710082,8.951754066281481,5.39462645074843,4.941904991949551,2.630219090593549
0,-9.241676997923328,-11.596687664103957,-8.315689020624076,-14.669734852661096,2.6352195071155933
0,-6.583811888709923,-9.485130226283868,-1.7859913529019695,-2.9413840679455787,2.6402199236376305
0,6.724059383200798,5.396426376118025,8.573719441818632,5.276957351528857,2.6452203401596748
0,-1.3980631900645926,-9.022017860023992,-2.106556648519715,-7.544710588452857,2.650220756681712
0,5.179820383593821,0.9695370624826165,2.853180363840247,-0.18638788195276912,2.6552211732037563
0,-8.202289903872446,-5.088908858906369,-4.537069533506478,-13.65807452278032,2.6602215897257935
0,-7.1843940604647845,-9.557355626401554,-6.497306352920434,-8.749770504200477,2.665222006247838
0,-7.146492093783881,-14.815803241673468,-7.407530106449602,-9.54147581865784,2.670222422769882
0,-3.658584010803878,-5.064251705533835,-1.6377408056212852,-8.07319045766194,2.6752228392919193
0,-6.870669817881417,-3.502701017844813,-3.897938461442598,-11.404914411811859,2.6802232558139636
0,-5.1027495208240286,-7.241151177735255,-5.238123084514006,-5.716647670813196,2.685223672336001
0,-0.4348231249284431,-6.1396021837786945,-4.948294685050976,-8.078390223512164,2.690224088858045
0,1.0831093648888028,-2.2180540340050845,3.0315467271292054,-2.7301420580058204,2.6952245053800823
0,3.3710479438457153,3.8334932740082373,7.0214011424246525,1.5180968381698299,2.7002249219021266
0,-2.881007392901555,0.035039742864915596,-1.9487314488836454,-3.3636735222065273,2.705225338424164
0,5.796943349690752,2.7565853751024547,2.501148943217138,-1.7254531262035335,2.710225754946208
0,3.134900166522587,-0.5818698268864111,2.1410423085474806,4.7127580392258945,2.7152261714682453
0,7.882863052208031,5.699674139145653,7.760948636741873,6.7109599871090815,2.7202265879902896
0,6.920832000888126,-0.6787827247348679,3.2008679170992886,7.899152730152075,2.725227004512327
0,6.218807006098704,2.6927595833279643,3.4808001384686627,2.607336280503344,2.730227421034371
0,7.426788060714475,3.8543010649904574,7.300745289250476,8.595510649714896,2.7352278375564083
0,5.6447751569515505,7.885841721650683,8.27070335736503,3.173675848781575,2.7402282540784526
0,12.632768286346673,8.70738155425924,11.22067433009195,6.261831888157284,2.74522867060049
0,5.860767439668468,1.888920563144962,6.760658193894849,2.7399787777854394,2.750229087122534
0,-3.9412273930774564,-8.68954125188997,-3.4193450655614663,-5.871883472779559,2.7552295036445784
0,6.976783777612153,4.571996108811324,1.5606645368903518,0.9462451458818402,2.7602299201666156
0,-2.0251990589928326,-4.726467354958459,-3.4193130137069803,-6.945635356681907,2.76523033668866
0,-3.687175913745295,-2.6549316432422017,-3.4592777322217234,-3.1475249706421593,2.770230753210697
0,1.620853202509656,2.366603244081615,4.6107703666419155,4.160576314147188,2.7752311697327414
0,1.858888279017995,-2.0718626927262402,2.950831268249473,-2.061331491977922,2.7802315862547786
0,0.7469293050184767,3.1096705466335313,8.850904957777518,-0.07324837866418377,2.785232002776823
0,7.894976269598928,2.4712029624036393,12.600991419911415,2.854825664419616,2.79023241929886
0,2.783029161555537,8.63273455463652,5.8010906385708925,4.212890647536665,2.7952328358209044
0,2.09108796928617,4.414265322994184,8.301202596790068,5.590946580723827,2.8002332523429416
0,7.249152680794553,7.94579526658818,7.501327276782865,8.24899347360849,2.805233668864986
0,1.4572232837077022,13.70732438386673,6.221464660021168,3.547031335271482,2.810234085387023
0,1.0552997652772629,6.708852672453016,4.101614727288963,-0.124939825755086,2.8152345019090674
0,0.6333821124833251,6.160380129048294,4.181777458784307,-3.686920001278422,2.8202349184311046
0,15.021470312080837,20.071906749454318,16.911952834153837,8.611090816799996,2.825235334953149
0,-0.44043564959633885,-1.856567471476521,0.952140832335499,-3.680907363492736,2.8302357514751932
0,5.2876642131940805,6.25495746019137,7.672341431453376,4.667085465707926,2.8352361679972304
0,7.485769885666065,10.10648153772107,12.392554608896576,6.90506931205778,2.8402365845192747
0,-6.086118647385334,0.5980047538205385,-0.20721965865238623,-5.096955817057621,2.845237001041312
0,-0.22800140141504355,-4.270472899301086,-0.3769813951490706,-6.028989914435289,2.8502374175633562
0,-7.4298783918195275,-9.248951429580334,-1.9267306248688731,-10.861032972670008,2.8552378340853934
0,-0.9117496336976929,-1.3974308446400778,-0.7364673720927231,-7.173084983745727,2.8602382506074377
0,-3.273615141792133,-7.335911151586469,-3.886191660978624,-11.955145938824463,2.865238667129475
0,-2.845474930533005,-8.81439235699086,-3.525903515493133,-5.877215828178254,2.8702390836515193
0,0.9426709859003632,-6.872874466809934,-4.915602959314857,-7.519294641212462,2.8752395001735565
0,0.7508225934900329,2.1086425136634164,2.494709984209985,2.9286176333821414,2.8802399166956008
0,6.908979878212715,-1.79984142039388,4.765035291934339,4.796521007304899,2.885240333217638
0,4.567142825815927,2.5016737263678497,4.705372940616776,9.544415492192126,2.8902407497396823
0,0.35531142165740026,1.723187949283019,3.9057229066723504,6.892301099205078,2.8952411662617195
0,6.803485650705055,9.50470124352587,10.596085166053566,11.740177838782344,2.9002415827837638
0,8.861665497541177,10.006213603865298,8.946459694113974,8.658045720510556,2.905241999305801
0,-7.140149053709786,-9.822274975518043,-8.203153534471305,-9.964095246828741,2.9102424158278453
0,0.6180419807558776,-11.15076450074377,-3.2527545454167743,-4.096245054830407,2.9152428323498896
0,0.16623858472918096,-6.349254977564225,2.20765663564664,-3.338403694887705,2.9202432488719268
0,-3.6355592578837532,-5.207746410959768,0.09807998329760137,-7.840571157925207,2.925243665393971
0,6.29264843689602,3.153761194760246,9.398515472103554,4.677252565577296,2.9302440819160083
0,5.620861652985044,7.48526783557668,10.068963076304435,6.025067485382086,2.9352444984380526
0,-2.5209196259642432,-11.743226492590011,-1.7205772304540643,-6.207126388817009,2.9402449149600898
0,-9.802695416514519,-10.291721793789371,-4.340105475054542,-7.899329047413295,2.945245331482134
0,-11.634465735002244,-13.99021807150752,-8.349621684463195,-18.351540480444285,2.9502457480041713
0,4.8037694028757345,-1.8287153282626059,0.8208741146912344,-2.3437606770835404,2.9552461645262156
0,-10.867990017949236,-10.727213565629569,-7.028618103775745,-12.455989625471,2.960246581048253
0,-9.309744012057312,-3.8557127844285612,-4.3380983656513346,-7.678227312815895,2.965246997570297
0,0.018507406549216343,1.4457870151268317,5.772433303635297,-1.7904737255059002,2.9702474140923343
0,-6.983235775514648,-3.732714166776105,-5.947023121124854,-10.06272884922566,2.9752478306143786
0,1.1650264288214291,-0.011216329752836651,2.6335323349257633,-3.904992669062902,2.980248247136416
0,3.6932940068881717,2.9202805266883507,3.8940996466598943,-2.2972651695381647,2.98524866365846
0,0.7215669460491283,0.5217764030472994,2.0446787888565376,-3.979546334693378,2.9902490801805044
0,11.629845233459404,9.663271299668704,13.805269735990398,9.508163851708959,2.9952494967025416
0,13.18812885578605,14.224765216485252,15.465872461920704,6.915865405857662,3.000249913224586
0,-1.6635822010786305,-2.8137418472831137,2.9764869395335727,-4.71644165643458,3.005250329746623
0,4.594712048000343,0.48775010689083886,0.8171131407245167,-8.598757319647705,3.0102507462686674
0,6.803011587673482,0.2892410772184984,5.487751036766348,-7.831081568058598,3.0152511627907046
0,13.871316402133495,13.600731061785302,15.838400598505075,6.246585614595368,3.020251579312749
0,12.249626474810459,11.812220058268345,10.19906179610068,6.284244244910423,3.025251995834786
0,3.0279417881174844,0.9837080635441332,-0.7502654012480834,-14.538105660566606,3.0302524123568304
0,13.726262323483779,2.4951950736858013,12.090418974810683,0.4195359147283497,3.0352528288788676
0,-6.1454119384519865,-12.883318915622437,-8.038885107933913,-18.02283101220089,3.040253245400912
0,-12.607081017474187,-12.391833908494121,-8.208177681932654,-18.945206423495865,3.045253661922949
0,-4.408744933161879,-3.9503499083131133,-6.977458779389931,-10.16759030003824,3.0502540784449934
0,-1.5804037044500294,-8.51886691756403,-4.106728431893725,-7.259982621289653,3.0552544949670306
0,-2.882057349712409,-4.567384937971721,-3.1059866704087704,-6.1723833655545715,3.060254911489075
0,-7.143705886967358,-7.635903970620485,-0.6352335254507517,-3.5547925103376947,3.065255328011112
0,-2.685349333871888,-5.394424015977488,-2.7544690272473673,-4.80721003256346,3.0702557445331564
0,1.9730122923105065,-0.6729450739324223,2.4563067941501564,-0.01963590871493892,3.0752561610552007
0,-3.1986210254219456,-8.991467143893054,-3.2429060912148397,-7.862070114926993,3.080256577577238
0,-7.050249303914029,-9.609990224787149,-4.292107713212575,-7.2845126269593035,3.0852569940992822
0,0.3381274402445983,-3.1485143149117403,1.4887018984576197,-2.2769634200633098,3.0902574106213194
0,-6.903490809178439,-2.807039411895879,-3.090477285700029,-6.3094224689388945,3.0952578271433637
0,0.47489593192841584,2.994434487085203,5.640354704928864,1.0181102521697856,3.100258243665401
0,-0.146712352047069,-1.0840926149723342,-0.8988021590696826,-0.8943652306702765,3.1052586601874452
0,11.31168432336612,11.027379284865162,10.992052092705059,6.933151108717489,3.1102590767094824
0,2.4700859423846477,-1.5911498107437974,7.802917430252933,-4.349340703586115,3.1152594932315267
0,4.358492488725647,-4.169679899471237,-0.2162061770286985,-7.341840641587394,3.120259909753564
0,2.866903945617839,1.1317890209017223,-1.0353187602782339,-3.2043486790990032,3.1252603262756082
0,2.5953202959162676,2.4232569526754917,2.3055796491280707,-4.0568647894990555,3.1302607427976454
0,4.583741522159151,3.314723898141193,7.356489019708356,-1.2893889457363241,3.1352611593196897
0,2.3121676065674324,-1.2538101405737803,4.117409319719247,-2.931921120439669,3.140261575841727
0,-5.0494014689111415,-5.43234516146543,-3.091659482982716,-10.864461285935008,3.1452619923637712
0,-3.7909657223951543,-5.0208811624166145,-3.4107174207889077,-8.51700941406865,3.1502624088858155
0,-3.5825251717883875,-3.539418140957597,1.2002354739534837,-4.599565475975265,3.1552628254078527
0,4.195920165314068,2.4720439057759127,6.36119916900374,3.1478705578968,3.160263241929897
0,4.8443702714395505,-0.6764950191233219,4.102173631999375,-3.0047012825176664,3.1652636584519342
0,7.5528251289086015,0.504965087477329,2.633158830221268,5.6627190328038015,3.1702640749739786
0,1.4312847195914549,0.9064242286788453,3.2641547305541176,2.1201315337940043,3.1752644914960158
0,11.069749024837066,5.427882407509917,7.4051612995232325,7.737536250133942,3.18026490801806
0,-3.261781974521257,-5.970660373137844,-0.9038214967291855,-4.405066788853839,3.1852653245400973
0,1.0966917019376312,0.4507958895465446,1.8272063075840874,-6.577677554068322,3.1902657410621416
0,14.785170034358694,10.152251198381467,12.808244677960158,6.499703983671811,3.1952661575841788
0,-6.55634699746121,-5.606294443931779,-0.9707064204993308,-7.622922146263787,3.200266574106223
0,15.58214058579282,10.735158965033794,17.650352976716622,10.74444408556458,3.2052669906282603
0,-1.0493672370648601,-1.283388572593677,1.021422833395175,-4.68819729147641,3.2102674071503046
0,0.7091295123019997,4.2880629450016965,4.3625031125731395,0.09915375184708264,3.2152678236723418
0,-1.8423691880776847,-0.7004864806447597,0.36359377671766113,-3.3235027552571577,3.220268240194386
0,5.886136639738734,0.850963151823444,8.374694787944069,7.483833216499033,3.2252686567164304
0,8.64464697355452,6.192411843633279,9.335806107981657,3.821161696345743,3.2302690732384676
0,-1.7968382092011446,-5.826140404143656,5.04692769795971,-4.4415172867457535,3.235269489760512
0,1.1416810684893837,-6.274693590498407,1.548059518328744,-5.864203703962017,3.240269906282549
0,12.270204783361342,11.386752285718362,8.649201528985454,8.043102473627842,3.2452703228045934
0,-2.961267088182195,-3.091802774269194,-1.8196463106087566,-12.319598724867143,3.2502707393266306
0,-1.3727345701220486,-4.520358769361686,1.601515958657448,-5.752307270126657,3.255271155848675
0,-3.9241976865796655,-6.738915698434809,-5.157311704265508,-10.055023132339354,3.260271572370712
0,0.9543435384604997,1.902526439959304,1.3338706596232057,-3.8377462809645126,3.2652719888927564
0,-4.877110918783881,-6.32603235236415,-2.2449369905342444,-5.8804766847498495,3.2702724054147936
0,4.181438918066244,-3.804592073290593,1.696265304516449,-7.2032143118355965,3.275272821936838
0,9.959993025406858,5.066847279582017,9.6174775040102,-0.7159591298131802,3.280273238458875
0,-4.5814486206202805,-9.091714291130746,-0.6913004330634256,-10.498711105762707,3.2852736549809194
0,10.747113955736069,3.8397232173307385,11.749931451851655,8.738529793675445,3.2902740715029566
0,10.955680729798596,4.001159807840047,10.331173116742967,4.365763602066368,3.295274488025001
0,2.8542516762638903,0.5325954832204528,3.192424518856459,2.8429903527923073,3.300274904547038
0,1.6328267691152372,5.44403024606476,5.913685614664445,1.2502100788502926,3.3052753210690824
0,-0.5885940181368197,1.1754640986858382,-4.245043639918017,-6.052577187019562,3.3102757375911267
0,-1.1800107121560575,0.8068970431267463,3.2562367107502195,1.714628587918229,3.315276154113164
0,-3.161423339593835,-11.931670918695161,-3.5824733777543907,-8.478172563417488,3.320276570635208
0,-5.122831926945925,-2.6202397846472816,-5.531173949787355,-8.270980607774057,3.3252769871572454
0,-1.524236500426269,-4.648809552095869,-2.65986504947507,-5.783795511357296,3.3302774036792897
0,-2.745637085923561,-7.4773802178670365,-5.3985467205770785,-5.456617239700858,3.335277820201327
0,7.632966290893308,-1.5659517782890977,8.352780993481487,0.810554242253942,3.340278236723371
0,10.471573604275019,5.37547577071741,14.954118049276587,5.837718969900832,3.3452786532454084
0,-3.629815171964232,-7.383097566586441,-0.22453559713579407,-9.315123021313124,3.3502790697674527
0,-1.6112000644629054,-3.691671785849927,-2.9531799903936937,-13.457971695832056,3.35527948628949
0,-1.4225810999809183,-4.840246882454725,-2.8718151754517023,-9.430827017521827,3.360279902811534
0,-0.11395830515900718,-1.2288228513752297,-1.0704411971663697,-7.08368894929232,3.3652803193335714
0,3.144668293458432,-4.377399687217593,3.100941899791458,-5.726557453117496,3.3702807358556157
0,0.803298669294696,-3.3759773842754957,2.8723340707848934,-5.369432490228533,3.375281152377653
0,2.551932795634385,-4.2845559365151455,2.953735271019519,-5.092314021255738,3.380281568899697
0,3.610570645572684,-0.5431353375576793,3.2251454554350807,1.4347979936642754,3.3852819854217415
0,-3.330787807994703,-8.511715580693776,-2.743435421286712,-8.56809640523593,3.3902824019437787
0,0.15785740770913104,3.4297033411169804,6.6879925953541575,1.3990028225805635,3.395282818465823
0,-1.3134937345166247,-7.498878564772646,-4.69057054027254,-7.183904282030728,3.4002832349878602
0,7.895158738164548,-1.7774612907310507,5.99087512608339,0.5331823221063394,3.4052836515099045
0,4.9338147984311655,-2.3460448288269564,8.572329548499265,-5.579737323530636,3.4102840680319417
0,1.6024744185750424,1.145370829147833,2.1637926806855057,-2.442663177166392,3.415284484553986
0,-4.3288624294901465,-5.573214308417965,-0.2147355241300395,-9.185595196675546,3.4202849010760232
0,-1.440195773962401,-3.4518002329525554,3.0967448869432888,-10.108533339425918,3.4252853175980675
0,-3.3515256428957176,-5.340386935577805,1.86823386661202,-10.791477562044113,3.4302857341201047
0,-8.04285206406503,-12.308974406955604,-6.340268632545329,-14.944427820195296,3.435286150642149
0,-4.144175064840361,-7.357562637090326,-0.7187626579337869,-11.597384068413904,3.4402865671641862
0,2.564505327877871,4.473848384766342,2.992751743208275,-6.900346260039634,3.4452869836862305
0,0.11318908749358458,-6.914741330103182,-1.6657254762511204,-3.7033143473682064,3.4502874002082677
0,-2.3881238125214144,-3.953331770133255,0.7058056365390861,-2.556288281964484,3.455287816730312
0,3.2505666013018732,-1.1919229234663107,4.327345034378821,-0.3892680149543746,3.4602882332523492
0,0.5992603024187333,-3.630514777908186,-0.45110733003783343,-5.642253497194549,3.4652886497743935
0,-0.5420427357886957,-5.219107320962353,-0.5795515041677319,-5.445244679272143,3.470289066296438
0,3.906657459965026,-3.2377005398000485,1.3520124644450018,-4.648241511382125,3.475289482818475
0,0.2953608628538351,-3.2262944212075695,0.1635845282284314,-2.2112439432542663,3.4802898993405194
0,-8.245932554038456,-8.534888951573242,-4.9648353603959805,-10.524251924163623,3.4852903158625566
0,0.2627771824682117,-0.713484116844703,1.0567527510722672,-2.8172654028846904,3.490290732384601
0,2.731490045801535,-3.502079902520951,1.9883488152652946,-6.830284327615101,3.495291148906638
0,4.860206009482013,-3.350676293741597,3.129952784828901,-2.7533086459968845,3.5002915654286824
0,0.7189250468520707,-9.279273275311025,0.04156461226417285,-5.016338305192262,3.5052919819507196
0,-2.7223528689927887,-5.167870831564054,1.403184249893755,-4.019373251932613,3.510292398472764
0,-0.4236277650496363,0.6835310537279542,1.664811649905782,-5.19241343252813,3.515292814994801
0,7.285100331703111,1.9549323972002681,10.57644676431218,0.5345412071199922,3.5202932315168454
0,7.903831394138559,7.376333215553075,9.968089544711574,-5.688509278549766,3.5252936480388826
0,9.712565394639467,6.907733525208245,12.469739941948456,0.388435165168759,3.530294064560927
0,15.161302304795635,13.569133342015556,18.271397905820464,6.98537459315598,3.535294481082964
0,-9.009957904708633,-12.609467318872682,-7.386936615037349,-12.83769093967845,3.5402948976050084
0,1.8487847361805363,0.7019315572897855,6.394736327119672,-2.120761378329364,3.5452953141270527
0,12.637530197295456,10.303329985257598,18.086416679518578,12.28616333248158,3.55029573064909
0,-8.173721551729445,-4.035272020242281,-2.0518956112060147,-6.246916751880592,3.555296147171134
0,2.1850294584742196,2.006125555286639,3.0497994008403064,3.7099984237594326,3.5602965636931714
0,4.783783197171564,0.6875227261799335,7.511501661027878,3.5769089144068973,3.5652969802152157
0,9.502539633496156,4.068919506693946,9.153211114316345,7.933814774873427,3.570297396737253
0,-3.3787012638078258,-8.51968408901159,-2.9950722948750026,-0.4592839404029143,3.575297813259297
0,6.44006047357,3.2617119532331134,3.0766513773909208,3.997612822603532,3.5802982297813344
0,-1.1111751863468466,-4.086892352248865,0.04838207481734225,-1.9154948823656262,3.5852986463033787
0,3.807591724257946,4.034503009004183,4.500119740983315,7.121392998251396,3.590299062825416
0,5.366361172979502,5.455898051444143,4.5818643192721815,-2.831723482164229,3.59529947934746
0,1.9251331271197165,-0.46270721067478415,-0.08638424722818128,-3.4048442703797406,3.6002998958694974
0,3.6339075536289283,-5.921312763323787,0.925373984289326,-6.577969313097547,3.6053003123915417
0,16.182684419046936,16.640081407428333,19.487138956354983,6.858901443248257,3.610300728913579
0,0.2114636893052242,-4.198524684672547,-1.331089389027162,-4.734231947574087,3.615301145435623
0,-3.699754670338394,-7.57713102619299,-2.559311110538941,-9.477369431693083,3.6203015619576604
0,2.9690293050224232,0.41426239626660055,3.89247373274524,-7.98051095491176,3.6253019784797047
0,-4.282184419721503,-4.804344403597249,-2.6357349183211554,-11.29365646235053,3.630302395001749
0,-8.923395879540056,-11.262951411707512,-8.223937122841509,-8.386805898252463,3.635302811523786
0,-0.7746051090743187,2.8484413864812623,0.6978670602935706,-0.5999592059880037,3.6403032280458305
0,-1.9658121425224175,2.4198340059563175,3.239677572497513,-1.8031163282723373,3.6453036445678677
0,11.642982986165794,9.491226461787807,13.641494355212984,3.843722792494957,3.650304061089912
0,1.5017802428930036,4.132618768700188,5.923317349428784,0.18055821395105154,3.655304477611949
0,12.110579593079317,14.214010940807974,12.205146495334096,5.617389993601707,3.6603048941339935
0,7.2193810014789115,9.765402991423086,12.166981732177977,-4.045781811248606,3.6653053106560307
0,7.208184432076737,9.456794932884577,10.898822998174264,-0.2689571434284024,3.670305727178075
0,7.456989848068965,8.338186776522338,9.190670230437293,1.0778640542437845,3.675306143700112
0,7.40579721191217,7.019578532750596,9.612523365030597,2.374681838982803,3.6803065602221565
0,5.4146064853580835,1.3609702112101987,7.004382337065608,-0.028503732062240328,3.6853069767441937
0,-1.5865823704601016,-9.067638178953082,-2.6737529191417106,-5.411692601820093,3.690307393266238
0,7.052230605163042,6.613753371315634,10.398117530180379,3.0851152868301925,3.695307809788275
0,-5.048954627327044,-7.944855128786102,-3.7700063815580345,-8.568080008829426,3.7003082263103195
0,-8.740138107560478,-13.613463669813372,-8.528124721160482,-7.841278431241399,3.705308642832364
0,-3.1513198749134737,-8.272072241755124,6.683762444637494,-3.4044799223656823,3.710309059354401
0,-0.2824999682840281,0.6093191662480084,2.6456550492611037,-6.64768442356247,3.7153094758764453
0,-5.35367842617229,-6.9892894342348875,-1.3524469739339988,-7.260891875618492,3.7203098923984825
0,-8.15485528675805,-7.807898031154954,-9.820543691706852,-11.814102218698247,3.725310308920527
0,-6.586030587760495,-1.2565066119745825,-0.2886351706314265,-9.987315392169872,3.730310725442564
0,-1.1272043663019973,0.19488483632483333,-0.576721476895381,-6.28053133447109,3.7353111419646083
0,0.8016233409897628,6.236276326997835,9.095197323530055,-2.683749983173815,3.7403115584866455
0,7.340452497673703,13.887667873133505,9.9771211644793,0.9630287247541229,3.74531197500869
0,24.17928306702141,13.629059487174924,27.849049979057988,17.179804852528893,3.750312391530727
0,4.198115011408942,-2.6495488194109678,7.350983699066052,-4.383421536956968,3.7553128080527713
0,3.256948292023914,-2.89815703594911,7.682922254762609,-2.6366503813225557,3.7603132245748085
0,9.67578286912845,5.893234847950687,13.554865575128991,2.120118381600137,3.765313641096853
0,16.024618702283192,10.17462684256035,18.706813588074173,3.586884814004031,3.77031405761889
0,10.263455750137702,7.33601895773111,10.818766220257633,1.3436489780002727,3.7753144741409344
0,11.572293970180427,11.757411202566184,15.630723396921097,4.300410935474067,3.7803148906629787
0,17.531133318687353,14.988803585239697,21.602685041859985,9.407170747999672,3.785315307185016
0,14.839973750646537,10.910196112824254,16.88465107729315,10.503928476646479,3.79031572370706
0,26.178815219541136,22.151588791113422,24.91662142364065,17.920684181662544,3.7953161402290974
0,20.90765767704975,13.342981624444901,18.758595999363408,15.307437922127225,3.8003165567511417
0,14.316501072830057,8.29437461561492,14.960574720922022,11.054189755712224,3.805316973273179
0,8.055345354650811,6.715767766083554,12.072557502944278,7.610939738714091,3.810317389795223
0,10.414190468829656,7.517161076338769,9.68454425854976,1.157687926351477,3.8153178063172604
0,9.033036360605216,5.538554546123235,11.54653489963263,2.874434373156836,3.8203182228393047
0,7.071882974289662,2.729948174539515,2.8385293370499136,-4.988820866672011,3.825318639361342
0,12.640730253313087,9.311341960140648,10.040527480796746,-0.10207773899450157,3.830319055883386
0,2.8395781402390217,-1.2572640990196844,2.182529240167245,-5.145336189531211,3.8353194724054234
0,-8.52157342307534,-6.595870005257409,-2.0754654760917397,-18.2085961636587,3.8403198889274677
0,2.1072755049673404,0.9855242390687744,5.146543240444895,-13.321857606008251,3.845320305449505
0,-1.1538751339150486,-8.303081368158542,4.008555298013372,-11.78512046002404,3.850320721971549
0,-0.9950253978567507,-6.591686828681947,-1.6594293953874386,-11.46838466783187,3.8553211384935864
0,-2.256175344911772,-2.100292143751445,2.622589068005705,-10.931650170346028,3.8603215550156307
0,-2.347325033012652,-6.9388973140866,-3.275389404155395,-15.51491690733315,3.865321971537675
0,-2.518474519906393,-6.387502339911323,-3.3033649041993822,-6.91818481738952,3.870322388059712
0,-7.079623863088443,-10.22610722088701,-4.461337524281369,-12.481453837964287,3.8753228045817565
0,-14.870773119628687,-12.754711955933194,-13.469307356181162,-20.834723905378404,3.8803232211037937
0,-11.701922345829114,-12.903316543008929,-9.217274491031075,-16.717994954625265,3.885323637625838
0,-2.4430715969610235,-7.861920978957414,-1.9652390191066527,-12.821266919105643,3.890324054147875
0,-2.3642209273893595,-4.710525259557454,-0.9432010299373692,-10.08453973065264,3.8953244706699195
0,-6.785370390915114,-11.23912937972568,-5.091160612620978,-8.957813319797097,3.9003248871919567
0,8.253479958992578,0.14226666633620044,5.810882143971973,-3.4310876160483685,3.905325303714001
0,9.502330068926355,9.87366288493606,9.772927150990988,-2.524362548166056,3.910325720236038
0,14.911179885034242,11.375059282369149,18.254974319153842,2.442361955541836,3.9153261367580825
0,10.900029352528588,5.30645586432579,7.487023558220765,1.7590859669272136,3.9203265532801197
0,14.408878415442016,15.317852635617026,15.459074776734793,7.465809557747052,3.925326969802164
0,17.277727016532022,10.499249600085843,19.731127881965612,7.99253279941944,3.930327386324201
0,10.606575097187969,0.7606467605571027,11.173182779775683,1.6592557628271702,3.9353278028462455
0,18.955422597377478,13.422044118966435,19.295239374495324,6.495978518288798,3.94032821936829
0,3.0242694556918943,8.163441676496198,7.337297568957499,-2.6972988643198157,3.945328635890327
0,-2.306884390392659,-2.42516056642797,0.7593572647148861,0.03942368461645307,3.9503290524123713
0,-3.8480390039573615,-4.553762609923396,0.7714183624907882,1.606146234632095,3.9553294689344085
0,5.39080555187309,2.4876355457965276,5.183480762634435,2.2428688552337412,3.960329885456453
0,6.469649213981199,2.1490339006203296,7.2955443652330985,2.3495916158157257,3.96533030197849
0,7.048491918959931,9.560432454360855,7.497609069937932,2.616314585577955,3.9703307185005343
0,-6.312666397074757,-5.6381687934789655,-2.03032522416728,-12.876962166415263,3.9753311350225715
0,-1.7438257982906382,-2.5867698436597917,3.2517413815473653,-9.94023857089164,3.980331551544616
0,-1.7249863487830739,-6.555370696879372,-0.5461912145166918,-10.853514557878789,3.985331968066653
0,-0.6261481124270261,-1.183971353494972,-1.0841231140528258,-4.786790056449939,3.9903323845886973
0,2.062688847049139,-0.16257181349732125,4.897945581194569,-7.530064994798903,3.9953328011107345
0,6.891524465900433,0.4488279233427504,4.320014769369416,0.04666069956313823,4.000333217632779
0,15.1103586800724,10.120227857256634,12.92208434828216,4.863387099552051,4.005333634154816
0,14.699191424755076,14.971627988132699,16.16415421505966,5.070114278145226,4.01033405067686
0,17.268022633942813,16.153028315016936,15.546224265733514,0.6768423080593395,4.0153344671988975
0,4.836852240233599,3.904428835742057,7.498294394979568,-5.126428738277754,4.020334883720942
0,1.4756801750172452,3.7558295470065857,4.880364496221373,-4.909698788461662,4.025335300242986
0,16.71450636885983,10.887230444724146,18.752434461898286,11.907032230099277,4.030335716765023
0,0.3833307516406812,-5.521368475753749,3.234504183518207,-0.4662356099905951,4.035336133287068
0,-1.797846747434618,-5.23996721942221,0.016573551660236774,-10.209502236337354,4.040336549809105
0,3.7809738004296927,-1.7185657912244954,8.868642456244878,-0.8127675765367934,4.045336966331149
0,0.4597923238894128,-3.917164195778623,0.6007107867790697,-1.3460315578446522,4.050337382853186
0,-4.631391248479565,-11.055762437315925,-2.3172215675744052,-12.029294107129642,4.055337799375231
0,6.977423011871425,1.8056394804072997,9.454845282107758,13.17744484908332,4.060338215897268
0,-3.8737649665207776,-10.372958445836286,-2.3830887754507284,-7.795814615526963,4.065338632419312
0,-8.444955255118291,-11.37155621872499,-5.381023851727779,-9.669072427213067,4.070339048941349
0,3.2838520748024145,2.5798461597261975,2.5010399417850477,0.6276714880410275,4.075339465463394
0,-13.227343047674424,-12.548751311827134,-10.216897506205125,-20.055582795178964,4.080339881985431
0,-6.848540692991431,-8.877348634123805,-0.4948363066852002,-8.088835201489683,4.085340298507475
0,-0.5097409309668137,-2.7559458072049696,1.267223429706998,-10.88208565446847,4.090340715029512
0,-2.1909438308406415,-2.9745428304123784,1.7092815925442388,-9.145334076591576,4.095341131551557
0,6.7078505384255465,4.296860297351752,10.641338071320963,0.3914196106011971,4.100341548073601
0,0.4466421078378562,-6.271736422651464,-2.9866072447996688,-5.101824513759739,4.105341964595638
0,10.955430808136779,7.189667010880351,10.695445532914636,1.404933629846071,4.1103423811176825
0,7.594216569583275,4.661070599188634,10.427496292712492,-0.6083058788586357,4.11534279763972
0,15.042999321709633,13.09247434318565,15.679544922109976,11.718457039862763,4.120343214161764
0,0.6617789931312217,-1.7961217568315204,3.0315913075994976,0.36522246547833426,4.125343630683801
0,-0.6794444883499455,-1.3747177011491294,-2.0763646652789616,-3.1280095229555807,4.1303440472058455
0,2.929328804630279,-1.3033134902936732,5.735676888473749,1.5387611533894363,4.135344463727883
0,2.188098799268489,-2.6419091247295645,2.827715853606392,2.845534573320769,4.140344880249927
0,6.636865422572983,0.8694953952299079,6.1097521145846985,0.40231081559186865,4.145345296771964
0,-1.5543713987474153,-7.609099930566863,-3.7882144444822012,-2.1009100411631563,4.1503457132940085
0,4.094388261715975,1.6523048979443051,5.673816060246015,3.715872081624993,4.155346129816046
0,-4.736855669817427,-7.066290118896774,-2.1341564875434944,-13.477342737433382,4.16034654633809
0,6.841896732793328,1.8851150195300155,7.647867795690179,-0.8805544194810748,4.165346962860127
0,-0.23935460439335587,-5.043479685906335,1.4498887932550502,-6.6237628851849095,4.1703473793821715
0,2.6693902445114923,-0.572074234117251,4.191906388136828,-8.08696805466311,4.175347795904209
0,-2.3918687947829467,-1.4206686238102624,0.3339204629905712,-8.560169847439496,4.180348212426253
