labels,F4,F3,Fz,Cz,timestamps
0,12.53841507894958,12.268803168803913,10.190836062929888,8.475785106550724,-2.0000184263866068
0,7.299063688544316,6.659075858708311,4.941961935230252,6.23665140850768,-1.9950183803206407
0,3.539711686274874,4.389348199570423,5.663086990802319,3.527516903926076,-1.9900183342546747
0,-1.2696409262816344,-1.7003798089021382,-6.065788772525748,-2.011618410943632,-1.9850182881887086
0,-2.76899414788441,-3.970108167333849,-1.4246653571604828,3.4392454598497415,-1.980018242122739
0,-5.268347977275346,-2.4998368763220338,-6.333542765380926,2.510108512104754,-1.975018196056773
0,-11.67770241288817,-3.1495659362250836,-1.8724209991346978,-4.469029258510992,-1.970018149990807
0,-5.617057452569385,-8.679295347072232,-8.84130005996764,-8.698167856332029,-1.9650181039248409
0,-5.54641309342446,-7.869025108434404,-4.750179948949237,-7.907307285349854,-1.9600180578588748
0,-8.535769331848892,-7.018755219238653,-10.719060666561647,-10.186447548893257,-1.9550180117929088
0,-9.965126163559974,-4.458485677695814,-8.037942212577455,-9.085588649456362,-1.9500179657269427
0,4.555516416421144,-0.1082164814075175,-0.8368245860062534,-9.554730588638256,-1.9450179196609767
0,6.736158413528397,4.7820523723808295,-0.5757077852500541,-3.793873367154137,-1.940017873595007
0,2.266799833143177,4.092320886436872,0.46540819159015323,-1.8330169849823967,-1.935017827529041
0,3.937440680274023,2.362589063269681,0.386523346492911,-2.242161441617259,-1.930017781463075
0,1.6580809595475823,1.6628569050552946,5.517637681392735,-2.4413067362658585,-1.925017735397109
0,2.1987206752975252,-1.3768755862770796,-0.6612488019262038,-1.430452867917619,-1.920017689331143
0,9.45935983157507,0.7033915910873844,0.28986389812110047,3.670400164605718,-1.9150176432651769
0,7.989998432008639,10.223658438879681,9.410975782940502,6.151252362481527,-1.9100175971992108
0,1.9406364796110473,2.563924958564163,4.682086853654955,3.6521037266288228,-1.9050175511332412
0,-1.4987260231788109,-2.4758088488245047,1.0531971109177205,-4.107045742400122,-1.9000175050672752
0,3.981910925767145,-0.12554298253772786,6.914306554913925,3.5038039557173164,-1.8950174590013091
0,13.91254732835386,3.7947225581191995,13.395415185368543,4.6846528212160115,-1.890017412935343
0,12.37318318595181,11.39498777372794,16.226523001274092,5.985500854128647,-1.885017366869377
0,7.183818498990554,9.145252664417178,9.637630000507077,1.2163480541036098,-1.880017320803411
0,5.174453266876858,3.8455172295610534,9.048736179692076,11.277194420338109,-1.875017274737445
0,8.165087488195898,2.8157814677883675,-0.3501584655947799,4.898039951503373,-1.870017228671479
0,3.2357211608718286,-2.26395462275985,-3.309053940409834,4.078884645651362,-1.8650171826055093
0,-0.4436457177127684,-2.5236910441230056,-2.6479502499817675,-2.5802714997110177,-1.8600171365395433
0,-3.143013150495515,-2.4934277982742876,-8.776847399344627,-6.809428487311208,-1.8550170904735772
0,-6.172381140410388,-3.7931648869730865,-5.175745393109668,-6.218586319705369,-1.8500170444076112
0,0.9482503098573003,-6.172902311681305,-8.704644235302963,-11.367744998944532,-1.8450169983416451
0,-1.5511188020860056,-2.0626400734842405,-5.333543929287687,-12.806904526315403,-1.840016952275679
0,-8.41048847840994,-12.642378173006408,-8.342444477747486,-14.786064902093864,-1.835016906209713
0,-7.8698587209610045,-2.1821166103028866,-8.391345882675695,-7.545226125367957,-1.8300168601437434
0,-6.9392295310110805,-11.11185538475803,-13.120248145292418,-11.634388194049691,-1.8250168140777774
0,-13.038600909083497,-8.72159449503293,-10.669151265890793,-17.063551104951834,-1.8200167680118113
0,-10.647972854822244,-11.431333938970068,-12.778055243692986,-19.44271485365171,-1.8150167219458453
0,-8.94734536686441,-11.551073713460735,-12.77696007677189,-13.051879434224197,-1.8100166758798792
0,-4.386718442853653,-4.19081381439207,-7.345865762037734,-10.731044839161543,-1.8050166298139132
0,-3.426092079639986,-4.210554236769948,0.9452277046166926,-3.500211059620485,-1.8000165837479472
0,5.704533726417203,4.1797050249805645,3.336320327910431,-2.809378085827563,-1.795016537681981
0,-2.4948410208782708,-2.1300360233279267,0.5674121127005439,-6.398545907433032,-1.7900164916160115
0,2.055783682227259,6.300222624106108,2.008503063718449,2.332285486307628,-1.7850164455500455
0,4.446407839384317,3.220480972912449,7.759593185490559,6.473116106366173,-1.7800163994840794
0,-1.2429685459078732,1.2507390284318836,4.670682482220083,7.033945963602283,-1.7750163534181134
0,2.067654529670882,6.960996795673082,6.911770957616961,6.9147750684073355,-1.7700163073521473
0,-2.1717229306709878,2.8612542792967393,2.2728586148386523,1.675603430565284,-1.7650162612861813
0,-1.9611009237331962,0.5215114835849777,-2.8260545434096374,5.296431059324894,-1.7600162152202152
0,-1.540479446222155,1.0417684125199815,1.2050314853583406,2.3472579635160824,-1.7550161691542492
0,0.7301415053018969,6.392025069888275,1.7661167035952867,3.438084151618437,-1.7500161230882796
0,-11.52923806555308,-3.5677185407258483,-3.4027988862575835,-3.8310903681768242,-1.7450160770223135
0,-2.37861815486126,3.4025375840667778,-3.7417152817299995,-0.8502655877930272,-1.7400160309563475
0,-3.4779987582021143,-0.4272065524571693,0.29936751981193643,-3.6394414990706427,-1.7350159848903814
0,-3.487379870688685,-8.996950947032275,-2.7495504787810314,-2.8086180936397023,-1.7300159388244154
0,-3.6867614870707643,-6.196695596182027,-3.788469274466137,0.36220463711271444,-1.7250158927584494
0,-1.3761436017738564,-3.0864404959409986,-0.4173888639885927,3.713026701964135,-1.7200158466924833
0,-0.7055262089437007,6.093814358141864,3.743690756093593,0.9038481096750057,-1.7150158006265137
0,-1.864909302536681,-1.9159310293010308,-0.3752304107391164,-7.235331131102251,-1.7100157545605477
0,1.3757071236076668,-4.115676653675169,1.055847638892292,-5.18451101163005,-1.7050157084945816
0,-4.783676924257845,-6.405422510306097,-5.543075091700936,-8.75369152277454,-1.7000156624286156
0,-2.943061439748114,-2.875168594185924,-6.981998599081129,-7.662872654779995,-1.6950156163626495
0,-8.422446416202636,-6.874914899849287,-8.22092287941205,-12.502054397137792,-1.6900155702966835
0,-3.2918318465190084,-1.8246614213663828,-7.739847928226462,-11.091236738444188,-1.6850155242307174
0,5.148782276861037,4.245591847571849,4.261226259609283,2.079580333659426,-1.6800154781647514
0,-8.570604038233256,-8.154155086528235,-10.6377003102843,-6.179603167725165,-1.6750154320987818
0,-8.089990783771281,-4.533902217002792,-9.73662763188588,-4.748787229046572,-1.6700153860328157
0,2.2606220486672854,-4.403649536844858,-6.295555698567593,-6.4279718363550336,-1.6650153399668497
0,3.7312344678993643,4.876602961368267,-0.9444845029514702,-0.7271569752304234,-1.6600152939008836
0,-4.168153517158036,-4.453144714711539,-0.9234140371016255,-3.5163426308231376,-1.6550152478349176
0,-1.0775418976205597,-3.792892557344086,-4.3323442927847475,0.22447121201036946,-1.6500152017689516
0,6.823069335426105,-1.312640558618398,2.6987247384174404,8.095284568545498,-1.6450151557029855
0,7.5836801908047144,0.20761128962503606,-0.21020693495689477,4.426097453915774,-1.640015109637016
0,3.964290676929992,2.967862995689623,3.4208606956287366,8.2769098828149,-1.6350150635710499
0,-0.9450991983104954,4.308114567828412,0.22192763859447695,7.767721869330183,-1.6300150175050838
0,2.585510572608608,5.578366014049389,-0.15700609778183316,11.548533426827087,-1.6250149714391178
0,8.136119996989155,6.028617341956825,6.564059494654557,4.249344567854986,-1.6200149253731517
0,10.026729081780635,12.23886855860774,7.99512442382534,8.420155304144037,-1.6150148793071857
0,10.22733783327011,8.839119670324985,3.1061886972044825,5.290965646705394,-1.6100148332412196
0,10.627946256851288,4.009370682562962,9.89725232167746,3.9117756059148725,-1.6050147871752536
0,7.738554356945491,5.119621599990245,7.7083153034945795,0.2925851916290255,-1.600014741109284
0,12.009162137012815,13.629872426631682,12.489377648156285,9.603394413313925,-1.595014695043318
0,-0.5302304003784378,3.720123165818978,3.410439360296006,3.164203280044083,-1.590014648977352
0,4.720376746631823,0.6803738201421583,2.5615004437452438,2.885011800419601,-1.5850146029113859
0,3.830983579444662,6.15062439163799,6.322560901758545,1.2358199826101457,-1.5800145568454198
0,8.351590099085552,10.780874881930002,11.503620737112715,6.356627834475823,-1.5750145107794538
0,13.732196306040459,14.301125292027105,12.134679951918384,9.47743536353066,-1.5700144647134877
0,14.632802199944718,6.15137562200557,6.035738547363571,6.808242576734505,-1.5650144186475217
0,8.723407779295735,0.3016258709681426,0.09679652372595696,3.2090494803553784,-1.560014372581552
0,7.3340130414147,3.891876037346379,7.977853880646843,5.199856080032644,-1.555014326515586
0,2.5546179826706656,1.5621261192217482,5.82891061731408,6.17066238089959,-1.55001428044962
0,5.355222598767078,2.6823761144322407,3.6099667324199505,7.931468387583212,-1.545014234383654
0,1.8758268849411543,7.122626020555442,3.4210222241407626,4.322274104117824,-1.5400141883176879
0,-1.333569163910264,4.0128758348100115,-0.16792290975181923,2.4130795339478017,-1.5350141422517218
0,5.06703444689717,2.5331255539665474,6.64313132822831,5.243884680037085,-1.5300140961857558
0,-2.032362288092996,7.29337517435383,2.3341849352935484,6.014689544944102,-1.5250140501197862
0,-6.911759374409668,-5.106375308080256,-4.68476209163249,-2.704505869179808,-1.5200140040538201
0,-9.721156817394274,-8.446125897563698,-11.433709755688454,-9.253701560422419,-1.515013957987854
0,-8.34055462183191,-8.225876598076178,-3.862658059637285,-6.792897526685128,-1.510013911921888
0,-9.949952791706306,-12.595627412931327,-7.081607005585524,-2.3920937653218894,-1.505013865855922
0,-7.969351330127208,-10.025378344537868,-10.660556594956779,-6.531290273098986,-1.500013819789956
0,-7.928750239337096,-9.025129394293224,-1.0095068284856081,-5.770487046278658,-1.49501377372399
0,-5.588149520765152,-2.3748805626382703,-4.74845770626643,-7.719684080598703,-1.4900137276580239
0,-5.747549175127534,7.945368150646292,-3.6174092279185524,-6.588881371182308,-1.4850136815920543
0,-6.206949202516289,1.8056167459434709,-1.426361392699592,-7.428078912486948,-1.4800136355260882
0,-4.956349602446895,-6.004134776549442,-6.00531419954407,-4.207276698298352,-1.4750135894601222
0,-4.355750373888382,-7.763886416686198,-4.074267647043418,-1.2564747218138455,-1.4700135433941561
0,1.9648484846531766,-6.623638173964383,-5.173221733385305,0.7843270241698594,-1.46501349732819
0,2.3254469749257662,2.48660995268371,-2.2621764563121616,-5.764871452934746,-1.460013451262224
0,0.6660450986825783,0.08685796473212451,4.088868186787326,3.855929854430183,-1.455013405196258
0,3.3866428575322423,-2.7228941362129766,2.269912198646789,2.6867309539108755,-1.4500133591302884
0,-0.5127597470871743,-2.282646348488909,2.890955581862007,-0.10246814691720985,-1.4450133130643223
0,2.3478372861044545,1.667601329695602,-1.46800166120068,0.3183325593657532,-1.4400132669983563
0,0.5584339582608278,-2.58215109974504,-1.6469595283146499,4.539133080058965,-1.4350132209323903
0,-2.9809697295547064,-3.9619036347976944,-3.355918017223881,4.85993342229668,-1.4300131748664242
0,-0.7103737762760315,-1.3016562732773274,-1.7348771255017803,-0.4992664070767943,-1.4250131288004582
0,-2.319778180724983,-2.7114090127525614,0.7861631494882465,2.1015335984943873,-1.4200130827344921
0,-1.6591829415607202,1.9288381494211944,0.08720281051770945,7.662333445338428,-1.415013036668526
0,-4.058588057258442,0.3790852159945073,-3.7017581395892436,0.4431331395009368,-1.4100129906025565
0,-4.807993526043321,4.0093321896877,-5.740719697891539,0.5139326866868975,-1.4050129445365904
0,1.6726006541695722,4.95957907304902,4.600318138789271,13.264732092290108,-1.4000128984706244
0,2.773194485691398,5.329825868305942,3.871355373796016,8.585531361252983,-1.3950128524046583
0,1.8737879708362934,3.9900725772504773,5.212392010340233,6.716330497770598,-1.3900128063386923
0,-2.075618888228184,-0.13968079876073006,4.6234280512596655,2.1471295052198807,-1.3850127602727262
0,-1.2750260894227194,-1.149434258667482,-4.165536501008383,-0.9920716136040231,-1.3800127142067602
0,5.525566369343067,9.940812198434534,6.615498355716177,4.568727143796912,-1.3750126681407941
0,-3.613841509866006,-1.4889414267632146,-5.213467376509991,-6.780474220205887,-1.3700126220748245
0,-4.60324972503003,-7.128695133823064,-12.222433695594296,-7.769675703184867,-1.3650125760088585
0,-9.502658273950937,-10.708448922250154,-13.251400599014131,-4.86887730235195,-1.3600125299428925
0,-10.392067153916244,-10.988202790985723,-16.60036808328759,-8.308079014327255,-1.3550124838769264
0,-14.091476361390164,-8.867956738074128,-13.349336143635544,-16.4172808350214,-1.3500124378109604
0,-11.690885891787302,-15.247710760547553,-14.278304773862276,-15.146482759382758,-1.3450123917449943
0,-13.610295739326673,-18.04746485429836,-12.597273966374997,-12.225684781085917,-1.3400123456790283
0,-4.799705897032825,-13.777219013857385,-13.676243712244311,-9.544886892445156,-1.3350122996130587
0,-6.869116356905416,-11.776973232262725,-10.7752140012523,-9.454089084569539,-1.3300122535470926
0,-8.938527110142555,-10.19672750116758,-6.964184821982185,-2.3732913475844937,-1.3250122074811266
0,-8.557938147225205,-8.93648181104822,-10.063156161984098,-6.7624936708648615,-1.3200121614151605
0,-6.4373494578592,-11.796236151347344,-8.35212800791211,-5.161696043213879,-1.3150121153491945
0,-9.826761030965873,-9.145990510518018,-8.311100345563315,-6.770898452906471,-1.3100120692832284
0,-1.456172854717884,-0.6657448760766311,-2.47007315992482,-2.4201008876686805,-1.3050120232172624
0,12.394415083238401,12.454500765076524,12.000953564572619,14.030696665160713,-1.3000119771512963
0,8.985002795233463,3.5947464260354334,9.511979843489557,2.921494218165697,-1.2950119310853268
0,2.9355902930020408,4.0049921193984845,7.723005691781973,4.11229178342623,-1.2900118850193607
0,2.1161775875744238,9.175237857180939,7.324031123547847,2.733089372468278,-1.2850118389533947
0,2.2667646895140026,9.21548365080812,11.025056152052617,4.833886996415562,-1.2800117928874286
0,4.207351609099236,13.445729510944986,10.73608078971388,1.9846846660463107,-1.2750117468214626
0,5.697938356318685,3.4059754473232604,5.487105048027838,-1.8245176081680614,-1.2700117007554965
0,10.968524940735524,10.52622146875688,11.788128937578502,5.246280184048698,-1.2650116546895305
0,3.919111371295137,9.846467583235281,13.009152468055802,8.707078052781867,-1.2600116086235609
0,4.639697656256159,5.116713797927448,10.0501756481414,11.837876007672957,-1.2550115625575948
0,-1.2097161966737802,-2.803039880742004,-1.0888015145170504,4.078674057616844,-1.2500115164916288
0,-1.5591301800803157,1.357206553221391,0.7922209869947989,3.259472210710693,-1.2450114704256627
0,-2.3885442865885036,-5.892546894267399,-1.9267568407006161,0.22027047448192494,-1.2400114243596967
0,-5.95795850867189,1.1476997828300528,-1.8757349909862981,-1.8789311438254805,-1.2350113782937306
0,5.752627161440134,9.24794659066742,8.595286542805459,5.201867362932184,-1.2300113322277646
0,2.3632127316477813,-1.8718064647212407,0.9163077672391806,-1.9073339981712933,-1.2250112861617986
0,-3.8262017902336822,-4.2415593775622,-2.7826713113842905,-2.3165352201478466,-1.220011240095829
0,-4.855616396455539,0.7386878578553423,-8.89165068687092,-3.1357362959797106,-1.215011194029863
0,-6.375031079064358,-4.1710647526077445,-9.210630352729607,-9.514937218414328,-1.2100111479638969
0,-7.984445829648066,-7.6008172028544845,-11.299610301788501,-10.464137979723356,-1.2050111018979308
0,0.6261393607700236,-1.6005694864329547,-3.4485905260086103,-6.713338571442746,-1.2000110558319648
0,4.226724501604813,4.979678403492285,-1.1775710165697089,1.8474610156774025,-1.1950110097659987
0,3.4873096023535646,5.529926473871185,4.933448235805304,1.5082607913885213,-1.1900109637000327
0,3.9378946722874826,5.070174731390312,4.654467240438607,4.449060765539506,-1.1850109176340666
0,3.7984797203222347,7.1704231822564575,11.98548600633755,11.639860947739656,-1.180010871568097
0,-1.540935244963221,11.64067183208099,6.636504541894963,6.290661347067483,-1.175010825502131
0,-2.170350215194528,6.2309206857338575,-0.2824771452405903,4.441461971877923,-1.170010779436165
0,7.060234817950336,9.541169747245458,7.568540951981531,3.0522628298584293,-1.165010733370199
0,6.360819862678142,4.091419019832894,12.769558840122148,1.4530639282274922,-1.1600106873042328
0,2.361404926830708,-4.578331493928137,1.3605765251152866,-4.666134726062669,-1.1550106412382668
0,-6.29800998216162,-8.188081791721356,-8.718405987735505,-2.8453331260806616,-1.1500105951723008
0,-3.627424856976149,-4.077831870996331,-3.8873886932966375,-5.074531264681079,-1.1450105491063312
0,-0.6868396900649086,2.60241827126658,-0.056371586132893836,-1.8737291343727522,-1.140010503040365
0,-2.1462544735768656,3.0726686383809603,-2.285354660445969,-7.152926727293848,-1.135010456974399
0,-5.655669199424138,2.4029192336251497,-5.614337910199611,-9.072124035143556,-1.130010410908433
0,-3.1250838592436323,5.953170060031866,4.356678670860736,-4.401321049034362,-1.125010364842467
0,1.3855015556571966,6.0134211202737715,1.097695089140464,-0.08051775945516781,-1.120010318776501
0,1.436087054194611,7.513672416536548,0.5787113510038275,0.08028584353214796,-1.1150102727105349
0,1.3366726453006863,-0.04607604955559329,-4.210272537285055,-2.158910229958253,-1.1100102266445688
0,0.05725833780754408,4.274175723139236,3.1407434305482567,3.2618940302478574,-1.1050101805785992
0,3.077844140436347,7.4244277353953,9.16175926077784,9.252698634265062,-1.1000101345126332
0,1.2884300617798963,1.3146799875981914,0.812774959434628,4.933503591885421,-1.0950100884466671
0,-1.6609838897109674,-1.7950675202637436,0.2837905321419577,4.234308912351732,-1.090010042380701
0,-1.4903977056582367,-6.164814788374585,-6.0151940157186,-3.7448853956001416,-1.085009996314735
0,-6.119811377600509,-7.454561816735283,-6.324178678667521,-2.514079323458108,-1.080009950248769
0,-1.6392248968291472,-5.224308604872493,-0.6431634508578924,1.2467271373464401,-1.075009904182803
0,-2.748638254310054,-11.234055151683199,-6.852148326010691,-0.7124660044844556,-1.0700098581168334
0,1.7319485592649935,-5.153801455350256,-2.9411332974474202,1.458341259795234,-1.0650098120508673
0,0.48253555333863396,-1.9735475133361213,-0.060118358114092996,2.009148938896609,-1.0600097659849013
0,-2.036877262634026,-7.633293322514284,-6.919103500633553,-2.450042958547266,-1.0550097199189352
0,-4.866289879161146,-6.543038879267727,-8.208088717295052,-3.539234423927689,-1.0500096738529692
0,4.86429771339046,-5.622784179426193,-5.517073999883596,-1.6884254485058505,-1.0450096277870031
0,-4.005114475216093,-6.672529218205874,-10.846059339512536,-3.4676160233049114,-1.040009581721037
0,-7.604526435121273,-3.422273990228698,-4.4950447265634015,-1.2668061390941223,-1.035009535655071
0,-2.903938156203224,-1.7120184896012505,-3.294030150704378,-5.645995786386069,-1.0300094895891014
0,-1.89334962791486,-0.9117627100621123,-1.853015601053113,-0.23518495541436923,-1.0250094435231354
0,-0.7427608393404506,-4.051506645115718,-0.8620010663789411,-0.8443736361449119,-1.0200093974571693
0,6.577828220599153,-2.45125028805745,-1.2309865352482985,2.4964381816173105,-1.0150093513912033
0,-3.8115824370641227,-6.890993631900754,-8.19997199605194,-7.572749491877594,-1.0100093053252372
0,-1.3509928014058263,0.009263330702696082,-0.5389574368984212,-3.751936646239573,-1.0050092592592712
0,3.7995971384907774,-3.140479392543008,-5.677942845515421,-5.071123270737996,-1.0000092131933052
0,8.0201873935031,2.959778206305408,1.8530717907242868,-2.680309354194786,-0.9950091671273391
0,8.900777974175805,3.8900361352529953,4.474086484644699,-2.4794948850276057,-0.9900091210613695
0,7.481368890415409,1.9202944021669297,6.965101248993482,2.781320148631031,-0.9850090749954035
0,9.201960151345844,6.3505530146332845,8.71611609612093,4.312135758743759,-0.9800090289294374
0,7.572551765280807,-0.2791880200977474,6.087131037753791,2.5129519571258445,-0.9750089828634714
0,-0.3468562602187816,-7.588928695024611,2.468146084940094,-2.9462312446589847,-0.9700089367975053
0,5.263736081837064,1.7713309968708542,5.05916124815981,-1.4954138351805366,-0.9650088907315393
0,0.5443287980798401,-5.118408937158231,4.710176537450755,1.745404197036541,-0.9600088446655732
0,-2.3350781050898264,-3.988148489589509,-3.978808037523798,-3.6037771364410656,-0.9550087985996036
0,1.8055153786305733,-7.447887652566946,-2.427792467297363,-0.26295782396660883,-0.9500087525336376
0,3.036109255521138,-0.6276264177908941,-0.3867767423430312,1.6178621462008902,-0.9450087064676715
0,0.18670353177327947,1.2026352234473952,-0.6457608529640109,-0.8113172141444125,-0.9400086604017055
0,-2.382701786551834,-0.4271027199416147,5.46525521061799,3.1995041067599606,-0.9350086143357395
0,-2.852106693408494,-1.9468402390082369,-0.903728541900251,4.680326120562263,-0.9300085682697734
0,-2.1615111826066116,-0.6065773247624294,0.1872878990186062,3.7811488386670575,-0.9250085222038074
0,-3.8909152477165194,-1.9163139681124768,-1.061695457183314,2.0219722721307574,-0.9200084761378413
0,-2.150318882039244,2.143949840138094,-1.760678601044922,5.432796431656902,-0.9150084300718717
0,-2.369722078594912,-6.435785890729144,-5.959661522985711,1.0036213276122807,-0.9100083840059057
0,-13.959124830077178,-6.155521151268082,-8.338644213141757,-3.735553029904097,-0.9050083379399396
0,-14.98852712858299,-8.60525593163473,-14.947626661087304,-9.074726630830929,-0.9000082918739736
0,-6.8179289652253585,0.43500977858982615,-7.896608855522863,-2.5938994647902516,-0.8950082458080075
0,-4.437330330018313,-2.6247240096662394,-5.645590784138423,-5.073071520893968,-0.8900081997420415
0,-4.676731212144235,0.1455427148193127,-0.9445724337778788,-4.662242787764195,-0.8850081536760754
0,-6.086131600213935,-7.654190036550665,-2.7335537907536067,-2.261413253590284,-0.8800081076101058
0,-9.475531482309682,-3.7139222521088024,-3.062534841074309,-4.51058290617061,-0.8750080615441398
0,-6.434930845883185,-15.913653919707146,-7.191515570474219,-8.829751732913707,-0.8700080154781737
0,-4.684329677677972,-13.023385026411407,-9.360495964268784,-7.278919720719076,-0.8650079694122077
0,-3.6237279637980024,-2.2931155582360976,-7.439476007147767,-1.2880868558557177,-0.8600079233462417
0,-1.9431256898610731,4.647154499716465,-5.808455683048507,-3.697253124030521,-0.8550078772802756
0,3.687477158824036,10.747425162663395,4.632565024748075,3.9735814893943617,-0.8500078312143096
0,4.708080597020056,12.917696445447357,10.14358613323706,7.314416999125677,-0.8450077851483435
0,5.048684639277279,3.697968362081545,6.494607659145209,9.955253419583775,-0.8400077390823739
0,8.849289299718931,1.5282409257177938,7.955629618543201,10.30609076454354,-0.8350076930164079
0,10.22989459187015,5.388514148923637,11.446652026726856,11.046929046894558,-0.8300076469504418
0,6.110500528494552,8.758788043856471,5.377674898170758,5.987768278557786,-0.8250076008844758
0,-4.928892878384143,-3.260937377775215,0.9386982465607798,4.48860847056569,-0.8200075548185097
0,-1.708285617135637,0.3493378953531935,-1.1602779149582925,4.229449633265104,-0.8150075087525437
0,2.852322323861505,4.5896138744026205,0.3807464265513335,6.970291776481923,-0.8100074626865776
0,-3.0870690436761468,1.8998905704244882,-0.10822871599503953,3.1711349095506005,-0.8050074166206116
0,11.77354029193943,0.38016799426521714,9.722796670270254,0.7719790413403043,-0.800007370554642
0,1.2541503421548537,0.030446156578804007,-2.7561774020040897,0.352824180386877,-0.795007324488676
0,-8.045238881935592,-1.0192749320636842,-9.115150920400344,-3.86632966490509,-0.7900072784227099
0,-4.9046273693283045,-5.928995261052623,-7.824123872368421,-2.7454824860734814,-0.7850072323567439
0,-1.0440151086989702,-2.298714819585204,-1.1330962448177138,2.995365725521938,-0.7800071862907778
0,3.4865979116453696,-0.10843359656087237,3.897931975869045,0.36621497863785546,-0.7750071402248118
0,1.2472117035136374,1.2318484193505126,1.8689608034903946,2.5170652819884203,-0.7700070941588457
0,7.787826278564928,3.932131239521027,10.529990251669547,9.837916644096078,-0.7650070480928761
0,7.878441648095841,3.4824148751776933,1.6310203336046967,4.148769073099917,-0.7600070020269101
0,1.789057822863307,3.3926993372694363,8.352051061952164,4.0196225765915665,-0.755006955960944
0,8.999674813043496,5.782984636395538,4.5430824488078745,-0.11952283834326818,-0.750006909894978
0,9.250292628229959,12.783270782705685,12.294114505674422,3.901332835054527,-0.7450068638290119
0,11.150911277303756,4.783557785692857,7.265147243331626,4.432189603302827,-0.7400068177630459
0,3.3115307682856123,7.633845654059274,7.326180671725768,-1.0169525273472204,-0.7350067716970798
0,4.692151108400626,6.8241343957580805,4.737214800004619,4.973906449094281,-0.7300067256311138
0,0.9627723043047631,0.47442401810014123,2.3382496366674044,2.594766538386415,-0.7250066795651442
0,-1.3066056376814665,0.9447145279153644,0.40928518975750217,-2.804372253942299,-0.7200066334991782
0,-6.275982711337713,0.09500593177921446,0.9303214670569906,-2.043509922492013,-0.7150065874332121
0,-2.3653589102793284,4.27529823615146,4.121358476200291,-0.6326464618005816,-0.7100065413672461
0,-0.5647342278068979,0.5655914473553387,-6.447603775298613,-1.6917818662530242,-0.70500649530128
0,0.12589134304002053,8.18588557148577,0.13343472005585721,-0.03091613010271349,-0.700006449235314
0,-0.7234821906606108,0.19618061431218675,0.4144739698833403,-0.9200492475079421,-0.6950064031693479
0,14.517145178122009,4.516476581232533,7.135513981875153,6.260818787405317,-0.6900063571033783
0,6.11777345605507,10.496773477261272,6.496554763532037,8.231687980350586,-0.6850063110374123
0,2.6784026491254367,4.037071306913045,-1.542403678066949,0.9725583366318091,-0.6800062649714462
0,0.3990327626822664,3.857370074086166,-0.6313613362144088,-2.7365701389048147,-0.6750062189054802
0,-11.600336198201317,-3.1423302178273453,-6.820318204291117,-5.96569744158152,-0.6700061728395141
0,-6.159704228248994,-2.2620295656474303,-5.719274275455424,-1.3748235665426658,-0.6650061267735481
0,-0.36907132163496836,-4.231727966116772,0.4417704575428316,-2.9139485086000456,-0.660006080707582
0,-1.5184374720091987,-3.411425415718689,2.9228160023061878,-2.3330722622713194,-0.655006034641616
0,-5.847802672714933,-4.171121910599707,1.723862366519442,2.4578051781459904,-0.6500059885756464
0,-0.2571669168498515,2.159182553423628,-1.825090442246547,0.8086838184533758,-0.6450059425096804
0,1.8534698027358751,-7.560512019209902,-7.27404241646749,-4.040436335559248,-0.6400058964437143
0,-5.615892506657035,-4.880205623805022,-6.252993548399841,1.2104447219168069,-0.6350058503777483
0,-4.635253837589318,-0.9998982552924616,-3.061943829826895,1.6113269967623776,-0.6300058043117822
0,-0.28461418234562985,-2.669589908212489,1.9791067479465974,2.01221049485507,-0.6250057582458162
0,0.8560264670869275,7.6907194231137055,-0.31984180612348606,0.9730952219558846,-0.6200057121798501
0,0.8566681188511354,8.171029744279478,6.481210516929348,2.473981183664923,-0.6150056661138841
0,-1.4426892189174383,-0.658658939526438,2.452263725879338,-2.365131614556458,-0.6100056200479145
0,2.327954461887807,-1.598346623559199,4.343317829175484,-0.44424316731389285,-0.6050055739819484
0,0.6385991693380578,-3.208033303236856,1.8343728349034696,-1.7233534691701218,-0.6000055279159824
0,4.1292449114098835,-1.6877189738646314,1.1954287508381458,-2.3124625145758184,-0.5950054818500163
0,1.669891695897109,-0.2374036305453854,4.236485584513689,3.788429702142613,-0.5900054357840503
0,-3.619460469605323,-2.647087268210295,-6.022456656718317,-0.7606768133002687,-0.5850053897180842
0,-1.8888115775685155,-7.346769881612096,-5.471397965520562,-1.1097820552386901,-0.5800053436521182
0,-5.43816162031781,-12.766451465134143,-10.320338334252394,0.4411139819709263,-0.5750052975861486
0,-1.8475105898873383,-7.37613201246969,-4.059277754672376,-5.657988695970434,-0.5700052515201826
0,-1.196858477992929,0.48418848352601906,-1.4382162178881535,-4.617090083180223,-0.5650052054542165
0,0.913794723884199,8.224510030561373,4.702846285433577,1.6038098265297729,-0.5600051593882505
0,-4.165550975610104,2.0248326363708227,-0.8060902352691768,-2.085288960374455,-0.5550051133222844
0,-1.4548955677158053,4.72515630834448,0.09497422934821798,1.7656135627017597,-0.5500050672563184
0,4.165760956476299,6.925481053437258,5.70603968851685,2.1665174023596605,-0.5450050211903523
0,3.606418605900488,3.1158068781445465,-0.6228938486796404,-2.9325774348546103,-0.5400049751243863
0,5.28707738928021,-5.363866211461145,-0.48182637334523654,-8.771670942381812,-0.5350049290584167
0,0.6877373149804834,-6.35353820945004,-1.7007578766796927,-8.160763113354687,-0.5300048829924506
0,2.7583983910274705,-2.403209109644617,1.2303116501511147,3.2501460596514358,-0.5250048369264846
0,6.189060625166676,-0.12287890546455862,7.661382215981354,3.861056584486799,-0.5200047908605185
0,5.649724024808837,0.23745240994688604,1.3724538294493125,0.751968469039193,-0.5150047447945525
0,1.3403885969206584,2.1977848435295555,7.7735264988133,5.342881720971521,-0.5100046987285864
0,2.821054348045262,0.2581184021769392,1.4046002318902209,5.84379634764282,-0.5050046526626204
0,-1.3682787155577008,3.63845309266843,2.1956750360847805,7.394712355986344,-0.5000046065966508
0,1.5723894122242266,4.938788921600526,9.496750918441274,7.1556297523638595,-0.49500456053068476
0,1.4430587374290387,1.2291258952898918,1.1778278856043902,0.006548542518296771,-0.4900045144647187
0,1.993729266007243,3.4994640197306364,8.018905943732143,1.797468731703291,-0.48500446839875266
0,2.3344010037640017,6.819803300603819,6.039985098462863,2.1583903248964083,-0.4800044223327866
0,-0.41492604366891006,-0.7998562567600813,0.33106535490628836,-2.120686673071891,-0.47500437626682057
0,-4.824251870761352,-4.189514647325768,-3.8078532822359996,-1.189762257437834,-0.4700043302008545
0,-7.233576471875627,-7.539171866069181,-3.256770808358242,4.801163576578147,-0.4650042841348885
0,4.687100158944542,2.39117209233373,-5.115687218648338,12.052090833646481,-0.4600042380689189
0,-2.712221972056648,-1.228482766461378,-1.6846025079518976,4.183019517984332,-0.45500419200295283
0,2.458457141449414,-3.308136436626072,4.956483329188317,2.233949633145645,-0.4500041459369868
0,2.749137505743929,9.262211087723482,1.707570298301924,5.694881182117795,-0.44500409987102074
0,9.089819126934605,8.012559812333944,5.258658404737624,6.625814167453279,-0.4400040538050547
0,6.120502010725022,5.092909742475122,2.8697476535252053,8.086748591205968,-0.43500400773908865
0,8.001186162208127,9.753260882734867,4.3708380493336705,5.23768445480566,-0.4300039616731226
0,6.431871585781377,10.803613236961269,6.541929596443718,3.8486217590411087,-0.42500391560715656
0,2.3525582851745823,8.693966808156498,4.873022298683319,1.2795605041706033,-0.42000386954118696
0,2.633246263576739,6.4743215984083005,7.474116159355287,3.0305006900848586,-0.4150038234752209
0,2.943935523802147,4.084677608982463,8.225211181166223,5.631442316394561,-0.41000377740925487
0,1.9846260683911299,1.4350348405221203,1.286307366182922,4.272385382382643,-0.4050037313432888
0,3.195317899629246,0.6453932932723058,2.7574047159113344,1.5233298869292304,-0.4000036852773228
0,1.966011019551346,0.715752967265991,3.848503231475166,-1.885724171420804,-0.3950036392113567
0,0.03670542996289132,0.9561138624294682,3.1796029137016566,2.335223205715031,-0.3900035931453907
0,4.13740113248039,1.9364759786041181,0.12070376312471195,8.286172016616701,-0.3850035470794211
0,5.618098128516638,4.1268393155020835,5.961805780013366,12.197122259240603,-0.38000350101345504
0,2.808796419166408,-4.522796127335621,0.3729089643814677,6.228073930859416,-0.375003454947489
0,3.009496005133107,0.5575696495348021,-4.215986683977581,-1.220972972060489,-0.37000340888152294
0,-8.909803113166092,-4.562063354374853,-6.7448811652883665,-2.810018453579559,-0.3650033628155569
0,-9.46910093525021,-4.791695139349262,-11.61377447943024,-7.669062517825069,-0.36000331674959085
0,-1.5783974601628368,-2.5713257053588703,-1.9826666256431476,-2.5681051686281156,-0.3550032706836248
0,0.2223073136339906,-2.400955052014591,-2.221557602488351,-7.85714640935224,-0.35000322461765876
0,2.433013387999598,0.10941682136838062,-0.03044740807900058,0.2738137571257197,-0.34500317855168916
0,-0.2262792351768595,2.779789915635132,4.980663959644229,4.784775328289436,-0.3400031324857231
0,5.1744294458854165,3.600164231611598,-0.3382234973123502,5.815738301667721,-0.33500308641975707
0,13.815139432702045,5.910539769909956,7.282890222853467,8.206702674463976,-0.330003040353791
0,19.6258507261367,15.940916530701816,17.16400512155518,14.09766844326645,-0.325002994287825
0,15.07656332585143,14.831294513359877,15.005121199406126,14.918635603756133,-0.32000294822185893
0,6.6772772300184435,0.8816737161413536,9.736238455795371,12.279604150428417,-0.3150029021558929
0,1.3079924355248504,2.3620541363030063,7.237356888818678,5.520574076506211,-0.3100028560899233
0,2.5787089384805095,1.882435770540969,0.1384764955697539,4.5915453741530285,-0.30500281002395724
0,-0.30057326536909457,3.3428186152878006,0.8195972725409728,3.832518034804923,-0.3000027639579912
0,0.08014581956303785,-2.986797333219413,-0.9592807840304276,4.743492049399503,-0.29500271789202515
0,-8.61913381114526,-3.9364120788282477,1.121842322033264,0.2444674084729101,-0.2900026718260591
0,-5.2084121616869545,-3.636025625252535,-2.287033413090441,-2.9345558977236417,-0.28500262576009305
0,-6.197689235776181,-6.565637975882204,-6.095907993153941,-5.053577878982476,-0.280002579694127
0,-4.816965036544887,0.5247508662977087,0.38521857829925144,-1.8825985448901466,-0.27500253362816096
0,3.5737604333746398,9.065140898585652,7.756346297939682,0.03838209526768965,-0.27000248756219136
0,-3.7055128283559045,6.025532118185712,-6.632524837562272,-2.600635967570761,-0.2650024414962253
0,-3.034784823941232,3.5659245218295,1.8986051683584413,0.8403472576664215,-0.26000239543025927
0,1.0759444445588535,5.606318105684432,3.409736312251898,-3.1286682378448623,-0.2550023493642932
0,-2.833325024743482,7.256712865403437,3.0808685906101485,-6.857682462777207,-0.2500023032983272
0,5.127406766355963,6.787108796094616,9.062001999664055,-1.8566954255169676,-0.24500225723236113
0,3.8481398160107005,-1.9124941077115705,1.983136535205896,-2.7157071340661285,-0.24000221116639509
0,8.038874122105995,5.8779041480669685,4.89427219252413,-2.234717596093516,-0.23500216510042904
0,4.8996096820551465,12.538303557154077,8.18540896642324,4.296273180947248,-0.23000211903445944
0,8.340346492680146,8.508704112706745,8.266546851177907,7.887265189607996,-0.2250020729684934
0,-1.4889154497877468,4.699105807056526,-3.9623141595452687,-4.961741577807408,-0.22000202690252735
0,-1.1181761495477722,-5.160491368200169,-6.121174072476961,-5.310747129220274,-0.2150019808365613
0,2.6725643890337656,2.1799125781904136,2.939967105676886,-3.4397514724386364,-0.21000193477059526
0,2.9033061615334326,2.45031763743674,0.13110936840787835,-0.868754614915539,-0.2050018887046292
0,-3.295950836582778,1.7907238006930237,-0.15774729072860383,-3.197756563776646,-0.20000184263866316
0,-0.015206609934076853,-7.09886894099642,-4.556602878185995,-3.7067573259013775,-0.19500179657269356
0,-7.254461163061523,-2.8184605965373746,-6.2954574002824595,-5.195756907886062,-0.19000175050672752
0,-9.663714500207236,-5.638051174530749,-7.874310862965691,-8.784755315931045,-0.18500170444076147
0,-8.382966625041567,-12.647640683098444,-8.693163271596713,-5.0237525556899865,-0.18000165837479543
0,-5.77221754046589,-14.017229129651472,-9.04201463080069,-7.202748632183094,-0.17500161230882938
0,-6.501467248615503,-12.086816520568753,-10.830864944370518,-8.38174354977247,-0.17000156624286333
0,-0.2807157509925206,-0.8664028610764118,-3.2397142152243923,-4.240737312152795,-0.1650015201768973
0,1.3100369513298038,-2.2059881555053327,0.25143755446487437,-5.699729922369311,-0.16000147411093124
0,2.710790857433267,11.094427592211442,-0.5174096370405589,-1.248721382915683,-0.15500142804496164
0,0.36154596632862457,1.1948443780374904,3.0737442086505995,7.312288304060689,-0.1500013819789956
0,-1.9976977230972057,-4.924737802407992,2.734899089869385,1.713299136434719,-0.14500133591302955
0,6.163059787965769,-5.404318953653306,-1.3639449952101517,3.0343111118194934,-0.1400012898470635
0,5.853818498189093,-0.3338990800111643,1.8172119514344272,5.745324227486832,-0.13500124378109746
0,6.584578405883984,4.076521814500479,7.038369927704536,8.476338480318857,-0.1300011977151314
0,2.3253395088346003,7.096943725894913,2.4895289312637536,6.487353866657794,-0.12500115164916537
0,7.106101804305102,2.327366649889342,3.2706889594031585,2.3183703822057304,-0.12000110558319577
0,6.416865289065875,6.557790581749327,6.581850009019596,4.679388022102131,-0.11500105951722972
0,1.1076299593687042,10.038215516236418,4.023012076604331,3.810406781052961,-0.11000101345126367
0,-8.961604188929032,2.468641447512712,-3.6058248417646004,-6.418573346553666,-0.10500096738529763
0,-4.730837159962647,4.389068369113347,-1.194660750240866,-3.0175523664246184,-0.10000092131933158
0,0.5899310425057704,0.9494962740864028,-1.1834956529470946,2.543469715906819,-0.09500087525336554
0,2.6707004150669325,5.649925155140786,7.977670446079147,6.3244928950488495,-0.09000082918739949
0,12.301470954320598,9.740355004631448,7.738837542656096,13.785517165391068,-0.08500078312143344
0,5.03224265645213,11.36078581435201,9.170005632098974,10.076542520652326,-0.08000073705546384
0,1.5530155169978739,4.701217575290102,9.84117470897301,10.43756895356927,-0.0750006909894978
0,5.163789530925302,6.21165027759536,12.792344766952697,11.838596455809046,-0.07000064492353175
0,10.714564692755769,7.922083910710289,14.193515798684121,17.689625017933444,-0.0650005988575657
0,8.465340996443384,3.982518463449065,11.564687795635319,12.86065462924641,-0.06000055279159966
0,8.946118435152716,6.7229539240193334,7.985860748054183,14.541685277652352,-0.05500050672563361
0,3.276897001209897,15.623390279993181,10.647034645083309,11.062716949661912,-0.05000046065966757
0,1.687676686252696,2.6238275181553194,3.6182094749232356,8.293749630513336,-0.04500041459369797
0,-3.2615425184924636,-9.165734375475656,0.7393852250298457,1.6447833043970645,-0.04000036852773192
0,0.3692393780847866,-4.735295415146251,-4.519438117573267,-4.364182045171566,-0.035000322461765876
0,2.2700223671273037,-5.664855614778385,-3.488260565910772,1.2068535650921905,-0.03000027639579983
0,-1.4491935602123827,-7.614414987728084,0.13291786720408372,-2.8021098814698178,-0.025000230329833784
0,-5.668408412782204,-5.123973546758296,-3.22590283079598,-4.50107240136847,-0.020000184263867737
0,-1.8576221992871735,4.916468695908975,1.945277327698449,0.3299659890932206,-0.015000138197901691
0,-5.086834928127338,-1.7430882716509153,3.936458330359793,4.191005273803033,-0.010000092131935645
0,-1.986046607350512,-9.422644461270568,-2.702359835210551,-0.2879545633363345,-0.005000046065966046
0,-2.2952572446784414,-3.262199884558689,-4.011177181494839,-3.1869135385294163,0.0
0,-1.0344668475618255,3.9182454472885646,-3.4899937208635974,-1.5958716679869935,0.005000046065966046
0,-3.953675423240165,3.258691523318706,-0.8988094654087064,0.395171032213861,0.010000092131932092
0,-3.132882978730483,-6.350861667467047,-1.0876244269507485,-0.7937854538700511,0.015000138197898139
0,-3.542089520768549,-3.730414136085572,-3.5964386171232112,-5.262741142087706,0.020000184263864185
0,-8.221295055738093,-11.619965893262936,-7.185252047342737,-10.20169604806743,0.02500023032983023
0,-5.7204995895569875,-4.819516949142023,-6.2740647286490585,-2.260650186967752,0.030000276395796277
0,-8.189703127548404,-0.9690673131884064,-4.752876671545753,-6.739603573344459,0.035000322461765876
0,-6.198905674366905,-0.808616994357114,-1.8416878859811159,-3.168556221206598,0.04000036852773192
0,0.6018927659667352,1.5318339986305456,1.4095016185017961,1.9524918558641318,0.04500041459369797
0,-3.6273078100976255,-5.927714342865569,0.020691832547148736,0.5635406445299094,0.050000460659664014
0,4.683492594127283,4.232737972602658,4.951882746790297,2.214590131472093,0.05500050672563006
0,6.59429397532996,11.543190936493652,7.173074351678801,-1.5743596967206606,0.06000055279159611
0,7.605096329905435,7.733644539919139,7.864266637246617,7.686691146423522,0.06500059885756215
0,2.5558996537164838,1.9540987733010344,6.325459592917164,4.597742647164203,0.07000064492353175
0,5.7567039420590955,10.334553626361695,4.986653207436055,2.238794791377737,0.0750006909894978
0,-8.282490810176336,-8.214990911707824,-8.412152530988944,-9.360152435402414,0.08000073705546384
0,-9.401684608161101,-5.754534851953676,-3.9509576343024237,-5.659099047621972,0.08500078312142989
0,-5.770877456654967,-2.0240782052338564,-4.209762114181692,-3.1680450593071927,0.09000082918739594
0,-7.530069359721777,-5.92362098197271,-6.238565981843103,-6.8669904839469345,0.09500087525336198
0,2.700739679232925,-6.583163192146336,-5.567369248018971,-9.275935334494704,0.10000092131932803
0,-1.7284503427804956,-9.212704845214558,-9.896171922888724,-7.254879623272819,0.10500096738529408
0,-9.317639428532464,-9.122245949959044,-11.224974015941878,-12.603823361822554,0.11000101345126367
0,-6.256827580483601,-3.1717865143876853,-10.713775535794396,-12.322766560772642,0.11500105951722972
0,-2.6260148005621393,-15.301326545740322,-13.10257649003797,-5.94170922972068,0.12000110558319577
0,-9.52520109010758,-14.230866050403286,-14.751376885128703,-10.510651377255943,0.1250011516491618
0,-10.394386449859315,-18.130405033614565,-13.40017672627493,-15.109593011023792,0.13000119771512786
0,-4.123570879828868,-0.5299434992554695,-6.46897601739654,-11.348534137630127,0.1350012437810939
0,-11.302754379228833,-13.539481450010005,-14.977774761234528,-13.407474762479952,0.14000128984705995
0,-13.401936946457019,-15.559018887589875,-15.716572959419945,-6.726414889760914,0.14500133591302955
0,-7.261118578959569,-10.63855581264604,-13.625370612328057,-4.115354522617338,0.1500013819789956
0,-0.3102992732182488,-9.05809222461295,-10.954167718960772,-11.50429366337996,0.15500142804496164
0,-3.7594790250210317,-12.277628121780364,-9.51296427702201,-6.5332323136629356,0.1600014741109277
0,-9.228657829740504,-6.22716350141672,-7.171760283113,-3.932170474338364,0.16500152017689373
0,-4.7278356823043275,-1.6966983598941854,-3.3905557329426084,-3.2611081456171704,0.17000156624285978
0,-4.0270125770713445,-3.4662326929408196,-1.7693506215652792,-2.900045327242587,0.17500161230882583
0,-6.406188507843592,3.144233504068724,-1.3781449436296906,0.17101798136972762,0.18000165837479187
0,0.45463653204959564,3.244700235869199,-0.6969386935531028,3.342081780985713,0.18500170444076147
0,2.9054625496101543,11.685167507025373,3.6142681343543317,-4.246853927598009,0.19000175050672752
0,1.6162895519250247,0.34563532164090705,3.7354755457421267,4.844210856380021,0.19500179657269356
0,2.947117545942924,-0.16389631671233496,-4.703316453909234,-2.1947238663509028,0.2000018426386596
0,-0.88205346158288,-8.993427404721011,-4.172107859199472,-3.063658095083063,0.20500188870462566
0,3.3387765359334525,7.407042061028666,-0.8908986645624151,1.0174081709476415,0.2100019347705917
0,4.019607544925661,2.9475120840821174,-2.3696888641521,-3.2415250673643703,0.21500198083655775
0,3.6604395715871703,-1.5320173321276305,1.0915215480926583,0.9095421910006688,0.2200020269025238
0,8.551272621749037,3.628453815614273,8.53273257828692,6.270609947113812,0.2250020729684934
0,7.632106700733898,9.408925530315537,11.553944232289929,8.201678201882709,0.23000211903445944
0,9.842941813193361,6.2593978146038545,5.445156515325397,7.772746955736843,0.2350021651004255
0,-0.06622203696892365,5.299870670499588,2.846369431827311,6.693816208417897,0.24000221116639153
0,0.5746151535492692,11.90034409934204,5.687582985596884,10.714885958917842,0.24500225723235758
0,1.335453387746951,12.040818101703131,9.688797179928168,9.715956205423852,0.2500023032983236
0,10.056292668448016,1.191292677253442,7.160012017526969,9.337026945228324,0.25500234936428967
0,1.0671329981641535,-5.278232175096012,-1.1287724995783681,5.658098174706488,0.26000239543025927
0,-1.7420256210125853,-5.877756456678796,-2.94755636984668,2.769169889432934,0.2650024414962253
0,-6.48118318720061,8.692719831352914,7.083660408099406,5.920242084388882,0.27000248756219136
0,-1.0403396983756923,-1.4768033120211081,7.994877835509765,7.341314754069466,0.2750025336281574
0,-3.7494951521955486,-0.2763258879244615,-1.9239040867309605,4.16238789244664,0.28000257969412345
0,3.871350453957754,3.634152102381408,3.837314641838941,0.42346149296135727,0.2850026257600895
0,-0.20780287718898766,-2.8753693424431623,6.1585340213840265,7.734535548628594,0.29000267182605555
0,7.263044857007149,3.6851097761935327,3.599754051753664,4.625610052086082,0.2950027178920216
0,6.843893658908071,-1.7144105431788679,0.9309747323975528,5.796684995504743,0.3000027639579912
0,7.664743530376593,11.42606969785558,10.572196062373598,13.127760370475652,0.30500281002395724
0,5.125594472634385,4.916550497394431,7.0434180402806135,9.218836167841328,0.3100028560899233
0,3.1464464862663215,5.007031852987117,1.674640664103904,3.159912377552668,0.31500290215588933
0,0.7272995713628035,-1.0024862383798177,5.515863931234403,-1.089011011202316,0.3200029482218554
0,-4.541846272265108,-3.9020037800445317,-10.842912161301111,-8.787934009574574,0.3250029942878214
0,-6.7309910447875065,-5.581520775330121,-7.621687616451678,-11.656856628524842,0.33000304035378747
0,-10.310134746017793,-8.021037227240031,-7.630462436683437,-8.535778878346555,0.33500308641975707
0,-14.209277375081099,-12.43055313820096,-15.999236623668718,-9.18470076842691,0.3400031324857231
0,-16.93841893008517,-16.610068509782927,-20.35801017803771,-20.043622307156518,0.34500317855168916
0,-19.87755940779336,-10.979583342401371,-12.606783099030244,-16.562543501721617,0.3500032246176552
0,-17.02669880335246,-13.73909763516253,-17.655555384291645,-19.821464357777586,0.35500327068362125
0,-18.66583711015681,-8.488611385905017,-19.56432702986669,-17.92038487924043,0.3600033167495873
0,-4.304974319910933,-8.4281245913391,-11.823098030172593,-11.969305068263191,0.36500336281555334
0,-9.814110422937617,-10.277637247195686,-11.931868378047383,-10.248224925412295,0.3700034088815194
0,-5.13324540857311,-10.617149348292806,-11.540638064950123,-1.7671444499960849,0.375003454947489
0,3.197620734528734,-7.566660888510997,-6.909407081176956,-4.896063640475703,0.38000350101345504
0,9.618488018029499,11.87382813906956,16.701824583830764,7.635017505146507,0.3850035470794211
0,19.129356453309516,12.794317741600896,15.963056940730347,16.166098988869503,0.39000359314538713
0,9.000226050828847,5.344807925704402,5.704289999385362,11.037180812081004,0.3950036392113532
0,10.831096819811247,6.305298697123467,7.90552376852437,7.868262975106471,0.4000036852773192
0,7.601968768316897,8.585790060816075,12.656758255907674,11.439345477166283,0.40500373134328527
0,12.252841903414607,8.896282021039113,10.507993468399292,4.5004283165204635,0.4100037774092513
0,8.423716231227035,9.316774581275553,3.899229411891657,3.2815114906220684,0.4150038234752209
0,4.354591756947779,-0.6827322557858104,-3.759533908531985,-6.307405003606155,0.42000386954118696
0,0.8754684850059459,-2.352238488035146,-1.0982964881678416,-3.5063211693690257,0.425003915607153
0,-10.743653580564107,-6.321744113522832,-1.4970583222972424,-9.975237009599496,0.43000396167311905
0,-3.7927744356324276,2.0287508698882344,0.6741805939398764,-7.584152526680019,0.4350040077390851
0,-6.171894075595143,-2.180753535408606,-0.5345797345071104,-3.9030677222981187,0.44000405380505114
0,-4.091012495277667,-4.870257326843096,-3.503339302633696,-6.8719825974598,0.4450040998710172
0,2.09987031096505,-2.509760501642199,-0.5820981053375582,-1.8108971526084559,0.4500041459369868
0,2.130754349035652,-2.1392630567404596,1.8691438626272991,0.270188612249733,0.45500419200295283
0,6.371639624808016,1.0612350111974727,3.650386606545512,2.371274697343273,0.4600042380689189
0,-0.39747385610211927,5.671733705614909,0.22163013158130151,0.9923611029151806,0.4650042841348849
0,-4.14658608834178,-4.1477669701297994,-0.5471255572802731,-1.5565521708915175,0.470004330200851
0,-7.805697066561141,1.972732987192472,0.8141195448467371,-2.085465123977174,0.475004376266817
0,-19.624806784980404,-1.8567664192203819,-11.624634557109635,-10.694377756106213,0.48000442233278307
0,-14.803915236862233,1.2237348138623403,-8.513387857902543,-4.593290066650327,0.4850044683987491
0,-16.763022414074403,-5.525763310280186,-9.722140351611138,-9.48220205435782,0.4900045144647187
0,-13.09212830693218,-2.3252607882309766,-7.720892031442839,-4.3511137172803505,0.49500456053068476
0,-6.031232904299998,-4.544757616306086,-7.51964288973614,-3.400025052817625,0.5000046065966508
0,2.3596638060637183,3.8357462094780357,-0.6583929180724788,3.9510639421051374,0.5050046526626168
0,0.09056183698595943,-5.333749306698997,-1.3171421074877898,5.1921532707227005,0.5100046987285829
0,-0.9585387985639431,4.866755839425711,-1.0858904487244727,7.293242936066524,0.5150047447945489
0,2.512361912369172,3.9372616521041772,3.3453620675910383,-0.4456670592751047,0.520004790860515
0,5.553263982661568,3.397768135397765,2.056615450812609,-0.9345767131120448,0.5250048369264846
0,5.774167424952333,5.508275293024273,5.587869710123796,-3.5634860234035823,0.5300048829924506
0,5.495072251447244,4.148783128290469,1.5891248544121288,-4.772394987991801,0.5350049290584167
0,8.885978473803224,8.519291644043586,2.710380892235057,4.488696395524213,0.5400049751243827
0,9.446886103026957,7.179800842572593,11.551637831807529,-0.15021187029558936,0.5450050211903488
0,6.927795149360747,0.660310725542365,9.132895680835638,3.6308802170656627,0.5500050672563148
0,14.388705622195074,11.670821294035278,9.724154446246079,7.381972659914666,0.5550051133222809
0,12.769617529955587,9.231332548542522,10.495414134033563,5.403065460189879,0.5600051593882469
0,4.720530879975171,-0.9481555111499478,2.6166747492726827,0.44415861933922224,0.5650052054542165
0,10.201445678552034,6.002357114105412,11.607936296229077,4.6852521383704975,0.5700052515201826
0,8.072361931114735,4.712870423019564,6.5091987784350005,4.546346017958324,0.5750052975861486
0,2.803279642313166,3.123384413917176,2.7804621986951217,1.807440258440164,0.5800053436521146
0,-1.2758011838353396,-4.42610091523772,-1.0582734407824541,-1.7314651401632783,0.5850053897180807
0,6.795119456315623,5.404414433326846,8.092991861855399,0.09962982200544399,0.5900054357840467
0,6.866041566133083,-3.1950695426708693,2.234258108182845,0.8907251447876194,0.5950054818500128
0,3.186965148564968,-5.234552845512863,-2.5144747005525714,8.931820827975764,0.6000055279159788
0,2.4178902060571454,-4.2240354773155335,2.396793436672371,7.4529168710751685,0.6050055739819484
0,-4.4911832593006435,-11.72351743978424,-12.661937479113378,-8.995986726884517,0.6100056200479145
0,-5.380255245484822,-12.882998733959672,-12.67066744653458,-11.974889967075574,0.6150056661138805
0,-0.6793257502491461,-2.832479359988393,-1.859396463477222,-5.733792850252744,0.6200057121798466
0,1.2616052289504693,-8.21195931711685,-5.088124526994472,-9.802695376359809,0.6250057582458126
0,7.942537694763636,-7.341438603857396,0.5631483664356746,-6.431597544505473,0.6300058043117787
0,9.313471649592174,1.9890827818916197,5.954422220592128,4.059500646901824,0.6350058503777447
0,6.904407095253983,7.689604842621353,6.745697039183196,7.970599199817131,0.6400058964437108
0,6.585344032814877,-1.279872419200037,7.956972825504617,2.5816981160519625,0.6450059425096768
0,5.286282462623577,-10.519349001293985,1.0182495822551376,1.3627973969973999,0.6500059885756428
0,0.17722238443041852,-9.588824901219912,2.559527311605165,-0.1161029563034742,0.6550060346416089
0,2.5481637975731446,-4.9183001159048425,1.8008060153774847,6.764997056995311,0.660006080707582
0,1.9191067011399072,-4.137774641517051,-4.937914304785634,-0.41390256246833673,0.6650061267735481
0,0.7700510940369565,-0.6672484736424428,-1.3266336472462201,0.3071981856993176,0.6700061728395141
0,2.3309969750045414,6.36327839243965,5.434647989751292,9.358299301677729,0.6750062189054802
0,2.3419443426216855,-4.056194038524961,1.775930607980271,0.3194007853763699,0.6800062649714462
0,0.11289319529514026,2.944334238098692,1.4172142090224873,0.0005026363478146251,0.6850063110374123
0,1.0038435312744207,-6.835136773086679,2.7184987942228727,5.5616048538705725,0.6900063571033783
0,9.854795348649075,6.335392932602322,9.689784364670807,7.572707436975612,0.6950064031693444
0,15.285748645122322,10.41592335983324,8.89107092102207,12.733810384229585,0.7000064492353104
0,7.1667034175983355,10.326454512874596,7.342358463242009,3.8449136934508807,0.7050064953012765
0,6.09765966196179,0.5269863952470947,3.1336469905207127,7.006017361639083,0.7100065413672425
0,9.678617373198485,6.067519009752334,7.0749365013856895,9.887121385066079,0.7150065874332086
0,7.479576545521448,4.258052358683685,1.9362269938315786,6.5082257592973,0.7200066334991746
0,4.200537172390707,0.7685864439291668,3.9275184654045328,5.539330479148522,0.7250066795651406
0,9.521499246560177,5.34912126701888,3.24881091327204,11.310435538713568,0.7300067256311067
0,6.302462760118558,1.9196568291725853,3.2401043342681333,8.121540931338409,0.7350067716970798
0,12.623427704427522,10.400193131259666,13.001398724845268,12.942646649505129,0.7400068177630459
0,8.554394070005136,8.370730173640332,11.342694080846544,7.863752684727433,0.7450068638290119
0,1.915361846473309,7.08126795596808,6.303990397227012,5.914859027551157,0.750006909894978
0,0.13633102275023312,3.191806477134924,3.485287668018064,3.245965667707568,0.755006955960944
0,6.677301587353162,4.712345735399568,4.476585886551653,6.427072594323218,0.7600070020269101
0,6.56827352849531,11.622885728495179,5.627885045666663,4.828179796027037,0.7650070480928761
0,6.449246833930212,15.66342645348468,3.6191851377575657,13.569287260898331,0.7700070941588422
0,2.530221490836017,6.293967906451464,-0.4395138452050106,5.880394976298617,0.7750071402248082
0,4.191197485867204,3.8045100824188887,4.271788088440212,4.771502928765411,0.7800071862907743
0,4.272174805262144,3.8150529756121756,6.403090930104268,1.7726111041315178,0.7850072323567403
0,12.593153434822025,5.985596579739914,7.744394670828153,6.2637194877505635,0.7900072784227063
0,8.004133359722015,6.476140888054799,1.1956993011197272,0.48482806460389827,0.7950073244886724
0,4.415114564323278,1.8966858933055242,2.077004810983477,5.735936819324625,0.8000073705546384
0,2.1760970322415973,-2.802768412193012,1.1983111900924157,6.747045736184134,0.8050074166206045
0,-1.382919253382756,0.6477779636733179,-4.580381572032652,4.418154799003584,0.8100074626865776
0,2.2880656903731307,-6.821674986937068,-3.559073485840848,-0.43073600889045527,0.8150075087525437
0,4.969051846316502,3.5288727283113523,2.0622354384193424,1.950373295465782,0.8200075548185097
0,-4.929960802898072,-4.820578898053161,-4.64645480928723,-3.8085173051189347,0.8250076008844758
0,-12.658972274649516,-6.200029873312277,-9.415144238787711,-14.907407827741627,0.8300076469504418
0,-6.697982585921659,2.930519795516011,-1.6538328595273901,-4.396298289015485,0.8350076930164079
0,-7.506991752937493,-11.88892989826201,-5.122520680438067,-8.015188704771044,0.8400077390823739
0,-7.125999791109671,-7.948378960929546,-10.501207709942374,-9.954079090037341,0.84500778514834
0,-5.5850067151311515,-16.987827398072067,-12.039893955849804,-11.442969459041063,0.850007831214306
0,-8.61401253902046,-8.657275214246145,-9.27857942510072,-9.101859825088155,0.855007877280272
0,-9.423017276107553,-14.616722412822483,-9.357264123628191,-7.690750200507464,0.8600079233462381
0,-1.0220209389919617,-3.8061689960140974,-0.24594805643906037,-7.239640596725141,0.8650079694122041
0,3.4089764603206167,4.23438503488074,-0.3146312278898634,-0.2385310244163511,0.8700080154781702
0,1.0399749100517874,1.0849396790018333,0.736686357957302,1.0125785062499928,0.8750080615441362
0,8.240974398305607,5.475494935456703,5.858004697063665,0.8536879853066053,0.8800081076101023
0,7.8319749128261575,8.756050803046039,13.509323785145385,11.724797402707418,0.8850081536760683
0,12.692976440738432,9.216607280049308,7.940643617314073,11.995906747992706,0.8900081997420415
0,8.83397896831497,1.017164364055346,6.431964187804269,12.627016009880602,0.8950082458080075
0,7.8349824808571595,7.277722052001265,9.313285489986761,13.328125175968443,0.9000082918739736
0,2.215986962784572,7.198280340287549,11.814607516419898,13.60923423262432,0.9050083379399396
0,-0.24300760211315642,1.928839224780636,3.3659302588099145,12.560343164938416,0.9100083840059057
0,-6.952001230324966,-12.350601299070009,-6.822746291876049,2.061451956786718,0.9150084300718717
0,-5.630993938230645,-2.4600412357904484,-0.1114221449689724,4.642560591093169,0.9200084761378378
0,-6.409985741783744,-3.9494805894616336,-0.09009730970398311,-1.7263309497833592,0.9250085222038038
0,-0.14897665640728797,2.8010806362928147,4.221228204811672,-0.8952226837336599,0.9300085682697699
0,2.322033302880683,-0.4683575619358935,4.982554389384567,-2.444114628673722,0.9350086143357359
0,-7.3669558787554195,-13.037795187457633,-10.026118765389244,-7.3730068023702025,0.940008660401702
0,-8.165944215963428,-8.20723224324149,-12.67479126887831,-8.971899222232638,0.945008706467668
0,-13.034931722898904,-16.456668731486012,-12.543463129845813,-16.060791905019414,0.950008752533634
0,-9.823918412878406,-13.086104653289178,-14.992134355982541,-9.1396848665217,0.9550087985996001
0,-7.792904298210379,-0.15554000854900132,-9.740804953725869,-11.12857812138872,0.9600088446655661
0,-5.65188939025313,4.735025203740504,-7.769474928298224,-5.447471683187647,0.9650088907315393
0,-0.6408736996207351,11.06559098482656,1.871855716051252,0.5736344353730489,0.9700089367975053
0,-0.5898572364522717,7.33615733555349,4.8431869756123564,7.754740222045973,0.9750089828634714
0,0.27115998933563396,7.236724256023778,3.034518846719042,-0.7541543354175344,0.9800090289294374
0,1.8021779678788161,10.887291745531357,8.58585132540258,1.9969507504727886,0.9850090749954035
0,7.203196689234494,8.527859802542915,4.927184407215433,6.848055466953551,0.9900091210613695
0,2.1142161432022633,5.908428424662283,5.308518087140047,4.20915980096772,0.9950091671273356
0,9.415236319166368,8.448997608678093,7.01985235958053,12.300263738985592,1.0000092131933016
0,14.39625720592742,12.469567350607107,8.071187218354437,14.081367266760333,1.0050092592592677
0,11.297278791429171,13.350137645576092,14.862522656575516,18.892470368993262,1.0100093053252337
0,17.0283010624685,17.93070848758147,20.743858666372404,23.59357302894254,1.0150093513911997
0,0.9693240046013193,9.671279869280935,5.025195238555292,2.4946752281680915,1.0200093974571658
0,-6.959652397584143,-0.9281482179540193,-3.5434676373344782,-8.044223053187913,1.0250094435231318
0,-8.308628159797324,-4.047575783575754,-4.052129972425758,-10.483121835506193,1.0300094895890979
0,-12.257603297343467,-8.427002837196953,-9.310791777808468,-14.812021138731149,1.035009535655064
0,-12.42657782468618,-3.2464293880947483,-5.599453064110344,-13.440920981801986,1.040009581721037
0,-12.265551755220839,1.784144554934763,-6.948113841319098,-10.369821382421982,1.0450096277870031
0,-8.37452510118924,-2.1652810165866208,-0.34677411879495856,-3.7387223571030876,1.0500096738529692
0,-10.703497873737291,-7.1947061109750585,-13.345433905362473,-2.6876239214541573,1.0550097199189352
0,-12.942470082993815,-3.9141307362924085,-14.904093209214176,-10.016526090485163,1.0600097659849013
0,-14.10144173801555,-14.023554900115542,-12.03275203756739,-10.945428878645682,1.0650098120508673
0,-11.72041284666077,-15.742978609252551,-9.431410396417627,-14.264332299576884,1.0700098581168334
0,-10.619383415542014,-5.5324018694427615,-9.710068290589911,-9.643236365851552,1.0750099041827994
0,-8.068353450113278,-3.2518246853306403,-5.678725723907242,-12.772141088884402,1.0800099502487654
0,-2.877322954855662,7.758752939142099,0.4626173005987432,-7.911046478963575,1.0850099963147315
0,-3.9962919335317437,-0.18066899980487977,0.3239607803856539,-3.1799525453765742,1.0900100423806975
0,-5.635260389404645,-6.800090506076548,-6.764695286876165,-2.7288592966580056,1.0950100884466636
0,-6.354228325297881,-4.019511583549827,-3.6733509033164657,-3.847766740865917,1.1000101345126296
0,-6.983195743516928,1.6610677641902973,-0.04200607074069243,4.27332511423263,1.1050101805785957
0,-3.1021626457842975,-2.628352466150616,0.6393392093408555,4.294416260969635,1.1100102266445617
0,2.9388709666795334,3.362227722254325,-0.7493150644599009,0.5355066915220331,1.1150102727105349
0,-0.8100949070916439,0.9928083262245309,-1.897968893503725,-5.423403602151632,1.120010318776501
0,-3.4090602680113964,4.4233893424589805,-4.0866222790657885,-2.8823146280907372,1.125010364842467
0,-4.088025116909414,4.993970767416755,3.6047247777391114,-0.7112263941054525,1.130010410908433
0,1.6630105456013091,8.754552597175836,0.6860722759027698,-0.1101389077490878,1.135010456974399
0,1.6140467190944388,6.195134827266431,0.027420214382202837,-6.6290521764055805,1.140010503040365
0,0.6250834031589677,-7.564282547353796,-1.3212314079485945,-6.877966207216386,1.1450105491063312
0,-10.01387940264353,-2.8436995319952785,-6.919882592179463,-5.066881006874919,1.1500105951722972
0,-5.922841698544554,-3.2231161318077843,-5.558533339154656,-4.3557965815113455,1.1550106412382632
0,-1.0018034842843266,6.287467648348956,2.0828163506886206,-0.9847129367514842,1.1600106873042293
0,11.659235240807517,8.438051803644264,5.234166477210906,4.5663699221004554,1.1650107333701953
0,7.440274477311303,16.348636328809192,13.215517040164752,9.227451989745752,1.1700107794361614
0,14.311314225177776,18.59922121762069,15.906868038677615,11.748533260471277,1.1750108255021274
0,12.942354483376528,16.219806462463396,18.988219470750078,13.489613727755039,1.1800108715680935
0,4.013395249765379,6.920392054156208,12.419571332910971,7.690693384018077,1.1850109176340595
0,8.344436521185816,5.190977982172551,12.150923620148756,10.071772220597373,1.1900109637000327
0,3.065478293708622,3.351564235078325,7.172276326103425,4.632850227875952,1.1950110097659987
0,0.7365205628447598,3.4021508008799426,6.5736294433341085,2.0139273954728565,1.2000110558319648
0,4.897563323717328,5.6127376671760185,9.72498296355137,4.2250037124731055,1.2050111018979308
0,5.168606571146189,8.77332482113745,12.116336877662032,4.686079167581635,1.2100111479638969
0,-0.4703497003875694,2.493912249397855,8.667691175669637,10.377153749094285,1.215011194029863
0,-0.08930549670129778,2.104499938039877,8.48904584659346,15.438227444675023,1.220011240095829
0,-8.058260823701973,-6.394912127205143,-6.679599121383695,-2.360699758894582,1.225011286161795
0,-4.997215687086063,-3.5443239606198875,-3.33824374048998,-4.67962787559106,1.230011332227761
0,-0.8861700921237776,-0.7237355762288946,4.5231119770836195,1.7614430803595191,1.235011378293727
0,8.90487595626213,3.00685301221513,6.664468019228492,7.542513094777135,1.2400114243596931
0,8.525922453082563,-3.152558208943672,2.7658243736154318,5.033582153330285,1.2450114704256592
0,0.7369693928635082,-4.581969253326265,-3.122818972470454,-3.04534975870529,1.2500115164916252
0,2.7080167695733515,5.308619865572097,-2.4014620319394724,-2.074282656346935,1.2550115625575913
0,0.8990645768208444,3.4892091343304994,3.3698951823379546,4.286783445356702,1.2600116086235573
0,-1.839887191965342,-1.9602014606075686,-3.828747342417943,-5.862151468593018,1.2650116546895234
0,4.681161456556738,0.2003880670192293,0.15261038105953673,-3.061087413120843,1.2700117007554965
0,6.732210515601911,-0.5090222965749835,-1.5060316598857728,-3.1100244029363004,1.2750117468214626
0,6.253259978053619,-4.938432565115634,3.54532652217242,-6.6989624524030305,1.2800117928874286
0,1.3243098362838264,-7.637842752134487,-0.6633150853472828,-6.347901575458894,1.2850118389533947
0,5.025360082182243,-1.8672528707746798,0.2980435048945538,-3.6868417855279647,1.2900118850193607
0,3.096410707255086,-0.33666293372979406,2.9594022801595057,-0.9157830955209985,1.2950119310853268
0,1.1574617026725007,-4.696072953372299,-1.0192387723735152,-3.6947255179772824,1.3000119771512928
0,-11.321486940598714,-6.945482941813759,-8.24787966556251,-5.943669065145852,1.3050120232172588
0,-7.860435231415597,-4.884892910775692,-9.75652041204061,-7.00261374891034,1.310012069283225
0,-2.6193831780612697,-9.964302871429458,-5.365161023863983,-7.08155958062682,1.315012115349191
0,-1.9983307881885026,-7.033712834285755,-10.78380151232756,-5.420506571023848,1.320012161415157
0,-8.987278068989186,-12.343122809082276,-6.842441887938751,-5.009454730200962,1.325012207481123
0,-0.5062250272492358,-6.792532804686661,-5.911082160419656,-4.698404067695659,1.330012253547089
0,1.2248283306439205,-8.28194282906688,-2.4597223387856273,-0.9073545925665163,1.3350122996130551
0,0.905881998515517,1.768647110590583,-2.0083624315347084,-1.0563063135164272,1.3400123456790212
0,-0.41306402980609935,2.9592370075813523,-2.347002446823733,0.4947407609524206,1.3450123917449943
0,-2.9220097605234967,-3.3401731446713545,-5.535642392550992,-4.214213377561004,1.3500124378109604
0,6.749044800176266,-1.4495833527555944,0.6157177236662603,-1.8631687373287937,1.3550124838769264
0,7.670099646005696,-8.438993623133655,-3.81292210550859,0.1678746735699228,1.3600125299428925
0,8.541154770265354,2.321596038040172,-3.111561887175386,2.368916847203417,1.3650125760088585
0,0.2422101656212066,-0.4178143750788069,-5.7102016281635315,-3.650042224329497,1.3700126220748245
0,2.1732658241770384,5.412775131771717,-4.278841334935239,-5.1990025488883065,1.3750126681407906
0,-4.095678262250938,2.483364552717519,-5.2974810135105805,-10.457964134067938,1.3800127142067566
0,-6.314622101848574,2.6739538816054704,1.1538793305300716,-9.926926986884475,1.3850127602727227
0,-11.063565702483343,-5.075456887972287,-11.014760308025622,-13.295891113500435,1.3900128063386887
0,-10.762509071372724,-8.324867762439032,-6.93339993396382,-9.794856519045164,1.3950128524046548
0,-2.7814522148699656,-0.3042787479094031,-6.862039551455078,-5.443823207585809,1.4000128984706208
0,-1.330395138552781,0.8663101499158337,-3.4906791639672705,-3.852791182290418,1.4050129445365869
0,-0.7393378475316184,1.8068989255487178,-2.0993187743833657,-0.28176044571557785,1.410012990602553
0,0.5517196532807834,-5.5625124264828365,-7.8179583851499626,-3.2807310000562406,1.415013036668519
0,0.7327773590308275,-1.991923911588134,-4.096597998296758,-5.669702847255817,1.4200130827344921
0,4.333835264824316,-0.6613355349702664,-0.36523761539257643,2.9813240110122523,1.4250131288004582
0,6.634893365586768,6.279252698342989,2.5061227623412337,2.7923495732734263,1.4300131748664242
0,9.135951655847771,10.399840783214014,11.707483133709355,10.243373837972365,1.4350132209323903
0,7.907010129512251,12.89042871397238,18.068843497066023,12.82439680308481,1.4400132669983563
0,8.738068779717851,10.901016484038696,6.870203849795108,11.685418465744409,1.4450133130643223
0,5.719127598804455,2.8916040857876,6.95156418811199,15.116438821972231,1.4500133591302884
0,9.680186578345396,11.712191510677165,5.972924507263816,11.71745786654928,1.4550134051962544
0,10.25124570914553,10.462778749366771,7.724284801774164,11.348475592986055,1.4600134512622205
0,9.802304981155727,11.123365791628578,10.295645065486092,10.879491993584645,1.4650134973281865
0,4.023364383416291,2.1839526262656985,2.4570052915067184,6.660507059549148,1.4700135433941526
0,5.644423904171773,-0.4954607587014994,6.0483654722472515,5.041520781144916,1.4750135894601186
0,-0.29451646891983596,-8.924874375600085,-2.780274400400965,-8.027466852014447,1.4800136355260847
0,-6.393456748517398,-4.284288236617298,-0.25891433481880144,-4.096455850504702,1.4850136815920507
0,-2.4423969472589375,-2.2237023534972327,-2.507554339427096,-2.6354462246588257,1.4900137276580168
0,-5.821337077483772,0.07688326244643945,-4.866194422516133,-5.174437984397675,1.49501377372399
0,-9.690277151081899,-3.692531399839374,-3.3548345921208553,-3.8734311392487037,1.500013819789956
0,-1.2792171793897402,-0.24194635123897335,-6.4434748559175,-1.262425698359454,1.505013865855922
0,-8.568157173148316,-18.461361602371277,-15.282115221073829,-5.2814216705303245,1.510013911921888
0,-11.467097142503729,-12.950777163230196,-12.150755693964607,-10.530419064196952,1.515013957987854
0,-11.006037096850843,-4.590193042761856,-7.759396279888053,-7.0594178872490865,1.5200140040538201
0,-7.174977044639408,-6.339609248838249,-7.408036983050812,-8.088418146833376,1.5250140501197862
0,-0.16391699340798865,-5.369025788549264,-4.54667780678076,-4.007419849329012,1.5300140961857522
0,3.2671430498866436,2.2015573315547083,6.604681246199647,0.36357699951084993,1.5350141422517183
0,3.3082030784377183,3.702140105225876,2.0760401733883787,-0.8554276056833108,1.5400141883176843
0,6.509263085245882,8.65272252616307,10.747398972079276,2.7455663298578705,1.5450142343836504
0,1.370323062943327,11.883304587624847,8.558757639046936,-0.013441199119536354,1.5500142804496164
0,12.691383003717482,11.563886282090593,8.160116170322258,6.797549802010765,1.5550143265155825
0,13.41244289913369,6.184467601053572,9.151474561094522,2.928539327628237,1.5600143725815485
0,9.943502739834502,6.095048535054637,10.272832805698373,9.429527371720981,1.5650144186475146
0,9.534562515353997,6.875629073864235,11.644190897558657,16.600513927672843,1.5700144647134877
0,7.015622214185464,5.446209206609119,7.745548829123303,6.111498987969442,1.5750145107794538
0,8.136681823928363,3.2467889218260755,4.406906591894186,0.6224825440905953,1.5800145568454198
0,7.467741331390673,1.2973682075617488,2.748264176620151,-3.9865354131617616,1.5850146029113859
0,4.468800722645724,2.1379470515241947,-0.8603784264336076,2.3344451068266787,1.590014648977352
0,-3.2301400168378165,-2.1214745587762183,-0.14902122723395306,-3.2945759052753023,1.595014695043318
0,-10.559080901842197,-3.5708966358862186,-1.7476642357957726,-3.9335984586841057,1.600014741109284
0,-5.708021946893837,1.0996808077462086,-2.1063074620692346,-4.752622562406309,1.60501478717525
0,-10.696963165877378,-9.759742240125815,-9.984950915819327,-8.51164822506936,1.610014833241216
0,-8.415904571880452,-6.739165791410232,-8.483594606395735,-12.240675454730786,1.6150148793071821
0,-9.694846177135066,-14.588589857410959,-12.452238542439808,-10.249704258635784,1.6200149253731482
0,-7.963787992982848,-6.838014448557659,-11.110882731654975,-8.25873464304656,1.6250149714391142
0,-10.132730029887027,-6.0774395743204614,-7.219527180709937,-9.827766613240973,1.6300150175050803
0,-5.841672297450287,0.893134756619554,-4.158171895308875,-6.276800173592715,1.6350150635710463
0,-6.760614804468462,-3.4762914639422045,-6.17681688040865,-8.415835327649855,1.6400151096370124
0,-8.629557559012675,-3.4457182439472422,-4.085462140394838,-1.344872078226342,1.6450151557029784
0,-6.498500568451699,0.3248544088862251,-5.234107679151911,-3.243910427565586,1.6500152017689516
0,-8.987443839426497,-6.75457351292094,-6.53275350007087,-8.712950377485454,1.6550152478349176
0,-6.116387377833851,-1.6440020165797187,-6.481399606015403,-0.37199192938797637,1.6600152939008836
0,-10.765331188817193,-3.6534311089805342,-5.210045999270365,-2.8510350842424077,1.6650153399668497
0,-2.164275276761655,-0.6528607966969864,0.71130731843016,-0.23007984270178788,1.6700153860328157
0,-2.933219645385119,-0.35229108607020654,-4.5473396542488675,5.260873794719552,1.6750154320987818
0,-0.9221642979503637,2.818278016672144,-1.4359869183826228,3.3018258274413963,1.6800154781647478
0,-6.901109237430705,-4.251153494688411,-1.734634474822459,-6.757223745326903,1.6850155242307139
0,4.0699455334624135,2.799414373625307,-1.7132823242054744,2.013725075530191,1.69001557029668
0,-0.6589999877836114,0.8199816154054231,0.9280695329923065,-1.4953277107778546,1.695015616362646
0,-1.0279458036365452,0.2905482244076394,2.6494210963688523,-5.924382104899087,1.700015662428612
0,-0.7668919165653715,1.541114194298495,-2.279227634507921,-9.003438107233743,1.705015708494578
0,-4.965838328963345,6.3016795186210945,0.882123339868347,-7.402495717679571,1.710015754560544
0,0.7652149569510694,-1.7077558092932696,2.133474018985295,-2.2615549354557913,1.7150158006265102
0,-8.28373206080295,-5.397191796307898,-2.025175597704013,-3.5806157591812386,1.7200158466924762
0,-11.682679383836097,-9.266628449198803,-9.553825510723069,-14.729678186977582,1.7250158927584494
0,-8.421627013108322,-8.386065774264926,-8.262475720296953,-4.658742216349944,1.7300159388244154
0,-8.190574948701578,-11.905503777048448,-9.501126226005114,-5.347807844019345,1.7350159848903814
0,-5.629523189820599,-2.8449424622191217,-5.029777026620414,-2.1868750660104346,1.7400160309563475
0,-1.168471734950437,2.365618166304067,3.991571879790931,1.974056122089936,1.7450160770223135
0,2.862579417890515,10.716178104922829,4.792920495501939,1.1249857248791915,1.7500161230882796
0,2.443630270827547,3.886737349811362,-1.215731177290545,4.135913746917323,1.7550161691542456
0,4.704680825858896,0.9672958966100794,4.695616863371373,8.816840192530709,1.7600162152202117
0,3.5657310846929193,-3.432146259459576,5.896964619195033,2.677765065627771,1.7650162612861777
0,4.116781048677694,3.418410876690498,9.458312091520227,6.388688369581115,1.7700163073521438
0,7.787830718754019,7.448967300099058,13.689659281047897,4.669610107241648,1.7750163534181098
0,9.00888009535169,-1.7304769944142269,6.15100618759151,4.830530280966515,1.7800163994840759
0,2.049929178262881,-0.049922012321031245,5.662352810013505,-0.8685511073446102,1.785016445550042
0,5.110977966654289,1.9906322407564905,1.9836991464097615,5.482365943870125,1.790016491616008
0,7.492026459182237,-0.5588142408493525,2.7250451943737777,1.3432814359129137,1.795016537681974
0,10.223074653965842,0.031738537145106605,5.24639095115084,5.584195369813567,1.8000165837479472
0,3.104122548445481,-2.8977094309863705,2.6877364136605744,-3.7648922536895153,1.8050166298139132
0,2.175170139386493,-2.1671581508870608,6.899081578444864,-2.633981434021679,1.8100166758798792
0,-3.1637825768878165,-1.9566076280263789,2.250426441621244,-4.243072170521328,1.8150167219458453
0,-1.8527356041843572,-4.026057867651331,3.7617709988812127,-1.6321644622641474,1.8200167680118113
0,1.3183110537732847,-6.465508874731121,-4.816884754414723,-1.631258308030697,1.8250168140777774
0,-4.860642606611967,-2.274960653854799,-6.755540822979057,-5.150353706352927,1.8300168601437434
0,-9.47959658874283,-3.3044132091897644,-7.63419721124452,-4.409450655485552,1.8350169062097095
0,-9.518550895577699,1.3061334554340638,-2.002853923105929,-4.268549153311868,1.8400169522756755
0,-7.72750552933928,-1.553320663621082,-4.9015109619023844,-2.307649197299864,1.8450169983416416
0,-12.506460491377602,-9.80277556984713,-14.280168330471634,-8.716750784514868,1.8500170444076076
0,-13.955415782081502,-7.772231266405973,-13.368826030944323,-12.645853911517058,1.8550170904735737
0,-15.27437140070467,-15.391687755788569,-15.087484064381652,-10.85495857409197,1.8600171365395397
0,-6.963327345223179,-10.101145039517244,-6.316142430573499,-2.9540647670550153,1.8650171826055058
0,-8.85228361241869,-4.040603118032483,-9.60480112813305,-10.223172484329808,1.8700172286714718
0,-4.411240198115878,-2.4900619908701094,-10.983460154693649,-5.092281719110265,1.875017274737445
0,-7.480197097402213,-5.509521656984674,-1.7821195070144162,-0.4213924639524186,1.880017320803411
0,-3.5491543047433476,-6.398982114906567,-4.380779181108705,3.529495289028203,1.885017366869377
0,3.8018881858954234,0.3215566372738825,-2.219439172480519,6.130381547796593,1.890017412935343
0,-4.117069619181632,-5.25790539812615,-0.568099476305667,-4.578733679892414,1.8950174590013091
0,-0.2660277135752329,-4.657368218454838,3.1032399124330676,2.7821496135020856,1.9000175050672752
0,6.875013909159198,-4.296831820699014,4.904578998750412,4.763031435422467,1.9050175511332412
0,4.856055255353981,6.163703798519036,4.855917787424608,4.943911793136907,1.9100175971992073
0,2.707096330987975,3.6042386427067696,1.1372562828592034,4.844790693549635,1.9150176432651733
0,9.79813714157237,8.204772715141653,8.98859448905676,10.635668143069315,1.9200176893311394
0,3.049177692100936,6.3953060186076325,7.889932409566105,2.0165441475069596,1.9250177353971054
0,7.050217986996542,10.015838555246134,11.281270047288572,2.377418712072125,1.9300177814630715
0,4.631258030117471,11.866370326427605,4.962607404306252,2.7382918415379938,1.9350178275290375
0,4.062297824790924,-0.033098667338638796,5.9239444818856635,0.8891635404069544,1.9400178735950036
0,0.7433373738836111,-3.3625684262371656,5.375281280612908,-1.9599661870005114,1.9450179196609696
0,5.584376679904531,-2.692038950704451,3.5466178005134172,0.2909026635680325,1.9500179657269427
0,0.2654157450702276,2.0684897589290987,3.447954041137705,-0.7782299036031122,1.9550180117929088
0,7.016454571301839,4.229017702435731,3.0192900016354476,1.90263611581052,1.9600180578588748
0,7.807493160152474,5.759544879461624,8.660625680784024,-0.826499273877328,1.9650181039248409
0,8.318531512637211,5.740071289288122,1.9219610769255413,1.14436393161021,1.970018149990807
0,12.299569629036059,10.360596930668166,5.873296187904777,10.455225736446291,1.975018196056773
0,14.74060750870334,5.811121801691107,5.284631011095181,2.946086144498404,1.980018242122739
0,6.8816451498927735,3.371645899731481,1.3259655434177449,-0.7830548408385714,1.985018288188705
0,4.722682549773358,5.772169221546449,3.2672997813928797,1.1878027834741247,1.9900183342546711
0,4.213719704687058,8.212691763375469,-0.7713662787445104,3.1086590203205486,1.9950183803206372
0,3.2247566104260814,7.783213520881856,5.709967359038813,2.159513872452426,2.000018426386603
0,6.84579326234939,1.9137344890668055,4.551300690550008,9.350367342375222,2.0050184724525693
0,4.136829655375882,4.44425466233786,2.7926337112588344,3.601219432182391,2.0100185185185353
0,1.91786578395801,-5.045225965283443,1.2639664162601951,2.692070143450898,2.0150185645845013
0,-0.18109835783620343,0.3952926000878362,-3.1147011996131098,2.232919477306528,2.0200186106504674
0,5.619937223820797,3.6958103523693513,2.6266308583911515,5.863767434541033,2.0250186567164334
0,6.910972522511217,3.0863272854511696,1.2579625850210001,8.854614015580522,2.0300187027824066
0,-5.527992468528931,-3.2131566069466344,-9.700706024977329,-0.12454077964828388,2.0350187488483726
0,-5.536957756284095,-6.43264133119057,-7.509374976665121,3.0463030482852687,2.0400187949143387
0,-6.415923347566697,-2.5621268934562846,-2.458044274598962,2.107145498479023,2.0450188409803047
0,-1.3248892487277317,-3.881613299538511,-2.806713922755256,5.907986569780697,2.0500188870462708
0,9.26614453425801,4.648899445103831,3.044616075271688,6.598826260704105,2.055018933112237
0,3.6971779954084893,10.339411335079678,10.045945715959217,6.359664569277696,2.060018979178203
0,-0.9917888716113462,4.859922364656263,2.5772749954966336,4.680501492948513,2.065019025244169
0,-0.09075607346332354,-0.9195674724793681,2.9286039095706906,7.27133702857688,2.070019071310135
0,0.010276383082050866,3.9509418169011212,6.919932453393979,7.692171172432845,2.075019117376101
0,2.9013084912412435,3.651450225759623,4.7012606217545585,2.19300392016699,2.080019163442067
0,4.392340244141618,3.2119577467978546,0.16258840898179522,3.383835266871003,2.085019209508033
0,-0.4666283652992672,2.572464372399919,1.0939158090385395,-4.435334792733473,2.090019255573999
0,2.4844026556000567,8.62297009460468,7.2652428156541795,3.145493735944035,2.095019301639965
0,0.7254332993512296,2.6434749050298536,0.18656942230674117,-0.803679152514249,2.1000193477059312
0,1.6164635583292033,1.373978794823832,-0.22210437782198067,1.7071465364560092,2.1050193937719044
0,-6.782506575171076,-11.475518245151369,-7.350778591689747,-6.702029202600369,2.1100194398378704
0,-17.371477108676782,-9.455016223862712,-8.749453226062471,-13.061206374959994,2.1150194859038365
0,-12.970448049009745,-16.78451514957656,-11.538128287152054,-9.330384985314756,2.1200195319698025
0,-9.99941940182226,-10.074015029471202,-11.356803780318396,-10.529565037435832,2.1250195780357686
0,-6.378391171550032,-4.643515869539232,-10.935479709898308,-7.948746534089772,2.1300196241017346
0,-8.57736336163028,-2.05301767481317,-5.73415607918044,-4.427929477132399,2.1350196701677007
0,-3.506335974718388,-1.6225204497480086,-5.952832890529826,-5.327113867673116,2.1400197162336667
0,-3.855309012828469,2.3379758014751433,-2.211510145608519,-1.246299706267702,2.1450197622996328
0,0.6157175224889793,0.5884710747527346,-1.8501878455898286,-4.055486993063976,2.150019808365599
0,1.0467436299427977,3.3989653659124497,3.791134008635388,1.9753242720793338,2.155019854431565
0,1.3877693082991027,-4.200541329343141,0.3124554162401525,-3.3338659105149704,2.160019900497531
0,2.0087945562476217,-7.9100490153141605,-0.3662236236882582,-0.35305754040521553,2.165019946563497
0,-5.47018062761604,-9.859557695981174,-9.814903112086292,-9.932250616983078,2.170019992629463
0,-4.81915624464661,5.590932625252091,-0.14358304966783156,-0.7214451393119873,2.175020038695429
0,-2.5981322959257116,1.551421945414477,-5.9822634367403635,-5.620641106009588,2.180020084761402
0,-2.4371087821565687,3.9819102615578417,-7.000944273178693,1.0801614847028884,2.1850201308273682
0,0.2339142962572049,-1.657602429487148,-1.2896255583950864,-1.4090373651260626,2.1900201768933343
0,-1.4150630608994483,-5.597116131032114,-2.728307291353732,-4.228237653288779,2.1950202229593003
0,-11.29404085367564,-4.766630846268947,-5.486989470663516,-6.047439377376927,2.2000202690252664
0,3.0769809181999035,-5.686146578018191,-3.625672094603614,-0.6566425346486258,2.2050203150912324
0,-0.25199774463126795,-1.7856633286307266,-1.214355161084319,-5.625847121981503,2.2100203611571985
0,-2.1809768413348625,-1.305181100048244,-1.633038667692223,-0.5750531359131072,2.2150204072231645
0,0.30004362897416254,-4.394699893921299,-1.7317226117986952,-6.334260572671302,2.2200204532891306
0,-7.888936332707416,-3.404219711646462,-0.03040699062073532,-7.863469428119921,2.2250204993550966
0,-4.237916725124458,-4.53374055430738,-6.13909180122777,-11.942679697578546,2.2300205454210626
0,-2.5068975466068837,-3.233262422617156,-3.55777704046378,-7.721891375584359,2.2350205914870287
0,1.934121204908887,2.427214683049486,3.9435372951260153,4.028895544156671,2.2400206375529947
0,1.6951395316713276,-1.9023092374800588,2.8448512091607,1.9296810684478594,2.245020683618961
0,-1.5638425640865798,0.4081658156826835,-1.2338352948211726,-5.2795347958081695,2.250020729684927
0,-2.232825080172785,-3.0513601575348095,0.0974777865694415,-9.388752041645015,2.2550207757509
0,-3.5318080143161894,1.879112842874495,-6.3012095432896045,-2.8779706617281544,2.260020821816866
0,-3.310791364030443,-4.720415182986566,-5.499897280824583,-4.397190648167641,2.265020867882832
0,1.1902248734378147,-8.3599442348456,-3.278585422073406,-6.36641199255999,2.270020913948798
0,1.6812407010227113,2.2505256879042292,-0.777273962635242,-3.975634686036148,2.275020960014764
0,0.592256121671955,-0.32900541377352244,5.264037102169875,-1.3548587192628503,2.28002100608073
0,0.24327113824873037,-2.948537538739768,0.1653477770343726,-4.664084082520372,2.2850210521466963
0,6.79428575349686,-5.308070685742575,-0.7633419335023252,-3.2533107657704226,2.2900210982126623
0,7.0552999699208625,1.3523951466924178,3.1279679749691964,4.12746124130875,2.2950211442786284
0,8.906313789539483,4.392859960247779,6.529277506734368,2.8382319491593893,2.3000211903445944
0,3.3873272137100088,7.563323756550959,5.830586665787085,2.8090013680958,2.3050212364105604
0,3.7183402431464523,6.173786536846569,8.891895455616869,8.18976950812991,2.3100212824765265
0,6.619352878047978,4.134248301812295,9.113203879048255,6.600536378836025,2.3150213285424925
0,7.8603651181316145,10.004709051527152,9.40451193811981,9.311301989187113,2.3200213746084586
0,14.49137696248307,21.74516878534802,16.805819633956332,15.192066347378724,2.3250214206744246
0,8.76238840930947,-1.6443724983922718,7.067126966607644,6.812829460644553,2.330021466740398
0,3.963399455821284,-3.0539148023660734,-0.7715660649395732,4.14359133520455,2.335021512806364
0,2.8644100983919403,-0.10345812969993504,9.179740537537477,6.014351976466923,2.34002155887233
0,-2.954579667102304,1.9769975164888436,-0.02895322820697209,9.145111389227118,2.345021604938296
0,-3.1835698449481535,-1.7625478668666903,-0.8876473647722214,2.1258695776832433,2.350021651004262
0,-3.802560439318037,1.7379057171484769,-3.346341874933353,-0.12337345452375115,2.355021697070228
0,-5.20155145408831,-3.011641734558125,-1.9150367613953942,-1.822617704076187,2.360021743136194
0,-9.450542892717868,-5.29119022500609,-7.193732026628946,-1.7218631677045264,2.36502178920216
0,-10.899534758066443,-2.050739756994974,-5.912427672735485,-3.5311098420166163,2.370021835268126
0,-6.838527052192899,-4.680290332990525,-2.9911237013260914,-3.2003577234103644,2.375021881334092
0,-5.637519776293413,-2.6898419551053965,1.7401798864535643,1.4503931919702322,2.3800219274000582
0,-8.63651293080274,1.2006053748589849,-5.158516910254695,-0.5688570918394746,2.3850219734660243
0,-7.9055065154579225,-2.558948344687698,-7.577214092093022,-6.248108570704245,2.3900220195319903
0,-6.664500529268338,-7.378503115178814,-3.1559116593355854,-2.2273612403186793,2.3950220655979564
0,-9.713494970488862,-3.088058937768306,-10.28460961172592,-9.856615096029175,2.4000221116639224
0,-5.542489836615504,-3.5976158131885128,-1.3933079484164828,1.4041298672845044,2.4050221577298885
0,-15.121485124351878,-12.227173741701671,-4.462006667999989,7.774873655115444,2.4100222037958616
0,-8.600480829501755,-4.986732722990462,-10.470705768576787,-5.494383726998516,2.4150222498618277
0,1.7605230530757114,5.0837072439062805,0.040594752268030276,0.2263577263559854,2.4200222959277937
0,11.751526529125037,0.6741461603238692,4.591894897418697,8.32709802053823,2.4250223419937598
0,8.002529604290746,7.364584027545177,11.583194669859251,7.5778371607370465,2.430022388059726
0,17.34353228349865,9.775020846497524,11.58449407211456,10.458575151616648,2.435022434125692
0,10.884534570597628,8.085456617504168,10.765793105827777,7.449311997059336,2.440022480191658
0,5.1255364682369775,7.485891340105281,4.997091771616158,0.6300477001475911,2.445022526257624
0,6.6765379780361425,3.0563250130618114,2.7283900692125953,-2.729217736611034,2.45002257232359
0,5.197539100858631,7.3767576344860535,12.029687997694683,4.011515689066782,2.455022618389556
0,3.6985398369864164,0.5671892019633196,3.4209855555402315,0.08224797940527895,2.460022664455522
0,9.279540186170083,3.1776197126570533,6.102282740569591,0.46297913653974687,2.465022710521488
0,4.970540147601844,7.138049163390079,5.873579549984243,-1.6662908374807437,2.470022756587454
0,6.501539719852404,3.6584775506147396,5.984875980427435,1.7644380593806888,2.4750228026534202
0,9.252538900848794,6.728904870311847,7.326172027967057,5.455165829133451,2.4800228487193863
0,3.623537687854737,4.7293311179426105,6.087467688056462,0.10589247362643905,2.4850228947853594
0,-1.795463922470448,0.4097562884725237,1.0887629555468314,1.2666179944660956,2.4900229408513255
0,1.9755340661683798,-0.3198196235004614,6.1700578247865305,2.257342393067073,2.4950229869172915
0,-0.09346835006170628,3.3106033764383156,5.9513522897058575,1.4080656706983894,2.5000230329832576
0,0.44752882495709373,2.5210252825806503,4.052646343776015,-2.24121217150545,2.5050230790492236
0,3.1785255872771545,0.8714460890364073,-1.4760600199963627,-0.670491132465592,2.5100231251151897
0,4.039521932823089,-6.188134210239994,-3.004766808880431,-4.299771211025525,2.5150231711811557
0,4.350517857267881,-1.7977156212444285,2.1865259698336468,2.170947594130899,2.5200232172471217
0,3.371513355931993,-6.947298149698505,-6.652181691036175,-6.0383347155083325,2.525023263313088
0,-4.9074915761944045,-7.646881800896445,1.2091102014855237,-1.6976181382673452,2.530023309379054
0,-3.4364969442338937,-0.43646657960860735,-1.2495983594406024,-2.3069026722218506,2.53502335544502
0,-3.755502753133008,-7.346052490089973,-4.698307380489722,-6.826188315154155,2.540023401510986
0,2.655490992464032,-9.225639536117024,-13.037016868087717,-9.475475064459612,2.545023447576952
0,-1.2435157118960358,-10.245227720852387,-10.025726828084974,-9.554762916929112,2.550023493642918
0,-2.6325228706038586,-3.1148170466723872,-7.4244372654456,-7.284051868550008,2.555023539708884
0,-4.841530487950951,-1.654407515224337,-2.533148184225723,-5.113341914480438,2.5600235857748572
0,1.38946143198767,-4.883999127665342,-1.8918595878122317,-2.36263304918217,2.5650236318408233
0,-1.0495471146401658,-2.4835918848194067,-0.690571479207732,-0.5119252666348856,2.5700236779067893
0,-2.5685561315615812,-0.24318578721211603,-0.08928386122282675,8.54878143939808,2.5750237239727554
0,1.5824343775809984,7.08721916481418,3.7520032633997706,7.289487075007694,2.5800237700387214
0,-1.5865755907696417,5.737622970809008,-1.7567101081324443,1.9401916458100703,2.5850238161046875
0,-2.185586040110966,-0.19197437005511786,-5.095423978669106,-2.379104843082353,2.5900238621706535
0,-1.3845969738417874,-8.80157285892806,-6.454138350922516,1.1115976131935452,2.5950239082366195
0,-1.933608395207499,-6.021172496884201,-1.4228532272350631,2.912299019450459,2.6000239543025856
0,0.37737969270601873,-1.1507732845534655,-1.2115686095334988,-3.3270006195425776,2.6050240003685516
0,-0.0016327130801115919,-2.7003752220855213,-7.480284499431734,-0.8163012990511342,2.6100240464345177
0,-5.770645615467039,-4.949978309291683,-3.2690008982223384,1.8443969857132605,2.6150240925004837
0,-2.099659017200537,-10.009582545638741,-8.297717806756308,1.2650942395788303,2.62002413856645
0,-5.248672920734503,-9.039187930041363,-6.486435225334567,-6.184209532646087,2.625024184632416
0,2.9923126718050916,-4.668794460662728,-0.4351531536682066,3.4464856738893586,2.630024230698382
0,5.933297758459573,2.2715978650379873,5.726128408964874,5.767179864100701,2.635024276764355
0,-0.9757176628357025,-2.9380109499844056,-2.2925905366134582,2.337873042767877,2.640024322830321
0,-7.92473359433222,-12.94762090253868,-4.031309989660091,1.9785652143424746,2.645024368896287
0,5.426249961753096,-1.6672319890282918,1.8499700506014243,0.8692563829782227,2.650024414962253
0,3.46723300332504,0.9431557947095777,-2.678750414912615,7.6599465525930235,2.655024461028219
0,3.1282155281873196,-0.9864575467860688,3.762528614801823,6.500635726787545,2.6600245070941853
0,1.1091975338496307,-0.8760720088610767,2.8838071407149295,-0.05867609130806939,2.6650245531601513
0,3.6201790175407558,8.54431241313112,2.125085163632066,5.462011100972574,2.6700245992261173
0,11.68115997619335,8.694695723625784,9.766362684065154,8.682697305909777,2.6750246452920834
0,8.812140406221307,7.385077926517312,7.157639702075896,0.7333825253273896,2.6800246913580494
0,13.813120303220703,5.915459024963844,12.748916217047217,6.6940667605436985,2.6850247374240155
0,12.774099661744138,10.04583902138413,16.230192227439318,4.94475001241106,2.6900247834899815
0,8.585078475189226,8.746217917451379,6.401467730580013,0.20543228134476405,2.6950248295559476
0,1.2860567358832413,8.50659571401729,6.592742722654196,-3.7538864325696664,2.7000248756219136
0,8.997034435355074,11.05697241105855,5.884017198942682,1.4967938706663673,2.7050249216878797
0,0.9680115645773069,4.387348007671988,0.6152911540847179,4.79747319108813,2.710024967753853
0,-0.2210118859129202,1.5677225021729475,2.276564582275898,-1.341848471341205,2.715025013819819
0,2.889964074148144,1.0880958923509814,0.8478374774455639,0.09882888318276595,2.720025059885785
0,1.3409394348725092,0.9384681757317853,-2.470890166616414,-3.1404947455941827,2.725025105951751
0,-5.058085813732322,-4.921160650256721,-5.399618356117719,-1.1098193578435678,2.730025152017717
0,-0.06711168165611692,-2.640790588119926,-1.6683470970685834,-2.709144953573256,2.735025198083683
0,-2.166138178736468,-3.520421640128023,-7.807076395139475,-2.298471532595472,2.740025244149649
0,-4.215165314618436,-7.4600538082096035,-5.225806255569987,-5.537799094485211,2.745025290215615
0,-6.124193098692328,-0.5596870938849241,-4.144536683088838,-2.5271276385137886,2.750025336281581
0,-8.413221539942642,-4.829321498256828,-6.553267681894717,-3.5864571635910547,2.7550253823475472
0,-11.782250646737793,-11.68895702201635,-13.071999255618593,-9.175787668245691,2.7600254284135133
0,-14.241280426590045,-10.548593665269594,-8.530731407149313,-5.345119150520854,2.7650254744794793
0,-13.120310885913018,-8.768231427264581,-5.139464138474918,-3.924451607871475,2.7700255205454454
0,-8.189342029891044,2.4321296936488292,-0.8681974507839766,-1.2537850372050459,2.7750255666114114
0,-8.938373862559132,-2.707510300274613,-4.5069313447404165,-5.243119435039142,2.7800256126773775
0,-3.427406387005505,-2.5871514065076706,-2.505665820673753,-6.04245479755372,2.7850256587433435
0,-8.496439605580091,-1.6567936223587603,-2.3744008786218322,2.568208879451409,2.7900257048093167
0,-10.985473519964808,-2.7564369449326116,-4.103136518333711,-0.581128399530336,2.7950257508752827
0,-13.904508131042293,-0.06608137112657261,-7.501872739236697,1.6195333700878598,2.8000257969412488
0,-11.243543438657372,-5.605726897645475,-7.500609540306735,-0.14980580715265374,2.805025843007215
0,-5.512579441521282,-5.285373520946104,-1.3193469199407766,0.42085407323089796,2.810025889073181
0,-1.201616137388062,-4.945021237102876,-2.228084876009937,5.201513015648971,2.815025935139147
0,-4.480653523394571,-4.244670041713931,3.703176593925436,5.022171024331692,2.820025981205113
0,2.0903084036650905,1.5356800700595483,5.124437492340995,5.902828103154242,2.825026027271079
0,-0.6487303528232327,1.4760291033179793,1.6256978215052034,1.0534842555264223,2.830026073337045
0,2.0222302105689547,-4.073622936771937,-0.013042416616725325,3.8241394844412877,2.835026119403011
0,3.553190097199424,8.106723954940984,8.548216779682644,6.604793792544909,2.840026165468977
0,4.704149310241178,6.73706978347284,5.409475411797414,2.815447182103979,2.845026211534943
0,0.6351078525722887,6.69741455342897,2.5407334806544983,1.9260996549646054,2.850026257600909
0,6.136065726747802,9.017758268777976,9.711990986653593,6.996751212596494,2.8550263036668753
0,6.377022934976222,4.978100932780401,1.9732479296684688,8.627401856065772,2.8600263497328413
0,4.837979479011457,15.33844254794877,10.574504309012207,15.828051585815015,2.8650263957988145
0,9.378935360046977,11.108783115912633,6.925760123374454,6.038700401366094,2.8700264418647805
0,16.769890578575644,14.809122637203656,10.347015370717532,6.499348301222218,2.8750264879307466
0,7.670845134137856,13.789461111100133,5.1382700482006,-0.7000047169245079,2.8800265339967126
0,-0.10820097478546617,-1.1102014643545108,-0.00047584775593703665,-4.969358655815615,2.8850265800626786
0,6.42275224950834,4.0301349079547055,8.160777678739787,1.5012864817496334,2.8900266261286447
0,1.3537048042686413,0.7404702246536861,2.2220306231761118,-2.078069306893576,2.8950266721946107
0,1.1446566864276368,-4.279195517826873,-2.5167170193250086,-5.86742602425334,2.900026718260577
0,4.145607892659881,5.031137676898333,2.694534746124157,2.483216327362259,2.905026764326543
0,-1.7834415805653845,0.171469805204996,2.2557859143189205,1.6738577458262327,2.910026810392509
0,5.487508263044959,1.5818008633707334,5.667036479914693,6.404498228999021,2.915026856458475
0,3.848457419583178,0.0021308475319318093,2.7082864372787845,3.0351377744803276,2.920026902524441
0,4.74940588483713,1.6624597537224808,4.9395357804062066,-2.6042236204773106,2.925026948590407
0,2.6503536541982555,0.5727875778924043,0.22078450291736842,-3.6635859588139996,2.930026994656373
0,3.5913007226736275,10.123114315845687,6.882032598106521,5.087050756571494,2.935027040722339
0,-1.0577529150494427,-2.676560036904947,-1.0767199410390864,5.807686522799246,2.9400270867883123
0,-2.27680726446612,-9.906235485115618,1.4945268781974603,-1.5816786632224442,2.9450271328542783
0,2.3641376689024045,3.874087966523123,8.875773048315171,6.078955195102184,2.9500271789202444
0,3.765081879542518,0.13441031359133587,3.127018561506419,8.559588094053572,2.9550272249862104
0,-6.9739746381331535,-2.2452684482051803,1.9582634095202442,0.3102200294836057,2.9600272710521764
0,-8.473031889671516,-8.944948323089797,-7.5604924162336875,-1.9691490032020273,2.9650273171181425
0,-1.1820898802576483,-3.69462931499074,-7.069248924320876,1.631480991182001,2.9700273631841085
0,-8.211148614542077,-6.884311427323753,-6.73800612288405,-1.5378899921956568,2.9750274092500746
0,-5.540208096648329,-10.283994662907364,-0.8467640194673378,-1.4472619581333372,2.9800274553160406
0,0.300731669812493,-0.6236790239110848,-0.3455226211259117,6.7833650885915935,2.9850275013820067
0,-3.278329318348049,-3.393364511901706,-5.21428193463884,2.3939911431027716,2.9900275474479727
0,-6.487391064025682,-5.353051128016066,-6.333041966542959,1.0146162002576606,2.9950275935139388
0,-2.63645356979618,-2.6527388730423964,-2.091802723007005,-1.1947597453488474,3.000027639579905
0,-0.175516837853568,-1.592427747412836,-2.320564209771303,6.905863300728309,3.005027685645871
0,5.855419129849769,7.637882248679746,9.600673567682087,14.62648533268094,3.010027731711837
0,10.326354331266504,-0.8118088849815494,4.981910603782592,6.917106344075234,3.01502777777781
0,9.377288763846375,-1.2915011488113446,6.703146892514853,17.327726327505538,3.020027823843776
0,-0.31177757570436204,-0.9511945433332273,0.4643824272970102,10.848345274429684,3.025027869909742
0,-2.970844691284714,-3.540889069005348,-6.314382798851512,-6.691036824808913,3.030027915975708
0,5.170087412966662,-0.5205847261258052,-4.793148792937547,-0.4304199805628589,3.0350279620416742
0,9.571018732788104,7.449718485135315,6.788084438285339,9.58019579664387,3.0400280081076403
0,2.721949263552375,3.5500205645157012,2.719316888207397,6.340810496125187,3.0450280541736063
0,3.8628790000847695,1.720321511418391,4.75054855003114,-2.418575893239575,3.0500281002395724
0,1.6938079367420589,-1.9793786750913773,3.0617794165898724,2.812036617005798,3.0550281463055384
0,-0.6152639324207423,-1.619079996085372,-4.5069905196120885,-1.467351984865835,3.0600281923715045
0,-0.544336613504104,1.6112175474039627,-1.2057612661970787,-0.4067417106256537,3.0650282384374705
0,-1.773410112626613,-3.1784860455797754,-7.814532830648767,-5.166132572003788,3.0700282845034366
0,-0.09248443583778099,-6.968190775879729,-4.5333052200988275,-7.255524580527126,3.0750283305694026
0,-3.9615595890792568,-5.097896644052434,-7.6320784411794325,-7.324917747293168,3.0800283766353687
0,-10.560635578083176,-6.957603650164765,-13.810852499888723,-12.634312082752134,3.0850284227013347
0,-1.8897124081536214,-4.427311793712932,-6.489627401413657,-11.143707596500597,3.090028468767308
0,2.211209915920293,-3.0670210736451646,-0.5584031500604035,-9.19310429712554,3.095028514833274
0,-3.6978686103323204,5.233268511494662,-0.5771797494997802,-6.282502192191822,3.10002856089924
0,4.843052008707934,11.073556963230418,8.864042796820938,-5.4719012883949665,3.105028606965206
0,6.853971768593422,9.053844282671731,5.67526448527971,-0.2513015917736167,3.110028653031172
0,8.234890664560881,12.244130470119421,6.016485311769702,4.179296892023892,3.115028699097138
0,1.145808691291005,8.80441552489115,4.497705271594207,-1.7801058425623857,3.120028745163104
0,-0.35327415705587106,7.384699445309379,4.298924359506719,-0.39950980116026236,3.12502879122907
0,-9.642357886538663,-4.165017771132281,-3.689857430165858,-6.7989149893788765,3.1300288372950362
0,-7.0214425030019,-5.974736127362043,-8.248640103260671,-10.128321412571147,3.1350288833610023
0,-3.3705280117452743,-6.164455626205801,-0.43742366540767885,-10.067729075509948,3.1400289294269683
0,-9.389614417436736,-7.394176270019457,-9.566208121803319,-14.12713798210197,3.1450289754929344
0,-5.968701724125624,-6.643898060542841,-5.7649934771373195,-11.536548135180963,3.1500290215589004
0,-3.487789935226755,-5.893620998860725,-8.28377973549717,-9.605959536420885,3.1550290676248665
0,-1.9368790535902023,1.5566549145356279,-3.1325669003038854,-8.485372186382158,3.1600291136908325
0,-9.065969081636226,-6.463070320421158,-5.941354974364608,-8.444786084649373,3.1650291597567985
0,-8.525060021318422,-14.9827967034225,-11.710143959919252,-16.55420122988612,3.1700292058227717
0,-9.494151873925466,-10.352524233498063,-15.728933858483753,-17.173617619675937,3.1750292518887377
0,-7.193244639928334,-11.37225290866133,-10.047724670537336,-12.803035250243415,3.180029297954704
0,-8.462338318960622,-8.091982725816468,-10.836516395353101,-10.842454116353043,3.18502934402067
0,3.0585670900771706,-0.9317136809069394,-4.105309031094425,-0.2018742115179049,3.190029390086636
0,2.4094715887378255,1.448554230774046,-1.9141025750751788,0.5787044715628995,3.195029436152602
0,4.760375178624232,-1.8411789857916323,1.9371029758986298,-1.3307180594671086,3.200029482218568
0,-0.0787221388877973,-0.6009133255530652,6.938307625168518,0.7098582031154201,3.205029528284534
0,-1.0478203626639888,5.079351216560809,2.8395113758910075,0.620433267045363,3.2100295743505
0,1.1030805083196007,1.7596146455448558,3.030714230845152,1.721007140037762,3.215029620416466
0,5.693980475037943,3.1398769661727566,9.131916192396003,7.7215798296854965,3.220029666482432
0,5.704879538277121,-2.2398618170292623,2.6331172624485415,3.9421513432877573,3.225029712548398
0,1.095777698450702,-3.879601699645471,-0.7356825575755446,2.702721687703204,3.2300297586143643
0,5.296674955557528,-1.7793426771596748,-0.0544832665753153,-1.0967091306112038,3.2350298046803303
0,1.2375713092484795,3.650915255142161,0.40671513645811397,-1.1261411054057886,3.2400298507462963
0,5.348466758854758,0.9411721020526949,0.6679126525217851,5.144425769513852,3.2450298968122695
0,1.4593613033888684,0.6014278682713873,5.249109282556612,4.714991500240505,3.2500299428782355
0,-0.6197450584265068,6.97168255832852,6.890305027299476,5.905556092562039,3.2550299889442016
0,-3.578852328023179,3.1019361764981723,-1.3285001128839564,-1.8038804481561426,3.2600300350101676
0,3.3020394931893913,4.922188726674502,3.9026938619994187,-1.083318116862312,3.2650300810761337
0,0.24293040385519243,-0.6575597876518512,-5.796113048270584,-1.762756908570843,3.2700301271420997
0,-0.25617959741407337,-1.3773093632631173,-1.0149208439177282,-3.532196818187334,3.2750301732080658
0,-1.1652905120615717,-0.927059997016812,-2.5037295250027403,1.1083621595648059,3.280030219274032
0,0.8355976584757626,1.1131883142813268,-0.6625390913638082,-2.631079969869418,3.285030265339998
0,-1.8235150872000925,2.503435573854611,0.8886504573196542,-0.010523200925267207,3.290030311405964
0,-5.322628750411321,0.5336817848528997,-4.890160878529249,-3.2699675279285123,3.29503035747193
0,-0.4117433322939034,2.4439269502847805,-1.9189730983602262,-1.879412945053151,3.300030403537896
0,-3.8108588337189087,-1.6958289269777955,-3.867786201389571,-4.748859446265481,3.305030449603862
0,-4.699975255278396,-5.795585844102975,-4.00660018653284,-1.9683070252541564,3.310030495669828
0,-12.509092597193177,-3.035343798100714,-2.7854150523727825,-4.2077556753968155,3.315030541735794
0,-5.928210859074932,-6.185102785631496,-4.524230797144011,-4.547205389739484,3.3200305878017673
0,-3.5573300397765255,-7.984862802893534,-6.8830474187076724,-0.6066561609868301,3.3250306338677333
0,-11.216450137444339,-8.00462384550718,-6.171864914459878,-3.816107981520985,3.3300306799336994
0,-7.555571149556787,-2.164385908423939,-7.580683281223395,-0.7255608434708662,3.3350307259996654
0,-5.084693072844211,8.235851013932049,-0.49950251521181294,1.0649852612287074,3.3400307720656315
0,-2.833815903324563,3.3460869272381055,-1.4883226121504947,6.14553034070256,3.3450308181315975
0,-2.2829396364959744,1.0563218368840182,0.9628564325083075,8.186074402876828,3.3500308641975636
0,-1.4820642675180555,-6.053444252038409,0.5140346233985574,5.276617455203053,3.3550309102635296
0,1.768810208658742,1.3367886655312593,-2.2747880348426897,10.347159504482867,3.3600309563294957
0,-5.720316202797498,-2.1829794051900464,-0.8936115375486358,6.447700556798832,3.3650310023954617
0,-1.9194434965830092,6.657251541118657,7.5075641199886505,11.008240617453461,3.3700310484614278
0,0.8314283328221789,2.8174815096834176,-1.181261057615524,6.408779690921703,3.375031094527394
0,-0.24770070887966525,2.2277105054493935,-0.02008706595505816,10.029317780839424,3.38003114059336
0,6.723169384028257,6.217938533018819,1.171086099237158,12.359854889981971,3.385031186659326
0,1.4240386170903454,-3.4518344033277817,-0.2577415578172821,6.880391020192016,3.390031232725292
0,-6.46509300438772,-2.0616082995110787,-1.1465700329182003,13.050926172330682,3.395031278791265
0,-5.4942254751243205,-2.6313831514254806,-1.485399321846196,6.231460346290388,3.400031324857231
0,3.966641210432657,7.88884104517326,8.955770579639127,7.33199354104571,3.405031370923197
0,2.2475070580750334,-1.5609357054859552,2.6569396756297583,-0.907474245186652,3.4100314169891632
0,3.9883720735425134,-4.120713399323852,0.2681079698662722,-1.7469430146575196,3.4150314630551293
0,2.969236262315773,-1.8004920322675484,1.3192754657672432,1.5235872302319513,3.4200315091210953
0,8.770099629524552,7.659728399892871,13.540442166509765,5.84411648704981,3.4250315551870614
0,0.6509621798617616,6.219947901318883,8.251608074818902,1.2046447532070783,3.4300316012530274
0,-1.3281760824053042,0.9501664758033574,5.382773192657803,4.885172025814845,3.4350316473189935
0,-1.5573151532214107,2.7703841266966514,6.893937521178701,0.3456983016679105,3.4400316933849595
0,-0.42645502851161265,4.470600857021871,1.5751010608735303,-1.2437764226824164,3.4450317394509256
0,5.874404295857488,2.610816669514722,1.8762638117533799,2.8067478491874835,3.4500317855168916
0,1.1752628239320462,3.17103156659226,-3.5225742264535667,-4.232728886331123,3.4550318315828576
0,0.9761205595282563,0.14124555037153713,-0.3814130540794206,-6.4922066327807135,3.4600318776488237
0,-0.06302249374402286,1.8714586227481091,1.17974732861815,-6.051685393415456,3.4650319237147897
0,2.9478336676086796,8.511670785422496,0.16090692144126054,0.33883482898043293,3.470031969780763
0,-2.641310953005877,2.8618820397786875,2.1120657241622474,-3.180645967961753,3.475032015846729
0,-0.020456352225690977,-0.027907613225511135,-8.496776263479571,-3.5601277863372194,3.480032061912695
0,-2.9596025266453783,-1.5476981729458066,-3.785619041601194,-4.129610627985098,3.485032107978661
0,-2.298749472727368,-4.107489638795929,-0.7344626099661116,-10.429094494373219,3.490032154044627
0,-0.5578971867502591,-4.217282010023381,-4.653306967959031,-6.628579386421653,3.495032200110593
0,-1.1670456648140761,-5.937075285549694,-6.412152114641853,-7.918065304333244,3.500032246176559
0,-1.1761949028910659,-0.9468694638820074,-1.6409980486985427,-4.687552247571608,3.505032292242525
0,-0.9453448968473006,1.7133354568297052,0.8101552315737228,-7.267040214925895,3.5100323383084913
0,-3.36449564243016,-5.646460521367693,-2.3786922718847667,-3.666529204582758,3.5150323843744573
0,-3.7436471352135148,-7.866257396244671,-6.367540556985244,-3.9260192141872032,3.5200324304404234
0,-7.372799370481391,-9.856055165149707,-7.056389621364976,-5.615510240915111,3.5250324765063894
0,-13.211952343034362,-7.615853824730932,-18.505239462090916,-9.425002281471079,3.5300325225723554
0,-14.071106046882926,-14.015653370779535,-15.244090075260189,-12.064495331934445,3.5350325686383215
0,-4.970260474980638,-11.665453798108231,-11.662941455638746,-10.913989387517528,3.5400326147042875
0,-12.889415619200344,-18.715255100374257,-11.521793596590575,-11.013484442397742,3.5450326607702536
0,-9.778571470437909,-11.865057269893379,-5.0206464902573575,-7.272980489688717,3.5500327068362267
0,-11.917728018600231,-9.264860297582214,-11.889500127787668,-5.972477521550503,3.555032752902193
0,-10.236885252540262,-8.574664173120247,-5.668354499472922,-6.771975529353505,3.560032798968159
0,-6.726043160068172,-3.2844688852160986,-2.7772095948208904,-3.8514745038201696,3.565032845034125
0,-4.795201728079183,-6.204274421850525,-9.386065402688661,-3.9209744351162037,3.570032891100091
0,-2.9043609427647556,-9.944080770406186,-1.9649219113806213,-2.9204753129540895,3.575032937166057
0,-1.783520789835258,-4.533887917637975,-5.873779108673271,-3.609977126673452,3.580032983232023
0,-11.34268125462259,-4.303695849630046,-10.70263698181542,-2.7194798652841667,3.585033029297989
0,-3.0718423220005984,-4.543504551887638,-6.061495517441667,0.48101648249446116,3.590033075363955
0,-5.5810039762582395,-12.483314009402143,-4.580354701462551,1.9015119281231572,3.595033121429921
0,0.9098337988461063,-1.4131242065535248,-5.27921451912913,-0.44799351690753714,3.600033167495887
0,4.530671019851097,-2.7729351270767864,-3.8180749551598194,-3.7974998411402328,3.6050332135618532
0,-2.738492296676661,-4.93274675422782,-1.7869359938274172,-6.067007033019324,3.6100332596278193
0,-2.317656134244201,3.247440929050642,1.5242023809247196,-0.41651508070242854,3.6150333056937853
0,-2.3168204763025484,5.017627939962499,-2.2946598146790462,3.3439760279606974,3.6200333517597514
0,0.6140146938729174,8.797814295553906,1.906477435640773,8.544466305173218,3.6250333978257245
0,1.8548493931383883,9.178000012368685,9.437614148118186,5.394955762820459,3.6300334438916906
0,3.6856836383309153,7.138185106220954,8.24875033868203,6.345444412228918,3.6350334899576566
0,4.31651744610248,14.348369592082472,9.699886022626151,7.895932264096393,3.6400335360236227
0,8.657350832763646,18.498553483926354,14.281021214377919,7.9464193284630085,3.6450335820895887
0,8.178183814106024,10.418736794456532,8.95215592734882,7.2469056146578446,3.6500336281555548
0,7.259016405234396,14.828919534966102,10.673290173860309,4.46739113128452,3.655033674221521
0,1.6598486205303051,6.159101715429592,6.394423965200375,0.06787588633029545,3.660033720287487
0,2.9206804737995413,-0.22071665523409584,11.46555731173752,6.238359887354875,3.665033766353453
0,7.531511978444392,4.629464431220783,6.056690222975733,5.878843141575481,3.670033812419419
0,3.9823431474689617,-0.19035501730318255,2.6278227076150675,10.409325655746274,3.675033858485385
0,5.943173993386019,-0.5801749930970221,12.778954773676322,14.759807435910743,3.680033904551351
0,17.134004528113227,5.070004511427737,11.980086428481746,5.080288487159198,3.685033950617317
0,15.364834762698507,11.730183503661548,9.061217678439235,10.890768813565685,3.690033996683283
0,8.465664706968578,9.370361990482868,8.712348528917266,6.501248418290073,3.695034042749249
0,10.89649436946293,6.780539977952304,12.963478984294024,4.761727303693704,3.7000340888152223
0,7.077323757624572,0.21071747130466373,5.784609047984799,-0.30779452851066297,3.7050341348811884
0,0.36815287802606034,5.110894475191525,6.545738722482053,5.802682922964618,3.7100341809471544
0,0.0889817366514975,9.101070993854723,1.6568680095302375,2.593159659105025,3.7150342270131205
0,-0.39018966076345174,3.5912470310600315,1.5679969103639326,3.4936356805786604,3.7200342730790865
0,-0.8693613085261138,-1.158577409966455,2.459125425909506,3.0241109877148404,3.7250343191450526
0,1.0214667990823212,1.4615976736377392,3.23025355687682,-1.9454144194424092,3.7300343652110186
0,1.5322946677874063,0.21177228459685293,2.371381303744486,-0.09494054101529883,3.7350344112769847
0,5.383122303228927,1.9419464255715697,1.8425086667343946,5.175532622822299,3.7400344573429507
0,-1.1560502891498454,6.332120099100211,1.9636356458316118,-1.8839949281862587,3.7450345034089167
0,-2.645223104104302,6.562293307442548,-2.1452377591584155,4.85647680554364,3.750034549474883
0,1.9056038635660983,-2.8275339475646253,3.005888451472827,5.206947823391707,3.755034595540849
0,1.2064306191002288,-1.1273616644146105,0.24701427737807663,1.237418124438257,3.760034641606815
0,-1.8027428322806556,-3.6671898416456075,2.328139718121905,-3.6621122925398293,3.765034687672781
0,-4.661916485356604,2.2129815223494624,1.3592647731318555,-2.5316434288634397,3.770034733738747
0,-8.311090334718102,-2.046847570684328,-9.509610558246738,-4.261175285693968,3.77503477980472
0,-1.1802643745409673,4.103322881037615,-1.9284862765335067,-2.6007078638985366,3.780034825870686
0,4.380561401431275,-0.8565071207512188,2.072637618085168,-3.110241164022661,3.7850348719366522
0,0.08138699961968665,-8.526337574357864,-3.776238874308584,-1.2797751863142,3.7900349180026183
0,-3.087787573616583,-4.6861684779105985,-0.8051157535094606,0.9606900692073057,3.7950349640685843
0,-1.6269623119369523,-1.6059998291050155,-0.9939930191840934,0.6111546026330897,3.8000350101345504
0,0.07386279112304212,-0.08583162521378164,-8.092870670819437,3.241618414035751,3.8050350562005164
0,-3.305312257819246,-6.555663863242158,-1.9417487076137125,-1.8479184966184654,3.8100351022664825
0,-6.054487451975162,-9.135496539910795,-8.770627128339745,0.5825438705391436,3.8150351483324485
0,-5.573662784243635,-8.2353296514149,-12.689505931206355,-4.196994484627221,3.8200351943984145
0,-9.64283824703066,-13.295163193175009,-16.158385113595703,-7.316533562100535,3.8250352404643806
0,-5.762013832098006,-5.364997159692152,-6.557264671770128,-1.8960733615257623,3.8300352865303466
0,-3.4611895305240834,-0.12483154459353488,-9.346144600821297,-4.995613882105183,3.8350353325963127
0,-0.2603653328189037,-7.614666340887922,-6.715024894862893,0.22484487735274572,3.8400353786622787
0,-6.609541229124094,-15.93450154108469,-7.893905547195816,-11.09469708162447,3.8450354247282448
0,1.111282790703468,-4.444337136964913,-4.7627865503896025,-2.9542397570965386,3.850035470794218
0,-0.24789326294880143,2.9058268805498466,-0.11166789638616337,1.176216853369478,3.855035516860184
0,-0.1170693795660106,-0.844009478931721,2.969450423261961,-1.3933272474332876,3.86003556292615
0,0.4337544513889925,3.0761537943007733,-3.6394315828768007,3.157127943396878,3.865035608992116
0,11.564578240376532,5.396316709836603,6.081686093738317,11.027582428659708,3.870035655058082
0,10.295401997501813,7.6164792769781595,8.642803461510857,5.308036210764025,3.875035701124048
0,8.716225732132095,5.266641504542985,9.543920528421694,6.158489291481462,3.880035747190014
0,11.307049452694692,7.326803400747755,11.435037301710501,6.448941671912421,3.8850357932559803
0,18.11787316659092,6.156964973181954,17.526153787633156,13.81939335249607,3.8900358393219463
0,12.468696880017479,11.547126228773593,17.0972699912142,10.35984433285214,3.8950358853879123
0,13.779520597793848,15.15728717364056,18.308385915972394,11.170294611581852,3.9000359314538784
0,4.980344323407452,6.187447812878377,9.269501563803228,-1.629255813729698,3.9050359775198444
0,2.9811680592880325,-2.182391849427145,0.2806169351831916,3.061193053778109,3.9100360235858105
0,-0.80800819279404,1.807768190186194,-1.7182679702954826,1.1616412106100271,3.9150360696517765
0,-2.3771844313491886,-0.7020720650223127,0.5328468466490728,0.22208865310015563,3.9200361157177426
0,-3.9763606548790214,-5.051912611796086,-8.286038614662726,-3.087464622511011,3.9250361617837086
0,-4.345536861673363,-6.471753446721428,-6.644924354649476,-6.237018619924527,3.9300362078496818
0,-5.95471304967206,-2.9315945660178837,-5.443810373232699,-6.266573342552249,3.935036253915648
0,5.796110783564933,5.668564034494763,6.937303330197149,1.5038712066406714,3.940036299981614
0,0.06693464068288366,0.03872235915504091,-1.4515832435001395,-4.795684974919754,3.94503634604758
0,-3.7022414756901783,-5.261119587765076,-3.7704700934859154,-10.015241889493224,3.950036392113546
0,-2.281417562931955,-4.960961801955867,-9.98935721885217,-3.6147995388980028,3.955036438179512
0,6.129406381697411,1.7291957211586957,-2.1182446183044075,-0.6443579243866344,3.960036484245478
0,3.240230360942837,-0.1406470135768404,3.912867709946754,-0.5539170467861823,3.965036530311444
0,-4.448945622650361,2.349509998760213,0.7239797679331903,-0.8934769067337522,3.97003657637741
0,-2.508121566665979,1.559666763019546,-1.0849084423540805,-1.0530375047796483,3.975036622443376
0,0.11270253141926537,11.659823283848592,4.916203080963051,-0.4525988413965461,3.9800366685093422
0,2.1735266742924426,8.299979565447366,-1.4826856603494356,1.427839083010424,3.9850367145753083
0,2.1643508646585783,-1.119864388658044,2.038425335340558,0.5582762680437642,3.9900367606412743
0,2.0851751050899177,6.550291424449476,1.92953606954441,-0.6612872867378605,3.9950368067072404
0,-0.1340006020219492,7.700447007248663,5.220646543627592,0.42914841818713023,4.000036852773206
0,1.576823745563503,1.0406023617609148,7.581756758668963,-0.07041661766977303,4.00503689883918
0,-0.16235185000847435,-1.9492425104385658,5.822866715279316,-1.6999823947877364,4.010036944905146
0,0.47847261334250357,-0.8590876079882948,1.8939764134996737,-2.7395489135913866,4.015036990971112
0,2.0492971376385456,2.131067070480938,-1.3849141470958386,7.270883825578289,4.020037037037078
0,2.3001217248173806,2.9312215263408454,-0.2838049671544297,0.2513158223428469,4.025037083103044
0,3.0109463766550255,0.15137576084530613,-3.082696047330478,0.7517470761267107,4.03003712916901
0,3.821771094694498,3.321529775071261,2.6684126118156564,0.24217758616277296,4.035037175234976
0,6.612595880167306,13.0916835698444,9.759521009725507,7.942607351552836,4.040037221300942
0,5.58342073388315,6.741837145488803,6.700629145542808,6.5130363711364625,4.045037267366908
0,-0.8057543438328033,5.511990501569499,5.671737017808796,6.563464643254752,4.050037313432874
0,3.945070646952657,6.522143636892736,4.322844624404154,4.93389216562502,4.05503735949884
0,-1.1541042940642254,5.842296549625701,0.9639519626662865,4.7843189353692965,4.060037405564806
0,2.076720832670701,-6.5375507625808345,-0.15494097042534188,-3.245255050866871,4.065037451630772
0,7.28754602656777,8.852601697623106,8.046165821887422,5.47517020327384,4.070037497696738
0,3.178371286768807,1.9827539274175934,-0.13272766387424256,3.2055946939657147,4.075037543762704
0,-0.940803387967821,-6.547094076226709,-1.9416214314730849,0.5360184171527382,4.080037589828677
0,3.3100220008151098,-2.816942316409895,5.199484515155365,2.8264413685185366,4.085037635894643
0,6.450847451366969,8.09320920392415,0.12059017197303933,1.7068635435369108,4.0900376819606095
0,0.6116729616581729,0.15336048188323947,4.331695534771518,7.337284937457021,4.0950377280265755
0,5.092498529303903,3.233511514365515,3.212800599095998,2.077705545204549,4.1000377740925416
0,-0.136675848403991,-2.966337701978133,2.4539053602076635,-2.521874638656518,4.105037820158508
0,0.584149825585546,3.1338128293859584,4.205009813058224,5.318544380199918,4.110037866224474
0,-2.1950244517988122,0.5439631049405536,-0.5238860476948543,1.3789625959600769,4.11503791229044
0,4.805801316345498,-0.535886878903841,3.8772177723635566,4.0793800026063955,4.120037958356406
0,2.2466271268574864,0.8242628741926254,5.408321267422049,0.7497965938529711,4.125038004422372
0,1.6374529763855987,10.52441236047437,5.209424431351311,-4.069787636795992,4.130038050488338
0,-5.70172113861246,-0.2554384240903163,0.5005272576033585,0.6806273041258386,4.135038096554304
0,-4.300895221657403,-7.535289483882659,-1.7083702607163809,-3.7289585898055067,4.14003814262027
0,-3.6100692759877044,-10.185140823289153,-4.277268130613413,-7.398545324808092,4.145038188686236
0,1.3407566955211931,-3.8449924462087086,-5.976166358935393,-10.768132906708878,4.150038234752202
0,5.591582690201292,-4.3948443558616335,-0.5550649521838218,-1.0277213407108046,4.155038280818175
0,2.172408705299668,-2.0946965549147265,-2.3939639165015723,-0.917310631388139,4.160038326884141
0,1.0332347377875721,-6.184549045629993,-5.802863257744234,0.5530992170469393,4.165038372950107
0,-0.7359392156060074,-5.274401829879534,-0.45176298148747174,0.5535082004905405,4.170038419016073
0,1.3648868417319822,-4.804254909074394,-2.8806630930036596,7.083916314790127,4.175038465082039
0,-0.8142870936254809,2.1558917158351525,1.080436402669793,-2.3956764443932603,4.180038511148005
