labels,F4,F3,Fz,Cz,timestamps
0,-2192.08,-1203.84,-2215.99,-2561.52,-2.0000184263866068
0,-2197.32,-1209.45,-2221.24,-2563.76,-1.9950183803206407
0,-2201.08,-1211.72,-2220.52,-2566.47,-1.9900183342546747
0,-2205.89,-1217.81,-2232.25,-2572.01,-1.9850182881887086
0,-2207.39,-1220.08,-2227.61,-2566.56,-1.980018242122739
0,-2209.89,-1218.61,-2232.52,-2567.49,-1.975018196056773
0,-2216.3,-1219.26,-2228.06,-2574.47,-1.970018149990807
0,-2210.24,-1224.79,-2235.03,-2578.7,-1.9650181039248409
0,-2210.17,-1223.98,-2230.94,-2577.91,-1.9600180578588748
0,-2213.16,-1223.13,-2236.91,-2580.19,-1.9550180117929088
0,-2214.59,-1220.57,-2234.23,-2579.09,-1.9500179657269427
0,-2200.07,-1216.22,-2227.03,-2579.56,-1.9450179196609767
0,-2197.89,-1211.33,-2226.77,-2573.8,-1.940017873595007
0,-2202.36,-1212.02,-2225.73,-2571.84,-1.935017827529041
0,-2200.69,-1213.75,-2225.81,-2572.25,-1.930017781463075
0,-2202.97,-1214.45,-2220.68,-2572.45,-1.925017735397109
0,-2202.43,-1217.49,-2226.86,-2571.44,-1.920017689331143
0,-2195.17,-1215.41,-2225.91,-2566.34,-1.9150176432651769
0,-2196.64,-1205.89,-2216.79,-2563.86,-1.9100175971992108
0,-2202.69,-1213.55,-2221.52,-2566.36,-1.9050175511332412
0,-2206.13,-1218.59,-2225.15,-2574.12,-1.9000175050672752
0,-2200.65,-1216.24,-2219.29,-2566.51,-1.8950174590013091
0,-2190.72,-1212.32,-2212.81,-2565.33,-1.890017412935343
0,-2192.26,-1204.72,-2209.98,-2564.03,-1.885017366869377
0,-2197.45,-1206.97,-2216.57,-2568.8,-1.880017320803411
0,-2199.46,-1212.27,-2217.16,-2558.74,-1.875017274737445
0,-2196.47,-1213.3,-2226.56,-2565.12,-1.870017228671479
0,-2201.4,-1218.38,-2229.52,-2565.94,-1.8650171826055093
0,-2205.08,-1218.64,-2228.86,-2572.6,-1.8600171365395433
0,-2207.78,-1218.61,-2234.99,-2576.83,-1.8550170904735772
0,-2210.81,-1219.91,-2231.39,-2576.24,-1.8500170444076112
0,-2203.69,-1222.29,-2234.92,-2581.39,-1.8450169983416451
0,-2206.19,-1218.18,-2231.55,-2582.83,-1.840016952275679
0,-2213.05,-1228.76,-2234.56,-2584.81,-1.835016906209713
0,-2212.51,-1218.3,-2234.61,-2577.57,-1.8300168601437434
0,-2211.58,-1227.23,-2239.34,-2581.66,-1.8250168140777774
0,-2217.68,-1224.84,-2236.89,-2587.09,-1.8200167680118113
0,-2215.29,-1227.55,-2239.0,-2589.47,-1.8150167219458453
0,-2213.59,-1227.67,-2239.0,-2583.08,-1.8100166758798792
0,-2209.03,-1220.31,-2233.57,-2580.76,-1.8050166298139132
0,-2208.07,-1220.33,-2225.28,-2573.53,-1.8000165837479472
0,-2198.94,-1211.94,-2222.89,-2572.84,-1.795016537681981
0,-2207.14,-1218.25,-2225.66,-2576.43,-1.7900164916160115
0,-2202.59,-1209.82,-2224.22,-2567.7,-1.7850164455500455
0,-2200.2,-1212.9,-2218.47,-2563.56,-1.7800163994840794
0,-2205.89,-1214.87,-2221.56,-2563.0,-1.7750163534181134
0,-2202.58,-1209.16,-2219.32,-2563.12,-1.7700163073521473
0,-2206.82,-1213.26,-2223.96,-2568.36,-1.7650162612861813
0,-2206.61,-1215.6,-2229.06,-2564.74,-1.7600162152202152
0,-2206.19,-1215.08,-2225.03,-2567.69,-1.7550161691542492
0,-2203.92,-1209.73,-2224.47,-2566.6,-1.7500161230882796
0,-2216.18,-1219.69,-2229.64,-2573.87,-1.7450160770223135
0,-2207.03,-1212.72,-2229.98,-2570.89,-1.7400160309563475
0,-2208.13,-1216.55,-2225.94,-2573.68,-1.7350159848903814
0,-2208.14,-1225.12,-2228.99,-2572.85,-1.7300159388244154
0,-2208.34,-1222.32,-2230.03,-2569.68,-1.7250158927584494
0,-2206.03,-1219.21,-2226.66,-2566.33,-1.7200158466924833
0,-2205.36,-1210.03,-2222.5,-2569.14,-1.7150158006265137
0,-2206.52,-1218.04,-2226.62,-2577.28,-1.7100157545605477
0,-2203.28,-1220.24,-2225.19,-2575.23,-1.7050157084945816
0,-2209.44,-1222.53,-2231.79,-2578.8,-1.7000156624286156
0,-2207.6,-1219.0,-2233.23,-2577.71,-1.6950156163626495
0,-2213.08,-1223.0,-2234.47,-2582.55,-1.6900155702966835
0,-2207.95,-1217.95,-2233.99,-2581.14,-1.6850155242307174
0,-2199.51,-1211.88,-2221.99,-2567.97,-1.6800154781647514
0,-2213.23,-1224.28,-2236.89,-2576.23,-1.6750154320987818
0,-2212.75,-1220.66,-2235.99,-2574.8,-1.6700153860328157
0,-2202.4,-1220.53,-2232.55,-2576.48,-1.6650153399668497
0,-2200.93,-1211.25,-2227.2,-2570.78,-1.6600152939008836
0,-2208.83,-1220.58,-2227.18,-2573.57,-1.6550152478349176
0,-2205.74,-1219.92,-2230.59,-2569.83,-1.6500152017689516
0,-2197.84,-1217.44,-2223.56,-2561.96,-1.6450151557029855
0,-2197.08,-1215.92,-2226.47,-2565.63,-1.640015109637016
0,-2200.7,-1213.16,-2222.84,-2561.78,-1.6350150635710499
0,-2205.61,-1211.82,-2226.04,-2562.29,-1.6300150175050838
0,-2202.08,-1210.55,-2226.42,-2558.51,-1.6250149714391178
0,-2196.53,-1210.1,-2219.7,-2565.81,-1.6200149253731517
0,-2194.64,-1203.89,-2218.27,-2561.64,-1.6150148793071857
0,-2194.44,-1207.29,-2223.16,-2564.77,-1.6100148332412196
0,-2194.04,-1212.12,-2216.37,-2566.15,-1.6050147871752536
0,-2196.93,-1211.01,-2218.56,-2569.77,-1.600014741109284
0,-2192.66,-1202.5,-2213.78,-2560.46,-1.595014695043318
0,-2205.2,-1212.41,-2222.86,-2566.9,-1.590014648977352
0,-2199.95,-1215.45,-2223.71,-2567.18,-1.5850146029113859
0,-2200.84,-1209.98,-2219.95,-2568.83,-1.5800145568454198
0,-2196.32,-1205.35,-2214.77,-2563.71,-1.5750145107794538
0,-2190.94,-1201.83,-2214.14,-2560.59,-1.5700144647134877
0,-2190.04,-1209.98,-2220.24,-2563.26,-1.5650144186475217
0,-2195.95,-1215.83,-2226.18,-2566.86,-1.560014372581552
0,-2197.34,-1212.24,-2218.3,-2564.87,-1.555014326515586
0,-2202.12,-1214.57,-2220.45,-2563.9,-1.55001428044962
0,-2199.32,-1213.45,-2222.67,-2562.14,-1.545014234383654
0,-2202.8,-1209.01,-2222.86,-2565.75,-1.5400141883176879
0,-2206.01,-1212.12,-2226.45,-2567.66,-1.5350141422517218
0,-2199.61,-1213.6,-2219.64,-2564.83,-1.5300140961857558
0,-2206.71,-1208.84,-2223.95,-2564.06,-1.5250140501197862
0,-2211.59,-1221.24,-2230.97,-2572.78,-1.5200140040538201
0,-2214.4,-1224.58,-2237.72,-2579.33,-1.515013957987854
0,-2213.02,-1224.36,-2230.15,-2576.87,-1.510013911921888
0,-2214.63,-1228.73,-2233.37,-2572.47,-1.505013865855922
0,-2212.65,-1226.16,-2236.95,-2576.61,-1.500013819789956
0,-2212.61,-1225.16,-2227.3,-2575.85,-1.49501377372399
0,-2210.27,-1218.51,-2231.04,-2577.8,-1.4900137276580239
0,-2210.43,-1208.19,-2229.91,-2576.67,-1.4850136815920543
0,-2210.89,-1214.33,-2227.72,-2577.51,-1.4800136355260882
0,-2209.64,-1222.14,-2232.3,-2574.29,-1.4750135894601222
0,-2209.04,-1223.9,-2230.37,-2571.34,-1.4700135433941561
0,-2202.72,-1222.76,-2231.47,-2569.3,-1.46501349732819
0,-2202.36,-1213.65,-2228.56,-2575.85,-1.460013451262224
0,-2204.02,-1216.05,-2222.21,-2566.23,-1.455013405196258
0,-2201.3,-1218.86,-2224.03,-2567.4,-1.4500133591302884
0,-2205.2,-1218.42,-2223.41,-2570.19,-1.4450133130643223
0,-2202.34,-1214.47,-2227.77,-2569.77,-1.4400132669983563
0,-2204.13,-1218.72,-2227.95,-2565.55,-1.4350132209323903
0,-2207.67,-1220.1,-2229.66,-2565.23,-1.4300131748664242
0,-2205.4,-1217.44,-2228.04,-2570.59,-1.4250131288004582
0,-2207.01,-1218.85,-2225.52,-2567.99,-1.4200130827344921
0,-2206.35,-1214.21,-2226.22,-2562.43,-1.415013036668526
0,-2208.75,-1215.76,-2230.01,-2569.65,-1.4100129906025565
0,-2209.5,-1212.13,-2232.05,-2569.58,-1.4050129445365904
0,-2203.02,-1211.18,-2221.71,-2556.83,-1.4000128984706244
0,-2201.92,-1210.81,-2222.44,-2561.51,-1.3950128524046583
0,-2202.82,-1212.15,-2221.1,-2563.38,-1.3900128063386923
0,-2206.77,-1216.28,-2221.69,-2567.95,-1.3850127602727262
0,-2205.97,-1217.29,-2230.48,-2571.09,-1.3800127142067602
0,-2199.17,-1206.2,-2219.7,-2565.53,-1.3750126681407941
0,-2208.31,-1217.63,-2231.53,-2576.88,-1.3700126220748245
0,-2209.3,-1223.27,-2238.54,-2577.87,-1.3650125760088585
0,-2214.2,-1226.85,-2239.57,-2574.97,-1.3600125299428925
0,-2215.09,-1227.13,-2242.92,-2578.41,-1.3550124838769264
0,-2218.79,-1225.01,-2239.67,-2586.52,-1.3500124378109604
0,-2216.39,-1231.39,-2240.6,-2585.25,-1.3450123917449943
0,-2218.31,-1234.19,-2238.92,-2582.33,-1.3400123456790283
0,-2209.5,-1229.92,-2240.0,-2579.65,-1.3350122996130587
0,-2211.57,-1227.92,-2237.1,-2579.56,-1.3300122535470926
0,-2213.64,-1226.34,-2233.29,-2572.48,-1.3250122074811266
0,-2213.26,-1225.08,-2236.39,-2576.87,-1.3200121614151605
0,-2211.14,-1227.94,-2234.68,-2575.27,-1.3150121153491945
0,-2214.53,-1225.29,-2234.64,-2576.88,-1.3100120692832284
0,-2206.16,-1216.81,-2228.8,-2572.53,-1.3050120232172624
0,-2192.31,-1203.69,-2214.33,-2556.08,-1.3000119771512963
0,-2195.72,-1212.55,-2216.82,-2567.19,-1.2950119310853268
0,-2201.77,-1212.14,-2218.61,-2566.0,-1.2900118850193607
0,-2202.59,-1206.97,-2219.01,-2567.38,-1.2850118389533947
0,-2202.44,-1206.93,-2215.31,-2565.28,-1.2800117928874286
0,-2200.5,-1202.7,-2215.6,-2568.13,-1.2750117468214626
0,-2199.01,-1212.74,-2220.85,-2571.94,-1.2700117007554965
0,-2193.74,-1205.62,-2214.55,-2564.87,-1.2650116546895305
0,-2200.79,-1206.3,-2213.33,-2561.41,-1.2600116086235609
0,-2200.07,-1211.03,-2216.29,-2558.28,-1.2550115625575948
0,-2205.92,-1218.95,-2227.43,-2566.04,-1.2500115164916288
0,-2206.27,-1214.79,-2225.55,-2566.86,-1.2450114704256627
0,-2207.1,-1222.04,-2228.27,-2569.9,-1.2400114243596967
0,-2210.67,-1215.0,-2228.22,-2572.0,-1.2350113782937306
0,-2198.96,-1206.9,-2217.75,-2564.92,-1.2300113322277646
0,-2202.35,-1218.02,-2225.43,-2572.03,-1.2250112861617986
0,-2208.54,-1220.39,-2229.13,-2572.44,-1.220011240095829
0,-2209.57,-1215.41,-2235.24,-2573.26,-1.215011194029863
0,-2211.09,-1220.32,-2235.56,-2579.64,-1.2100111479638969
0,-2212.7,-1223.75,-2237.65,-2580.59,-1.2050111018979308
0,-2204.09,-1217.75,-2229.8,-2576.84,-1.2000110558319648
0,-2200.49,-1211.17,-2227.53,-2568.28,-1.1950110097659987
0,-2201.23,-1210.62,-2221.42,-2568.62,-1.1900109637000327
0,-2200.78,-1211.08,-2221.7,-2565.68,-1.1850109176340666
0,-2200.92,-1208.98,-2214.37,-2558.49,-1.180010871568097
0,-2206.26,-1204.51,-2219.72,-2563.84,-1.175010825502131
0,-2206.89,-1209.92,-2226.64,-2565.69,-1.170010779436165
0,-2197.66,-1206.61,-2218.79,-2567.08,-1.165010733370199
0,-2198.36,-1212.06,-2213.59,-2568.68,-1.1600106873042328
0,-2202.36,-1220.73,-2225.0,-2574.8,-1.1550106412382668
0,-2211.02,-1224.34,-2235.08,-2572.98,-1.1500105951723008
0,-2208.35,-1220.23,-2230.25,-2575.21,-1.1450105491063312
0,-2205.41,-1213.55,-2226.42,-2572.01,-1.140010503040365
0,-2206.87,-1213.08,-2228.65,-2577.29,-1.135010456974399
0,-2210.38,-1213.75,-2231.98,-2579.21,-1.130010410908433
0,-2207.85,-1210.2,-2222.01,-2574.54,-1.125010364842467
0,-2203.34,-1210.14,-2225.27,-2570.22,-1.120010318776501
0,-2203.29,-1208.64,-2225.79,-2570.06,-1.1150102727105349
0,-2203.39,-1216.2,-2230.58,-2572.3,-1.1100102266445688
0,-2204.67,-1211.88,-2223.23,-2566.88,-1.1050101805785992
0,-2201.65,-1208.73,-2217.21,-2560.89,-1.1000101345126332
0,-2203.44,-1214.84,-2225.56,-2565.21,-1.0950100884466671
0,-2206.39,-1217.95,-2226.09,-2565.91,-1.090010042380701
0,-2206.22,-1222.32,-2232.39,-2573.89,-1.085009996314735
0,-2210.85,-1223.61,-2232.7,-2572.66,-1.080009950248769
0,-2206.37,-1221.38,-2227.02,-2568.9,-1.075009904182803
0,-2207.48,-1227.39,-2233.23,-2570.86,-1.0700098581168334
0,-2203.0,-1221.31,-2229.32,-2568.69,-1.0650098120508673
0,-2204.25,-1218.13,-2226.44,-2568.14,-1.0600097659849013
0,-2206.77,-1223.79,-2233.3,-2572.6,-1.0550097199189352
0,-2209.6,-1222.7,-2234.59,-2573.69,-1.0500096738529692
0,-2199.87,-1221.78,-2231.9,-2571.84,-1.0450096277870031
0,-2208.74,-1222.83,-2237.23,-2573.62,-1.040009581721037
0,-2212.34,-1219.58,-2230.88,-2571.42,-1.035009535655071
0,-2207.64,-1217.87,-2229.68,-2575.8,-1.0300094895891014
0,-2206.63,-1217.07,-2228.24,-2570.39,-1.0250094435231354
0,-2205.48,-1220.21,-2227.25,-2571.0,-1.0200093974571693
0,-2198.16,-1218.61,-2227.62,-2567.66,-1.0150093513912033
0,-2208.55,-1223.05,-2234.59,-2577.73,-1.0100093053252372
0,-2206.09,-1216.15,-2226.93,-2573.91,-1.0050092592592712
0,-2200.94,-1219.3,-2232.07,-2575.23,-1.0000092131933052
0,-2196.72,-1213.2,-2224.54,-2572.84,-0.9950091671273391
0,-2195.84,-1212.27,-2221.92,-2572.64,-0.9900091210613695
0,-2197.26,-1214.24,-2219.43,-2567.38,-0.9850090749954035
0,-2195.54,-1209.81,-2217.68,-2565.85,-0.9800090289294374
0,-2197.17,-1216.44,-2220.31,-2567.65,-0.9750089828634714
0,-2205.09,-1223.75,-2223.93,-2573.11,-0.9700089367975053
0,-2199.48,-1214.39,-2221.34,-2571.66,-0.9650088907315393
0,-2204.2,-1221.28,-2221.69,-2568.42,-0.9600088446655732
0,-2207.08,-1220.15,-2230.38,-2573.77,-0.9550087985996036
0,-2202.94,-1223.61,-2228.83,-2570.43,-0.9500087525336376
0,-2201.71,-1216.79,-2226.79,-2568.55,-0.9450087064676715
0,-2204.56,-1214.96,-2227.05,-2570.98,-0.9400086604017055
0,-2207.13,-1216.59,-2220.94,-2566.97,-0.9350086143357395
0,-2207.6,-1218.11,-2227.31,-2565.49,-0.9300085682697734
0,-2206.91,-1216.77,-2226.22,-2566.39,-0.9250085222038074
0,-2208.64,-1218.08,-2227.47,-2568.15,-0.9200084761378413
0,-2206.9,-1214.02,-2228.17,-2564.74,-0.9150084300718717
0,-2207.12,-1222.6,-2232.37,-2569.17,-0.9100083840059057
0,-2218.71,-1222.32,-2234.75,-2573.91,-0.9050083379399396
0,-2219.74,-1224.77,-2241.36,-2579.25,-0.9000082918739736
0,-2211.57,-1215.73,-2234.31,-2572.77,-0.8950082458080075
0,-2209.19,-1218.79,-2232.06,-2575.25,-0.8900081997420415
0,-2209.43,-1216.02,-2227.36,-2574.84,-0.8850081536760754
0,-2210.84,-1223.82,-2229.15,-2572.44,-0.8800081076101058
0,-2214.23,-1219.88,-2229.48,-2574.69,-0.8750080615441398
0,-2211.19,-1232.08,-2233.61,-2579.01,-0.8700080154781737
0,-2209.44,-1229.19,-2235.78,-2577.46,-0.8650079694122077
0,-2208.38,-1218.46,-2233.86,-2571.47,-0.8600079233462417
0,-2206.7,-1211.52,-2232.23,-2573.88,-0.8550078772802756
0,-2201.07,-1205.42,-2221.79,-2566.21,-0.8500078312143096
0,-2200.05,-1203.25,-2216.28,-2562.87,-0.8450077851483435
0,-2199.71,-1212.47,-2219.93,-2560.23,-0.8400077390823739
0,-2195.91,-1214.64,-2218.47,-2559.88,-0.8350076930164079
0,-2194.53,-1210.78,-2214.98,-2559.14,-0.8300076469504418
0,-2198.65,-1207.41,-2221.05,-2564.2,-0.8250076008844758
0,-2209.69,-1219.43,-2225.49,-2565.7,-0.8200075548185097
0,-2206.47,-1215.82,-2227.59,-2565.96,-0.8150075087525437
0,-2201.91,-1211.58,-2226.05,-2563.22,-0.8100074626865776
0,-2207.85,-1214.27,-2226.54,-2567.02,-0.8050074166206116
0,-2192.99,-1215.79,-2216.71,-2569.42,-0.800007370554642
0,-2203.51,-1216.14,-2229.19,-2569.84,-0.795007324488676
0,-2212.81,-1217.19,-2235.55,-2574.06,-0.7900072784227099
0,-2209.67,-1222.1,-2234.26,-2572.94,-0.7850072323567439
0,-2205.81,-1218.47,-2227.57,-2567.2,-0.7800071862907778
0,-2201.28,-1216.28,-2222.54,-2569.83,-0.7750071402248118
0,-2203.52,-1214.94,-2224.57,-2567.68,-0.7700070941588457
0,-2196.98,-1212.24,-2215.91,-2560.36,-0.7650070480928761
0,-2196.89,-1212.69,-2224.81,-2566.05,-0.7600070020269101
0,-2202.98,-1212.78,-2218.09,-2566.18,-0.755006955960944
0,-2195.77,-1210.39,-2221.9,-2570.32,-0.750006909894978
0,-2195.52,-1203.39,-2214.15,-2566.3,-0.7450068638290119
0,-2193.62,-1211.39,-2219.18,-2565.77,-0.7400068177630459
0,-2201.46,-1208.54,-2219.12,-2571.22,-0.7350067716970798
0,-2200.08,-1209.35,-2221.71,-2565.23,-0.7300067256311138
0,-2203.81,-1215.7,-2224.11,-2567.61,-0.7250066795651442
0,-2206.08,-1215.23,-2226.04,-2573.01,-0.7200066334991782
0,-2211.05,-1216.08,-2225.52,-2572.25,-0.7150065874332121
0,-2207.14,-1211.9,-2222.33,-2570.84,-0.7100065413672461
0,-2205.34,-1215.61,-2232.9,-2571.9,-0.70500649530128
0,-2204.65,-1207.99,-2226.32,-2570.24,-0.700006449235314
0,-2205.5,-1215.98,-2226.04,-2571.13,-0.6950064031693479
0,-2190.26,-1211.66,-2219.32,-2563.95,-0.6900063571033783
0,-2198.66,-1205.68,-2219.96,-2561.98,-0.6850063110374123
0,-2202.1,-1212.14,-2228.0,-2569.24,-0.6800062649714462
0,-2204.38,-1212.32,-2227.09,-2572.95,-0.6750062189054802
0,-2216.38,-1219.32,-2233.28,-2576.18,-0.6700061728395141
0,-2210.94,-1218.44,-2232.18,-2571.59,-0.6650061267735481
0,-2205.15,-1220.41,-2226.02,-2573.13,-0.660006080707582
0,-2206.3,-1219.59,-2223.54,-2572.55,-0.655006034641616
0,-2210.63,-1220.35,-2224.74,-2567.76,-0.6500059885756464
0,-2205.04,-1214.02,-2228.29,-2569.41,-0.6450059425096804
0,-2202.93,-1223.74,-2233.74,-2574.26,-0.6400058964437143
0,-2210.4,-1221.06,-2232.72,-2569.01,-0.6350058503777483
0,-2209.42,-1217.18,-2229.53,-2568.61,-0.6300058043117822
0,-2205.07,-1218.85,-2224.49,-2568.21,-0.6250057582458162
0,-2203.93,-1208.49,-2226.79,-2569.25,-0.6200057121798501
0,-2203.93,-1208.01,-2219.99,-2567.75,-0.6150056661138841
0,-2206.23,-1216.84,-2224.02,-2572.59,-0.6100056200479145
0,-2202.46,-1217.78,-2222.13,-2570.67,-0.6050055739819484
0,-2204.15,-1219.39,-2224.64,-2571.95,-0.6000055279159824
0,-2200.66,-1217.87,-2225.28,-2572.54,-0.5950054818500163
0,-2203.12,-1216.42,-2222.24,-2566.44,-0.5900054357840503
0,-2208.41,-1218.83,-2232.5,-2570.99,-0.5850053897180842
0,-2206.68,-1223.53,-2231.95,-2571.34,-0.5800053436521182
0,-2210.23,-1228.95,-2236.8,-2569.79,-0.5750052975861486
0,-2206.64,-1223.56,-2230.54,-2575.89,-0.5700052515201826
0,-2205.99,-1215.7,-2227.92,-2574.85,-0.5650052054542165
0,-2203.88,-1207.96,-2221.78,-2568.63,-0.5600051593882505
0,-2208.96,-1214.16,-2227.29,-2572.32,-0.5550051133222844
0,-2206.25,-1211.46,-2226.39,-2568.47,-0.5500050672563184
0,-2200.63,-1209.26,-2220.78,-2568.07,-0.5450050211903523
0,-2201.19,-1213.07,-2227.11,-2573.17,-0.5400049751243863
0,-2199.51,-1221.55,-2226.97,-2579.01,-0.5350049290584167
0,-2204.11,-1222.54,-2228.19,-2578.4,-0.5300048829924506
0,-2202.04,-1218.59,-2225.26,-2566.99,-0.5250048369264846
0,-2198.61,-1216.31,-2218.83,-2566.38,-0.5200047908605185
0,-2199.15,-1215.95,-2225.12,-2569.49,-0.5150047447945525
0,-2203.46,-1213.99,-2218.72,-2564.9,-0.5100046987285864
0,-2201.98,-1215.93,-2225.09,-2564.4,-0.5050046526626204
0,-2206.17,-1212.55,-2224.3,-2562.85,-0.5000046065966508
0,-2203.23,-1211.25,-2217.0,-2563.09,-0.49500456053068476
0,-2203.36,-1214.96,-2225.32,-2570.24,-0.4900045144647187
0,-2202.81,-1212.69,-2218.48,-2568.45,-0.48500446839875266
0,-2202.47,-1209.37,-2220.46,-2568.09,-0.4800044223327866
0,-2205.22,-1216.99,-2226.17,-2572.37,-0.47500437626682057
0,-2209.63,-1220.38,-2230.31,-2571.44,-0.4700043302008545
0,-2212.04,-1223.73,-2229.76,-2565.45,-0.4650042841348885
0,-2200.12,-1213.8,-2231.62,-2558.2,-0.4600042380689189
0,-2207.52,-1217.42,-2228.19,-2566.07,-0.45500419200295283
0,-2202.35,-1219.5,-2221.55,-2568.02,-0.4500041459369868
0,-2202.06,-1206.93,-2224.8,-2564.56,-0.44500409987102074
0,-2195.72,-1208.18,-2221.25,-2563.63,-0.4400040538050547
0,-2198.69,-1211.1,-2223.64,-2562.17,-0.43500400773908865
0,-2196.81,-1206.44,-2222.14,-2565.02,-0.4300039616731226
0,-2198.38,-1205.39,-2219.97,-2566.41,-0.42500391560715656
0,-2202.46,-1207.5,-2221.64,-2568.98,-0.42000386954118696
0,-2202.18,-1209.72,-2219.04,-2567.23,-0.4150038234752209
0,-2201.87,-1212.11,-2218.29,-2564.63,-0.41000377740925487
0,-2202.83,-1214.76,-2225.23,-2565.99,-0.4050037313432888
0,-2201.62,-1215.55,-2223.76,-2568.74,-0.4000036852773228
0,-2202.85,-1215.48,-2222.67,-2572.15,-0.3950036392113567
0,-2204.78,-1215.24,-2223.34,-2567.93,-0.3900035931453907
0,-2200.68,-1214.26,-2226.4,-2561.98,-0.3850035470794211
0,-2199.2,-1212.07,-2220.56,-2558.07,-0.38000350101345504
0,-2202.01,-1220.72,-2226.15,-2564.04,-0.375003454947489
0,-2201.81,-1215.64,-2230.74,-2571.49,-0.37000340888152294
0,-2213.73,-1220.76,-2233.27,-2573.08,-0.3650033628155569
0,-2214.29,-1220.99,-2238.14,-2577.94,-0.36000331674959085
0,-2206.4,-1218.77,-2228.51,-2572.84,-0.3550032706836248
0,-2204.6,-1218.6,-2228.75,-2578.13,-0.35000322461765876
0,-2202.39,-1216.09,-2226.56,-2570.0,-0.34500317855168916
0,-2205.05,-1213.42,-2221.55,-2565.49,-0.3400031324857231
0,-2199.65,-1212.6,-2226.87,-2564.46,-0.33500308641975707
0,-2191.01,-1210.29,-2219.25,-2562.07,-0.330003040353791
0,-2185.2,-1200.26,-2209.37,-2556.18,-0.325002994287825
0,-2189.75,-1201.37,-2211.53,-2555.36,-0.32000294822185893
0,-2198.15,-1215.32,-2216.8,-2558.0,-0.3150029021558929
0,-2203.52,-1213.84,-2219.3,-2564.76,-0.3100028560899233
0,-2202.25,-1214.32,-2226.4,-2565.69,-0.30500281002395724
0,-2205.13,-1212.86,-2225.72,-2566.45,-0.3000027639579912
0,-2204.75,-1219.19,-2227.5,-2565.54,-0.29500271789202515
0,-2213.45,-1220.14,-2225.42,-2570.04,-0.2900026718260591
0,-2210.04,-1219.84,-2228.83,-2573.22,-0.28500262576009305
0,-2211.03,-1222.77,-2232.64,-2575.34,-0.280002579694127
0,-2209.65,-1215.68,-2226.16,-2572.17,-0.27500253362816096
0,-2201.26,-1207.14,-2218.79,-2570.25,-0.27000248756219136
0,-2208.54,-1210.18,-2233.18,-2572.89,-0.2650024414962253
0,-2207.87,-1212.64,-2224.65,-2569.45,-0.26000239543025927
0,-2203.76,-1210.6,-2223.14,-2573.42,-0.2550023493642932
0,-2207.67,-1208.95,-2223.47,-2577.15,-0.2500023032983272
0,-2199.71,-1209.42,-2217.49,-2572.15,-0.24500225723236113
0,-2200.99,-1218.12,-2224.57,-2573.01,-0.24000221116639509
0,-2196.8,-1210.33,-2221.66,-2572.53,-0.23500216510042904
0,-2199.94,-1203.67,-2218.37,-2566.0,-0.23000211903445944
0,-2196.5,-1207.7,-2218.29,-2562.41,-0.2250020729684934
0,-2206.33,-1211.51,-2230.52,-2575.26,-0.22000202690252735
0,-2205.96,-1221.37,-2232.68,-2575.61,-0.2150019808365613
0,-2202.17,-1214.03,-2223.62,-2573.74,-0.21000193477059526
0,-2201.94,-1213.76,-2226.43,-2571.17,-0.2050018887046292
0,-2208.14,-1214.42,-2226.72,-2573.5,-0.20000184263866316
0,-2204.86,-1223.31,-2231.12,-2574.01,-0.19500179657269356
0,-2212.1,-1219.03,-2232.86,-2575.5,-0.19000175050672752
0,-2214.51,-1221.85,-2234.44,-2579.09,-0.18500170444076147
0,-2213.23,-1228.86,-2235.26,-2575.33,-0.18000165837479543
0,-2210.62,-1230.23,-2235.61,-2577.51,-0.17500161230882938
0,-2211.35,-1228.3,-2237.4,-2578.69,-0.17000156624286333
0,-2205.13,-1217.08,-2229.81,-2574.55,-0.1650015201768973
0,-2203.54,-1218.42,-2226.32,-2576.01,-0.16000147411093124
0,-2202.14,-1205.12,-2227.09,-2571.56,-0.15500142804496164
0,-2204.49,-1215.02,-2223.5,-2563.0,-0.1500013819789956
0,-2206.85,-1221.14,-2223.84,-2568.6,-0.14500133591302955
0,-2198.69,-1221.62,-2227.94,-2567.28,-0.1400012898470635
0,-2199.0,-1216.55,-2224.76,-2564.57,-0.13500124378109746
0,-2198.27,-1212.14,-2219.54,-2561.84,-0.1300011977151314
0,-2202.53,-1209.12,-2224.09,-2563.83,-0.12500115164916537
0,-2197.75,-1213.89,-2223.31,-2568.0,-0.12000110558319577
0,-2198.44,-1209.66,-2220.0,-2565.64,-0.11500105951722972
0,-2203.75,-1206.18,-2222.56,-2566.51,-0.11000101345126367
0,-2213.82,-1213.75,-2230.19,-2576.74,-0.10500096738529763
0,-2209.59,-1211.83,-2227.78,-2573.34,-0.10000092131933158
0,-2204.27,-1215.27,-2227.77,-2567.78,-0.09500087525336554
0,-2202.19,-1210.57,-2218.61,-2564.0,-0.09000082918739949
0,-2192.56,-1206.48,-2218.85,-2556.54,-0.08500078312143344
0,-2199.83,-1204.86,-2217.42,-2560.25,-0.08000073705546384
0,-2203.31,-1211.52,-2216.75,-2559.89,-0.0750006909894978
0,-2199.7,-1210.01,-2213.8,-2558.49,-0.07000064492353175
0,-2194.15,-1208.3,-2212.4,-2552.64,-0.0650005988575657
0,-2196.4,-1212.24,-2215.03,-2557.47,-0.06000055279159966
0,-2195.92,-1209.5,-2218.61,-2555.79,-0.05500050672563361
0,-2201.59,-1200.6,-2215.95,-2559.27,-0.05000046065966757
0,-2203.18,-1213.6,-2222.98,-2562.04,-0.04500041459369797
0,-2208.13,-1225.39,-2225.86,-2568.69,-0.04000036852773192
0,-2204.5,-1220.96,-2231.12,-2574.7,-0.035000322461765876
0,-2202.6,-1221.89,-2230.09,-2569.13,-0.03000027639579983
0,-2206.32,-1223.84,-2226.47,-2573.14,-0.025000230329833784
0,-2210.54,-1221.35,-2229.83,-2574.84,-0.020000184263867737
0,-2206.73,-1211.31,-2224.66,-2570.01,-0.015000138197901691
0,-2209.96,-1217.97,-2222.67,-2566.15,-0.010000092131935645
0,-2206.86,-1225.65,-2229.31,-2570.63,-0.005000046065966046
0,-2207.17,-1219.49,-2230.62,-2573.53,0.0
0,-2205.91,-1212.31,-2230.1,-2571.94,0.005000046065966046
0,-2208.83,-1212.97,-2227.51,-2569.95,0.010000092131932092
0,-2208.01,-1222.58,-2227.7,-2571.14,0.015000138197898139
0,-2208.42,-1219.96,-2230.21,-2575.61,0.020000184263864185
0,-2213.1,-1227.85,-2233.8,-2580.55,0.02500023032983023
0,-2210.6,-1221.05,-2232.89,-2572.61,0.030000276395796277
0,-2213.07,-1217.2,-2231.37,-2577.09,0.035000322461765876
0,-2211.08,-1217.04,-2228.46,-2573.52,0.04000036852773192
0,-2204.28,-1214.7,-2225.21,-2568.4,0.04500041459369797
0,-2208.51,-1222.16,-2226.6,-2569.79,0.050000460659664014
0,-2200.2,-1212.0,-2221.67,-2568.14,0.05500050672563006
0,-2198.29,-1204.69,-2219.45,-2571.93,0.06000055279159611
0,-2197.28,-1208.5,-2218.76,-2562.67,0.06500059885756215
0,-2202.33,-1214.28,-2220.3,-2565.76,0.07000064492353175
0,-2199.13,-1205.9,-2221.64,-2568.12,0.0750006909894978
0,-2213.17,-1224.45,-2235.04,-2579.72,0.08000073705546384
0,-2214.29,-1221.99,-2230.58,-2576.02,0.08500078312142989
0,-2210.66,-1218.26,-2230.84,-2573.53,0.09000082918739594
0,-2212.42,-1222.16,-2232.87,-2577.23,0.09500087525336198
0,-2202.19,-1222.82,-2232.2,-2579.64,0.10000092131932803
0,-2206.62,-1225.45,-2236.53,-2577.62,0.10500096738529408
0,-2214.21,-1225.36,-2237.86,-2582.97,0.11000101345126367
0,-2211.15,-1219.41,-2237.35,-2582.69,0.11500105951722972
0,-2207.52,-1231.54,-2239.74,-2576.31,0.12000110558319577
0,-2214.42,-1230.47,-2241.39,-2580.88,0.1250011516491618
0,-2215.29,-1234.37,-2240.04,-2585.48,0.13000119771512786
0,-2209.02,-1216.77,-2233.11,-2581.72,0.1350012437810939
0,-2216.2,-1229.78,-2241.62,-2583.78,0.14000128984705995
0,-2218.3,-1231.8,-2242.36,-2577.1,0.14500133591302955
0,-2212.16,-1226.88,-2240.27,-2574.49,0.1500013819789956
0,-2205.21,-1225.3,-2237.6,-2581.88,0.15500142804496164
0,-2208.66,-1228.52,-2236.16,-2576.91,0.1600014741109277
0,-2214.13,-1222.47,-2233.82,-2574.31,0.16500152017689373
0,-2209.63,-1217.94,-2230.04,-2573.64,0.17000156624285978
0,-2208.93,-1219.71,-2228.42,-2573.28,0.17500161230882583
0,-2211.31,-1213.1,-2228.03,-2570.21,0.18000165837479187
0,-2204.45,-1213.0,-2227.35,-2567.04,0.18500170444076147
0,-2202.0,-1204.56,-2223.04,-2574.63,0.19000175050672752
0,-2203.29,-1215.9,-2222.92,-2565.54,0.19500179657269356
0,-2201.96,-1216.41,-2231.36,-2572.58,0.2000018426386596
0,-2205.79,-1225.24,-2230.83,-2573.45,0.20500188870462566
0,-2201.57,-1208.84,-2227.55,-2569.37,0.2100019347705917
0,-2200.89,-1213.3,-2229.03,-2573.63,0.21500198083655775
0,-2201.25,-1217.78,-2225.57,-2569.48,0.2200020269025238
0,-2196.36,-1212.62,-2218.13,-2564.12,0.2250020729684934
0,-2197.28,-1206.84,-2215.11,-2562.19,0.23000211903445944
0,-2195.07,-1209.99,-2221.22,-2562.62,0.2350021651004255
0,-2204.98,-1210.95,-2223.82,-2563.7,0.24000221116639153
0,-2204.34,-1204.35,-2220.98,-2559.68,0.24500225723235758
0,-2203.58,-1204.21,-2216.98,-2560.68,0.2500023032983236
0,-2194.86,-1215.06,-2219.51,-2561.06,0.25500234936428967
0,-2203.85,-1221.53,-2227.8,-2564.74,0.26000239543025927
0,-2206.66,-1222.13,-2229.62,-2567.63,0.2650024414962253
0,-2211.4,-1207.56,-2219.59,-2564.48,0.27000248756219136
0,-2205.96,-1217.73,-2218.68,-2563.06,0.2750025336281574
0,-2208.67,-1216.53,-2228.6,-2566.24,0.28000257969412345
0,-2201.05,-1212.62,-2222.84,-2569.98,0.2850026257600895
0,-2205.13,-1219.13,-2220.52,-2562.67,0.29000267182605555
0,-2197.66,-1212.57,-2223.08,-2565.78,0.2950027178920216
0,-2198.08,-1217.97,-2225.75,-2564.61,0.3000027639579912
0,-2197.26,-1204.83,-2216.11,-2557.28,0.30500281002395724
0,-2199.8,-1211.34,-2219.64,-2561.19,0.3100028560899233
0,-2201.78,-1211.25,-2225.01,-2567.25,0.31500290215588933
0,-2204.2,-1217.26,-2221.17,-2571.5,0.3200029482218554
0,-2209.47,-1220.16,-2237.53,-2579.2,0.3250029942878214
0,-2211.66,-1221.84,-2234.31,-2582.07,0.33000304035378747
0,-2215.24,-1224.28,-2234.32,-2578.95,0.33500308641975707
0,-2219.14,-1228.69,-2242.69,-2579.6,0.3400031324857231
0,-2221.87,-1232.87,-2247.05,-2590.46,0.34500317855168916
0,-2224.81,-1227.24,-2239.3,-2586.98,0.3500032246176552
0,-2221.96,-1230.0,-2244.35,-2590.24,0.35500327068362125
0,-2223.6,-1224.75,-2246.26,-2588.34,0.3600033167495873
0,-2209.24,-1224.69,-2238.52,-2582.39,0.36500336281555334
0,-2214.75,-1226.54,-2238.63,-2580.67,0.3700034088815194
0,-2210.07,-1226.88,-2238.24,-2572.19,0.375003454947489
0,-2201.74,-1223.83,-2233.61,-2575.32,0.38000350101345504
0,-2195.32,-1204.39,-2210.0,-2562.79,0.3850035470794211
0,-2185.81,-1203.47,-2210.74,-2554.26,0.39000359314538713
0,-2195.94,-1210.92,-2221.0,-2559.39,0.3950036392113532
0,-2194.11,-1209.96,-2218.8,-2562.56,0.4000036852773192
0,-2197.34,-1207.68,-2214.05,-2558.99,0.40500373134328527
0,-2192.69,-1207.37,-2216.2,-2565.93,0.4100037774092513
0,-2196.52,-1206.95,-2222.81,-2567.15,0.4150038234752209
0,-2200.59,-1216.95,-2230.47,-2576.74,0.42000386954118696
0,-2204.07,-1218.62,-2227.81,-2573.94,0.425003915607153
0,-2215.69,-1222.59,-2228.21,-2580.41,0.43000396167311905
0,-2208.74,-1214.24,-2226.04,-2578.02,0.4350040077390851
0,-2211.12,-1218.45,-2227.25,-2574.34,0.44000405380505114
0,-2209.04,-1221.14,-2230.22,-2577.31,0.4450040998710172
0,-2202.85,-1218.78,-2227.3,-2572.25,0.4500041459369868
0,-2202.82,-1218.41,-2224.85,-2570.17,0.45500419200295283
0,-2198.58,-1215.21,-2223.07,-2568.07,0.4600042380689189
0,-2205.35,-1210.6,-2226.5,-2569.45,0.4650042841348849
0,-2209.1,-1220.42,-2227.27,-2572.0,0.470004330200851
0,-2212.76,-1214.3,-2225.91,-2572.53,0.475004376266817
0,-2224.58,-1218.13,-2238.35,-2581.14,0.48000442233278307
0,-2219.76,-1215.05,-2235.24,-2575.04,0.4850044683987491
0,-2221.72,-1221.8,-2236.45,-2579.93,0.4900045144647187
0,-2218.05,-1218.6,-2234.45,-2574.8,0.49500456053068476
0,-2210.99,-1220.82,-2234.25,-2573.85,0.5000046065966508
0,-2202.6,-1212.44,-2227.39,-2566.5,0.5050046526626168
0,-2204.87,-1221.61,-2228.05,-2565.26,0.5100046987285829
0,-2205.92,-1211.41,-2227.82,-2563.16,0.5150047447945489
0,-2202.45,-1212.34,-2223.39,-2570.9,0.520004790860515
0,-2199.41,-1212.88,-2224.68,-2571.39,0.5250048369264846
0,-2199.19,-1210.77,-2221.15,-2574.02,0.5300048829924506
0,-2199.47,-1212.13,-2225.15,-2575.23,0.5350049290584167
0,-2196.08,-1207.76,-2224.03,-2565.97,0.5400049751243827
0,-2195.52,-1209.1,-2215.19,-2570.61,0.5450050211903488
0,-2198.04,-1215.62,-2217.61,-2566.83,0.5500050672563148
0,-2190.58,-1204.61,-2217.02,-2563.08,0.5550051133222809
0,-2192.2,-1207.05,-2216.25,-2565.06,0.5600051593882469
0,-2200.25,-1217.23,-2224.13,-2570.02,0.5650052054542165
0,-2194.77,-1210.28,-2215.14,-2565.78,0.5700052515201826
0,-2196.9,-1211.57,-2220.24,-2565.92,0.5750052975861486
0,-2202.17,-1213.16,-2223.97,-2568.66,0.5800053436521146
0,-2206.25,-1220.71,-2227.81,-2572.2,0.5850053897180807
0,-2198.18,-1210.88,-2218.66,-2570.37,0.5900054357840467
0,-2198.11,-1219.48,-2224.52,-2569.58,0.5950054818500128
0,-2201.79,-1221.52,-2229.27,-2561.54,0.6000055279159788
0,-2202.56,-1220.51,-2224.36,-2563.02,0.6050055739819484
0,-2209.47,-1228.01,-2239.42,-2579.47,0.6100056200479145
0,-2210.36,-1229.17,-2239.43,-2582.45,0.6150056661138805
0,-2205.66,-1219.12,-2228.62,-2576.21,0.6200057121798466
0,-2203.72,-1224.5,-2231.85,-2580.28,0.6250057582458126
0,-2197.04,-1223.63,-2226.2,-2576.91,0.6300058043117787
0,-2195.67,-1214.3,-2220.81,-2566.42,0.6350058503777447
0,-2198.08,-1208.6,-2220.02,-2562.51,0.6400058964437108
0,-2198.4,-1217.57,-2218.81,-2567.9,0.6450059425096768
0,-2199.7,-1226.81,-2225.75,-2569.12,0.6500059885756428
0,-2204.81,-1225.88,-2224.21,-2570.6,0.6550060346416089
0,-2202.44,-1221.21,-2224.97,-2563.72,0.660006080707582
0,-2203.07,-1220.43,-2231.71,-2570.9,0.6650061267735481
0,-2204.22,-1216.96,-2228.1,-2570.18,0.6700061728395141
0,-2202.66,-1209.93,-2221.34,-2561.13,0.6750062189054802
0,-2202.65,-1220.35,-2225.0,-2570.17,0.6800062649714462
0,-2204.88,-1213.35,-2225.36,-2570.49,0.6850063110374123
0,-2203.99,-1223.13,-2224.06,-2564.93,0.6900063571033783
0,-2195.14,-1209.96,-2217.09,-2562.92,0.6950064031693444
0,-2189.71,-1205.88,-2217.89,-2557.76,0.7000064492353104
0,-2197.83,-1205.97,-2219.44,-2566.65,0.7050064953012765
0,-2198.9,-1215.77,-2223.65,-2563.49,0.7100065413672425
0,-2195.32,-1210.23,-2219.71,-2560.61,0.7150065874332086
0,-2197.52,-1212.04,-2224.85,-2563.99,0.7200066334991746
0,-2200.8,-1215.53,-2222.86,-2564.96,0.7250066795651406
0,-2195.48,-1210.95,-2223.54,-2559.19,0.7300067256311067
0,-2198.7,-1214.38,-2223.55,-2562.38,0.7350067716970798
0,-2192.38,-1205.9,-2213.79,-2557.56,0.7400068177630459
0,-2196.45,-1207.93,-2215.45,-2562.64,0.7450068638290119
0,-2203.09,-1209.22,-2220.49,-2564.59,0.750006909894978
0,-2204.87,-1213.11,-2223.31,-2567.26,0.755006955960944
0,-2198.33,-1211.59,-2222.32,-2564.08,0.7600070020269101
0,-2198.44,-1204.68,-2221.17,-2565.68,0.7650070480928761
0,-2198.56,-1200.64,-2223.18,-2556.94,0.7700070941588422
0,-2202.48,-1210.01,-2227.24,-2564.63,0.7750071402248082
0,-2200.82,-1212.5,-2222.53,-2565.74,0.7800071862907743
0,-2200.74,-1212.49,-2220.4,-2568.74,0.7850072323567403
0,-2192.42,-1210.32,-2219.06,-2564.25,0.7900072784227063
0,-2197.01,-1209.83,-2225.61,-2570.03,0.7950073244886724
0,-2200.6,-1214.41,-2224.73,-2564.78,0.8000073705546384
0,-2202.84,-1219.11,-2225.61,-2563.77,0.8050074166206045
0,-2206.4,-1215.66,-2231.39,-2566.1,0.8100074626865776
0,-2202.73,-1223.13,-2230.37,-2570.95,0.8150075087525437
0,-2200.05,-1212.78,-2224.75,-2568.57,0.8200075548185097
0,-2209.95,-1221.13,-2231.46,-2574.33,0.8250076008844758
0,-2217.68,-1222.51,-2236.23,-2585.43,0.8300076469504418
0,-2211.72,-1213.38,-2228.47,-2574.92,0.8350076930164079
0,-2212.53,-1228.2,-2231.94,-2578.54,0.8400077390823739
0,-2212.15,-1224.26,-2237.32,-2580.48,0.84500778514834
0,-2210.61,-1233.3,-2238.86,-2581.97,0.850007831214306
0,-2213.64,-1224.97,-2236.1,-2579.63,0.855007877280272
0,-2214.45,-1230.93,-2236.18,-2578.22,0.8600079233462381
0,-2206.05,-1220.12,-2227.07,-2577.77,0.8650079694122041
0,-2201.62,-1212.08,-2227.14,-2570.77,0.8700080154781702
0,-2203.99,-1215.23,-2226.09,-2569.52,0.8750080615441362
0,-2196.79,-1210.84,-2220.97,-2569.68,0.8800081076101023
0,-2197.2,-1207.56,-2213.32,-2558.81,0.8850081536760683
0,-2192.34,-1207.1,-2218.89,-2558.54,0.8900081997420415
0,-2196.2,-1215.3,-2220.4,-2557.91,0.8950082458080075
0,-2197.2,-1209.04,-2217.52,-2557.21,0.9000082918739736
0,-2202.82,-1209.12,-2215.02,-2556.93,0.9050083379399396
0,-2205.28,-1214.39,-2223.47,-2557.98,0.9100083840059057
0,-2211.99,-1228.67,-2233.66,-2568.48,0.9150084300718717
0,-2210.67,-1218.78,-2226.95,-2565.9,0.9200084761378378
0,-2211.45,-1220.27,-2226.93,-2572.27,0.9250085222038038
0,-2205.19,-1213.52,-2222.62,-2571.44,0.9300085682697699
0,-2202.72,-1216.79,-2221.86,-2572.99,0.9350086143357359
0,-2212.41,-1229.36,-2236.87,-2577.92,0.940008660401702
0,-2213.21,-1224.53,-2239.52,-2579.52,0.945008706467668
0,-2218.08,-1232.78,-2239.39,-2586.61,0.950008752533634
0,-2214.87,-1229.41,-2241.84,-2579.69,0.9550087985996001
0,-2212.84,-1216.48,-2236.59,-2581.68,0.9600088446655661
0,-2210.7,-1211.59,-2234.62,-2576.0,0.9650088907315393
0,-2205.69,-1205.26,-2224.98,-2569.98,0.9700089367975053
0,-2205.64,-1208.99,-2222.01,-2562.8,0.9750089828634714
0,-2204.78,-1209.09,-2223.82,-2571.31,0.9800090289294374
0,-2203.25,-1205.44,-2218.27,-2568.56,0.9850090749954035
0,-2197.85,-1207.8,-2221.93,-2563.71,0.9900091210613695
0,-2202.94,-1210.42,-2221.55,-2566.35,0.9950091671273356
0,-2195.64,-1207.88,-2219.84,-2558.26,1.0000092131933016
0,-2190.66,-1203.86,-2218.79,-2556.48,1.0050092592592677
0,-2193.76,-1202.98,-2212.0,-2551.67,1.0100093053252337
0,-2188.03,-1198.4,-2206.12,-2546.97,1.0150093513911997
0,-2204.09,-1206.66,-2221.84,-2568.07,1.0200093974571658
0,-2212.02,-1217.26,-2230.41,-2578.61,1.0250094435231318
0,-2213.37,-1220.38,-2230.92,-2581.05,1.0300094895890979
0,-2217.32,-1224.76,-2236.18,-2585.38,1.035009535655064
0,-2217.49,-1219.58,-2232.47,-2584.01,1.040009581721037
0,-2217.33,-1214.55,-2233.82,-2580.94,1.0450096277870031
0,-2213.44,-1218.5,-2227.22,-2574.31,1.0500096738529692
0,-2215.77,-1223.53,-2240.22,-2573.26,1.0550097199189352
0,-2218.01,-1220.25,-2241.78,-2580.59,1.0600097659849013
0,-2219.17,-1230.36,-2238.91,-2581.52,1.0650098120508673
0,-2216.79,-1232.08,-2236.31,-2584.84,1.0700098581168334
0,-2215.69,-1221.87,-2236.59,-2580.22,1.0750099041827994
0,-2213.14,-1219.59,-2232.56,-2583.35,1.0800099502487654
0,-2207.95,-1208.58,-2226.42,-2578.49,1.0850099963147315
0,-2209.07,-1216.52,-2226.56,-2573.76,1.0900100423806975
0,-2210.71,-1223.14,-2233.65,-2573.31,1.0950100884466636
0,-2211.43,-1220.36,-2230.56,-2574.43,1.1000101345126296
0,-2212.06,-1214.68,-2226.93,-2566.31,1.1050101805785957
0,-2208.18,-1218.97,-2226.25,-2566.29,1.1100102266445617
0,-2202.14,-1212.98,-2227.64,-2570.05,1.1150102727105349
0,-2205.89,-1215.35,-2228.79,-2576.01,1.120010318776501
0,-2208.49,-1211.92,-2230.98,-2573.47,1.125010364842467
0,-2209.17,-1211.35,-2223.29,-2571.3,1.130010410908433
0,-2203.42,-1207.59,-2226.21,-2570.7,1.135010456974399
0,-2203.47,-1210.15,-2226.87,-2577.22,1.140010503040365
0,-2204.46,-1223.91,-2228.22,-2577.47,1.1450105491063312
0,-2215.1,-1219.19,-2233.82,-2575.66,1.1500105951722972
0,-2211.01,-1219.57,-2232.46,-2574.95,1.1550106412382632
0,-2206.09,-1210.06,-2224.82,-2571.58,1.1600106873042293
0,-2193.43,-1207.91,-2221.67,-2566.03,1.1650107333701953
0,-2197.65,-1200.0,-2213.69,-2561.37,1.1700107794361614
0,-2190.78,-1197.75,-2211.0,-2558.85,1.1750108255021274
0,-2192.15,-1200.13,-2207.92,-2557.11,1.1800108715680935
0,-2201.08,-1209.43,-2214.49,-2562.91,1.1850109176340595
0,-2196.75,-1211.16,-2214.76,-2560.53,1.1900109637000327
0,-2202.03,-1213.0,-2219.74,-2565.97,1.1950110097659987
0,-2204.36,-1212.95,-2220.34,-2568.59,1.2000110558319648
0,-2200.2,-1210.74,-2217.19,-2566.38,1.2050111018979308
0,-2199.93,-1207.58,-2214.8,-2565.92,1.2100111479638969
0,-2205.57,-1213.86,-2218.25,-2560.23,1.215011194029863
0,-2205.19,-1214.25,-2218.43,-2555.17,1.220011240095829
0,-2213.16,-1222.75,-2233.6,-2572.97,1.225011286161795
0,-2210.1,-1219.9,-2230.26,-2575.29,1.230011332227761
0,-2205.99,-1217.08,-2222.4,-2568.85,1.235011378293727
0,-2196.2,-1213.35,-2220.26,-2563.07,1.2400114243596931
0,-2196.58,-1219.51,-2224.16,-2565.58,1.2450114704256592
0,-2204.37,-1220.94,-2230.05,-2573.66,1.2500115164916252
0,-2202.4,-1211.05,-2229.33,-2572.69,1.2550115625575913
0,-2204.21,-1212.87,-2223.56,-2566.33,1.2600116086235573
0,-2206.95,-1218.32,-2230.76,-2576.48,1.2650116546895234
0,-2200.43,-1216.16,-2226.78,-2573.68,1.2700117007554965
0,-2198.38,-1216.87,-2228.44,-2573.73,1.2750117468214626
0,-2198.86,-1221.3,-2223.39,-2577.32,1.2800117928874286
0,-2203.79,-1224.0,-2227.6,-2576.97,1.2850118389533947
0,-2200.09,-1218.23,-2226.64,-2574.31,1.2900118850193607
0,-2202.02,-1216.7,-2223.98,-2571.54,1.2950119310853268
0,-2203.96,-1221.06,-2227.96,-2574.32,1.3000119771512928
0,-2216.44,-1223.31,-2235.19,-2576.57,1.3050120232172588
0,-2212.98,-1221.25,-2236.7,-2577.63,1.310012069283225
0,-2207.74,-1226.33,-2232.31,-2577.71,1.315012115349191
0,-2207.12,-1223.4,-2237.73,-2576.05,1.320012161415157
0,-2214.11,-1228.71,-2233.79,-2575.64,1.325012207481123
0,-2205.63,-1223.16,-2232.86,-2575.33,1.330012253547089
0,-2203.9,-1224.65,-2229.41,-2571.54,1.3350122996130551
0,-2204.22,-1214.6,-2228.96,-2571.69,1.3400123456790212
0,-2205.54,-1213.41,-2229.3,-2570.14,1.3450123917449943
0,-2208.05,-1219.71,-2232.49,-2574.85,1.3500124378109604
0,-2198.38,-1217.82,-2226.34,-2572.5,1.3550124838769264
0,-2197.46,-1224.81,-2230.77,-2570.47,1.3600125299428925
0,-2196.59,-1214.05,-2230.07,-2568.27,1.3650125760088585
0,-2204.89,-1216.79,-2232.67,-2574.29,1.3700126220748245
0,-2202.96,-1210.96,-2231.24,-2575.84,1.3750126681407906
0,-2209.23,-1213.89,-2232.26,-2581.1,1.3800127142067566
0,-2211.45,-1213.7,-2225.81,-2580.57,1.3850127602727227
0,-2216.2,-1221.45,-2237.98,-2583.94,1.3900128063386887
0,-2215.9,-1224.7,-2233.9,-2580.44,1.3950128524046548
0,-2207.92,-1216.68,-2233.83,-2576.09,1.4000128984706208
0,-2206.47,-1215.51,-2230.46,-2574.5,1.4050129445365869
0,-2205.88,-1214.57,-2229.07,-2570.93,1.410012990602553
0,-2204.59,-1221.94,-2234.79,-2573.93,1.415013036668519
0,-2204.41,-1218.37,-2231.07,-2576.32,1.4200130827344921
0,-2200.81,-1217.04,-2227.34,-2567.67,1.4250131288004582
0,-2198.51,-1210.1,-2224.47,-2567.86,1.4300131748664242
0,-2196.01,-1205.98,-2215.27,-2560.41,1.4350132209323903
0,-2197.24,-1203.49,-2208.91,-2557.83,1.4400132669983563
0,-2196.41,-1205.48,-2220.11,-2558.97,1.4450133130643223
0,-2199.43,-1213.49,-2220.03,-2555.54,1.4500133591302884
0,-2195.47,-1204.67,-2221.01,-2558.94,1.4550134051962544
0,-2194.9,-1205.92,-2219.26,-2559.31,1.4600134512622205
0,-2195.35,-1205.26,-2216.69,-2559.78,1.4650134973281865
0,-2201.13,-1214.2,-2224.53,-2564.0,1.4700135433941526
0,-2199.51,-1216.88,-2220.94,-2565.62,1.4750135894601186
0,-2205.45,-1225.31,-2229.77,-2578.69,1.4800136355260847
0,-2211.55,-1220.67,-2227.25,-2574.76,1.4850136815920507
0,-2207.6,-1218.61,-2229.5,-2573.3,1.4900137276580168
0,-2210.98,-1216.31,-2231.86,-2575.84,1.49501377372399
0,-2214.85,-1220.08,-2230.35,-2574.54,1.500013819789956
0,-2206.44,-1216.63,-2233.44,-2571.93,1.505013865855922
0,-2213.73,-1234.85,-2242.28,-2575.95,1.510013911921888
0,-2216.63,-1229.34,-2239.15,-2581.2,1.515013957987854
0,-2216.17,-1220.98,-2234.76,-2577.73,1.5200140040538201
0,-2212.34,-1222.73,-2234.41,-2578.76,1.5250140501197862
0,-2205.33,-1221.76,-2231.55,-2574.68,1.5300140961857522
0,-2201.9,-1214.19,-2220.4,-2570.31,1.5350141422517183
0,-2201.86,-1212.69,-2224.93,-2571.53,1.5400141883176843
0,-2198.66,-1207.74,-2216.26,-2567.93,1.5450142343836504
0,-2203.8,-1204.51,-2218.45,-2570.69,1.5500142804496164
0,-2192.48,-1204.83,-2218.85,-2563.88,1.5550143265155825
0,-2191.76,-1210.21,-2217.86,-2567.75,1.5600143725815485
0,-2195.23,-1210.3,-2216.74,-2561.25,1.5650144186475146
0,-2195.64,-1209.52,-2215.37,-2554.08,1.5700144647134877
0,-2198.16,-1210.95,-2219.27,-2564.57,1.5750145107794538
0,-2197.04,-1213.15,-2222.61,-2570.06,1.5800145568454198
0,-2197.71,-1215.1,-2224.27,-2574.67,1.5850146029113859
0,-2200.71,-1214.26,-2227.88,-2568.35,1.590014648977352
0,-2208.41,-1218.52,-2227.17,-2573.98,1.595014695043318
0,-2215.74,-1219.97,-2228.77,-2574.62,1.600014741109284
0,-2210.89,-1215.3,-2229.13,-2575.44,1.60501478717525
0,-2215.88,-1226.16,-2237.01,-2579.2,1.610014833241216
0,-2213.6,-1223.14,-2235.51,-2582.93,1.6150148793071821
0,-2214.88,-1230.99,-2239.48,-2580.94,1.6200149253731482
0,-2213.15,-1223.24,-2238.14,-2578.95,1.6250149714391142
0,-2215.32,-1222.48,-2234.25,-2580.52,1.6300150175050803
0,-2211.03,-1215.51,-2231.19,-2576.97,1.6350150635710463
0,-2211.95,-1219.88,-2233.21,-2579.11,1.6400151096370124
0,-2213.82,-1219.85,-2231.12,-2572.04,1.6450151557029784
0,-2211.69,-1216.08,-2232.27,-2573.94,1.6500152017689516
0,-2214.18,-1223.16,-2233.57,-2579.41,1.6550152478349176
0,-2211.31,-1218.05,-2233.52,-2571.07,1.6600152939008836
0,-2215.96,-1220.06,-2232.25,-2573.55,1.6650153399668497
0,-2207.36,-1217.06,-2226.33,-2570.93,1.6700153860328157
0,-2208.13,-1216.76,-2231.59,-2565.44,1.6750154320987818
0,-2206.12,-1213.59,-2228.48,-2567.4,1.6800154781647478
0,-2212.1,-1220.66,-2228.78,-2577.46,1.6850155242307139
0,-2201.13,-1213.61,-2228.76,-2568.69,1.69001557029668
0,-2205.86,-1215.59,-2226.12,-2572.2,1.695015616362646
0,-2206.23,-1216.12,-2224.4,-2576.63,1.700015662428612
0,-2205.97,-1214.87,-2229.33,-2579.71,1.705015708494578
0,-2210.17,-1210.11,-2226.17,-2578.11,1.710015754560544
0,-2204.44,-1218.12,-2224.92,-2572.97,1.7150158006265102
0,-2213.49,-1221.81,-2229.08,-2574.29,1.7200158466924762
0,-2216.89,-1225.68,-2236.61,-2585.44,1.7250158927584494
0,-2213.63,-1224.8,-2235.32,-2575.37,1.7300159388244154
0,-2213.4,-1228.32,-2236.56,-2576.06,1.7350159848903814
0,-2210.84,-1219.26,-2232.09,-2572.9,1.7400160309563475
0,-2206.38,-1214.05,-2223.07,-2568.74,1.7450160770223135
0,-2202.35,-1205.7,-2222.27,-2569.59,1.7500161230882796
0,-2202.77,-1212.53,-2228.28,-2566.58,1.7550161691542456
0,-2200.51,-1215.45,-2222.37,-2561.9,1.7600162152202117
0,-2201.65,-1219.85,-2221.17,-2568.04,1.7650162612861777
0,-2201.1,-1213.0,-2217.61,-2564.33,1.7700163073521438
0,-2197.43,-1208.97,-2213.38,-2566.05,1.7750163534181098
0,-2196.21,-1218.15,-2220.92,-2565.89,1.7800163994840759
0,-2203.17,-1216.47,-2221.41,-2571.59,1.785016445550042
0,-2200.11,-1214.43,-2225.09,-2565.24,1.790016491616008
0,-2197.73,-1216.98,-2224.35,-2569.38,1.795016537681974
0,-2195.0,-1216.39,-2221.83,-2565.14,1.8000165837479472
0,-2202.12,-1219.32,-2224.39,-2574.49,1.8050166298139132
0,-2203.05,-1218.59,-2220.18,-2573.36,1.8100166758798792
0,-2208.39,-1218.38,-2224.83,-2574.97,1.8150167219458453
0,-2207.08,-1220.45,-2223.32,-2572.36,1.8200167680118113
0,-2203.91,-1222.89,-2231.9,-2572.36,1.8250168140777774
0,-2210.09,-1218.7,-2233.84,-2575.88,1.8300168601437434
0,-2214.71,-1219.73,-2234.72,-2575.14,1.8350169062097095
0,-2214.75,-1215.12,-2229.09,-2575.0,1.8400169522756755
0,-2212.96,-1217.98,-2231.99,-2573.04,1.8450169983416416
0,-2217.74,-1226.23,-2241.37,-2579.45,1.8500170444076076
0,-2219.19,-1224.2,-2240.46,-2583.38,1.8550170904735737
0,-2220.51,-1231.82,-2242.18,-2581.59,1.8600171365395397
0,-2212.2,-1226.53,-2233.41,-2573.69,1.8650171826055058
0,-2214.09,-1220.47,-2236.7,-2580.96,1.8700172286714718
0,-2209.65,-1218.92,-2238.08,-2575.83,1.875017274737445
0,-2212.72,-1221.94,-2228.88,-2571.16,1.880017320803411
0,-2208.79,-1222.83,-2231.48,-2567.21,1.885017366869377
0,-2201.44,-1216.11,-2229.32,-2564.61,1.890017412935343
0,-2209.36,-1221.69,-2227.67,-2575.32,1.8950174590013091
0,-2205.51,-1221.09,-2224.0,-2567.96,1.9000175050672752
0,-2198.37,-1220.73,-2222.2,-2565.98,1.9050175511332412
0,-2200.39,-1210.27,-2222.25,-2565.8,1.9100175971992073
0,-2202.54,-1212.83,-2225.97,-2565.9,1.9150176432651733
0,-2195.45,-1208.23,-2218.12,-2560.11,1.9200176893311394
0,-2202.2,-1210.04,-2219.22,-2568.73,1.9250177353971054
0,-2198.2,-1206.42,-2215.83,-2568.37,1.9300177814630715
0,-2200.62,-1204.57,-2222.15,-2568.01,1.9350178275290375
0,-2201.19,-1216.47,-2221.19,-2569.86,1.9400178735950036
0,-2204.51,-1219.8,-2221.74,-2572.71,1.9450179196609696
0,-2199.67,-1219.13,-2223.57,-2570.46,1.9500179657269427
0,-2204.99,-1214.37,-2223.67,-2571.53,1.9550180117929088
0,-2198.24,-1212.21,-2224.1,-2568.85,1.9600180578588748
0,-2197.45,-1210.68,-2218.46,-2571.58,1.9650181039248409
0,-2196.94,-1210.7,-2225.2,-2569.61,1.970018149990807
0,-2192.96,-1206.08,-2221.25,-2560.3,1.975018196056773
0,-2190.52,-1210.63,-2221.84,-2567.81,1.980018242122739
0,-2198.38,-1213.07,-2225.8,-2571.54,1.985018288188705
0,-2200.54,-1210.67,-2223.86,-2569.57,1.9900183342546711
0,-2201.05,-1208.23,-2227.9,-2567.65,1.9950183803206372
0,-2202.04,-1208.66,-2221.42,-2568.6,2.000018426386603
0,-2198.42,-1214.53,-2222.58,-2561.41,2.0050184724525693
0,-2201.13,-1212.0,-2224.34,-2567.16,2.0100185185185353
0,-2203.35,-1221.49,-2225.87,-2568.07,2.0150185645845013
0,-2205.45,-1216.05,-2230.25,-2568.53,2.0200186106504674
0,-2199.65,-1212.75,-2224.51,-2564.9,2.0250186567164334
0,-2198.36,-1213.36,-2225.88,-2561.91,2.0300187027824066
0,-2210.8,-1219.66,-2236.84,-2570.89,2.0350187488483726
0,-2210.81,-1222.88,-2234.65,-2567.72,2.0400187949143387
0,-2211.69,-1219.01,-2229.6,-2568.66,2.0450188409803047
0,-2206.6,-1220.33,-2229.95,-2564.86,2.0500188870462708
0,-2196.01,-1211.8,-2224.1,-2564.17,2.055018933112237
0,-2201.58,-1206.11,-2217.1,-2564.41,2.060018979178203
0,-2206.27,-1211.59,-2224.57,-2566.09,2.065019025244169
0,-2205.37,-1217.37,-2224.22,-2563.5,2.070019071310135
0,-2205.27,-1212.5,-2220.23,-2563.08,2.075019117376101
0,-2202.38,-1212.8,-2222.45,-2568.58,2.080019163442067
0,-2200.89,-1213.24,-2226.99,-2567.39,2.085019209508033
0,-2205.75,-1213.88,-2226.06,-2575.21,2.090019255573999
0,-2202.8,-1207.83,-2219.89,-2567.63,2.095019301639965
0,-2204.56,-1213.81,-2226.97,-2571.58,2.1000193477059312
0,-2203.67,-1215.08,-2227.38,-2569.07,2.1050193937719044
0,-2212.07,-1227.93,-2234.51,-2577.48,2.1100194398378704
0,-2222.66,-1225.91,-2235.91,-2583.84,2.1150194859038365
0,-2218.26,-1233.24,-2238.7,-2580.11,2.1200195319698025
0,-2215.29,-1226.53,-2238.52,-2581.31,2.1250195780357686
0,-2211.67,-1221.1,-2238.1,-2578.73,2.1300196241017346
0,-2213.87,-1218.51,-2232.9,-2575.21,2.1350196701677007
0,-2208.8,-1218.08,-2233.12,-2576.11,2.1400197162336667
0,-2209.15,-1214.12,-2229.38,-2572.03,2.1450197622996328
0,-2204.68,-1215.87,-2229.02,-2574.84,2.150019808365599
0,-2204.25,-1213.06,-2223.38,-2568.81,2.155019854431565
0,-2203.91,-1220.66,-2226.86,-2574.12,2.160019900497531
0,-2203.29,-1224.37,-2227.54,-2571.14,2.165019946563497
0,-2210.77,-1226.32,-2236.99,-2580.72,2.170019992629463
0,-2210.12,-1210.87,-2227.32,-2571.51,2.175020038695429
0,-2207.9,-1214.91,-2233.16,-2576.41,2.180020084761402
0,-2207.74,-1212.48,-2234.18,-2569.71,2.1850201308273682
0,-2205.07,-1218.12,-2228.47,-2572.2,2.1900201768933343
0,-2206.72,-1222.06,-2229.91,-2575.02,2.1950202229593003
0,-2216.6,-1221.23,-2232.67,-2576.84,2.2000202690252664
0,-2202.23,-1222.15,-2230.81,-2571.45,2.2050203150912324
0,-2205.56,-1218.25,-2228.4,-2576.42,2.2100203611571985
0,-2207.49,-1217.77,-2228.82,-2571.37,2.2150204072231645
0,-2205.01,-1220.86,-2228.92,-2577.13,2.2200204532891306
0,-2213.2,-1219.87,-2227.22,-2578.66,2.2250204993550966
0,-2209.55,-1221.0,-2233.33,-2582.74,2.2300205454210626
0,-2207.82,-1219.7,-2230.75,-2578.52,2.2350205914870287
0,-2203.38,-1214.04,-2223.25,-2566.77,2.2400206375529947
0,-2203.62,-1218.37,-2224.35,-2568.87,2.245020683618961
0,-2206.88,-1216.06,-2228.43,-2576.08,2.250020729684927
0,-2207.55,-1219.52,-2227.1,-2580.19,2.2550207757509
0,-2208.85,-1214.59,-2233.5,-2573.68,2.260020821816866
0,-2208.63,-1221.19,-2232.7,-2575.2,2.265020867882832
0,-2204.13,-1224.83,-2230.48,-2577.17,2.270020913948798
0,-2203.64,-1214.22,-2227.98,-2574.78,2.275020960014764
0,-2204.73,-1216.8,-2221.94,-2572.16,2.28002100608073
0,-2205.08,-1219.42,-2227.04,-2575.47,2.2850210521466963
0,-2198.53,-1221.78,-2227.97,-2574.06,2.2900210982126623
0,-2198.27,-1215.12,-2224.08,-2566.68,2.2950211442786284
0,-2196.42,-1212.08,-2220.68,-2567.97,2.3000211903445944
0,-2201.94,-1208.91,-2221.38,-2568.0,2.3050212364105604
0,-2201.61,-1210.3,-2218.32,-2562.62,2.3100212824765265
0,-2198.71,-1212.34,-2218.1,-2564.21,2.3150213285424925
0,-2197.47,-1206.47,-2217.81,-2561.5,2.3200213746084586
0,-2190.84,-1194.73,-2210.41,-2555.62,2.3250214206744246
0,-2196.57,-1218.12,-2220.15,-2564.0,2.330021466740398
0,-2201.37,-1219.53,-2227.99,-2566.67,2.335021512806364
0,-2202.47,-1216.58,-2218.04,-2564.8,2.34002155887233
0,-2208.29,-1214.5,-2227.25,-2561.67,2.345021604938296
0,-2208.52,-1218.24,-2228.11,-2568.69,2.350021651004262
0,-2209.14,-1214.74,-2230.57,-2570.94,2.355021697070228
0,-2210.54,-1219.49,-2229.14,-2572.64,2.360021743136194
0,-2214.79,-1221.77,-2234.42,-2572.54,2.36502178920216
0,-2216.24,-1218.53,-2233.14,-2574.35,2.370021835268126
0,-2212.18,-1221.16,-2230.22,-2574.02,2.375021881334092
0,-2210.98,-1219.17,-2225.49,-2569.37,2.3800219274000582
0,-2213.98,-1215.28,-2232.39,-2571.39,2.3850219734660243
0,-2213.25,-1219.04,-2234.81,-2577.07,2.3900220195319903
0,-2212.01,-1223.86,-2230.39,-2573.05,2.3950220655979564
0,-2215.06,-1219.57,-2237.52,-2580.68,2.4000221116639224
0,-2210.89,-1220.08,-2228.63,-2569.42,2.4050221577298885
0,-2220.47,-1228.71,-2231.7,-2563.05,2.4100222037958616
0,-2213.95,-1221.47,-2237.71,-2576.32,2.4150222498618277
0,-2203.59,-1211.4,-2227.2,-2570.6,2.4200222959277937
0,-2193.6,-1215.81,-2222.65,-2562.5,2.4250223419937598
0,-2197.35,-1209.12,-2215.66,-2563.25,2.430022388059726
0,-2188.01,-1206.71,-2215.66,-2560.37,2.435022434125692
0,-2194.47,-1208.4,-2216.48,-2563.38,2.440022480191658
0,-2200.23,-1209.0,-2222.25,-2570.2,2.445022526257624
0,-2198.68,-1213.43,-2224.52,-2573.56,2.45002257232359
0,-2200.16,-1209.11,-2215.22,-2566.82,2.455022618389556
0,-2201.66,-1215.92,-2223.83,-2570.75,2.460022664455522
0,-2196.08,-1213.31,-2221.15,-2570.37,2.465022710521488
0,-2200.39,-1209.35,-2221.38,-2572.5,2.470022756587454
0,-2198.86,-1212.83,-2221.27,-2569.07,2.4750228026534202
0,-2196.11,-1209.76,-2219.93,-2565.38,2.4800228487193863
0,-2201.74,-1211.76,-2221.17,-2570.73,2.4850228947853594
0,-2207.16,-1216.08,-2226.17,-2569.57,2.4900229408513255
0,-2203.39,-1216.81,-2221.09,-2568.58,2.4950229869172915
0,-2205.46,-1213.18,-2221.31,-2569.43,2.5000230329832576
0,-2204.92,-1213.97,-2223.21,-2573.08,2.5050230790492236
0,-2202.19,-1215.62,-2228.74,-2571.51,2.5100231251151897
0,-2201.33,-1222.68,-2230.27,-2575.14,2.5150231711811557
0,-2201.02,-1218.29,-2225.08,-2568.67,2.5200232172471217
0,-2202.0,-1223.44,-2233.92,-2576.88,2.525023263313088
0,-2210.28,-1224.14,-2226.06,-2572.54,2.530023309379054
0,-2208.81,-1216.93,-2228.52,-2573.15,2.53502335544502
0,-2209.13,-1223.84,-2231.97,-2577.67,2.540023401510986
0,-2202.72,-1225.72,-2240.31,-2580.32,2.545023447576952
0,-2206.62,-1226.74,-2237.3,-2580.4,2.550023493642918
0,-2208.01,-1219.61,-2234.7,-2578.13,2.555023539708884
0,-2210.22,-1218.15,-2229.81,-2575.96,2.5600235857748572
0,-2203.99,-1221.38,-2229.17,-2573.21,2.5650236318408233
0,-2206.43,-1218.98,-2227.97,-2571.36,2.5700236779067893
0,-2207.95,-1216.74,-2227.37,-2562.3,2.5750237239727554
0,-2203.8,-1209.41,-2223.53,-2563.56,2.5800237700387214
0,-2206.97,-1210.76,-2229.04,-2568.91,2.5850238161046875
0,-2207.57,-1216.69,-2232.38,-2573.23,2.5900238621706535
0,-2206.77,-1225.3,-2233.74,-2569.74,2.5950239082366195
0,-2207.32,-1222.52,-2228.71,-2567.94,2.6000239543025856
0,-2205.01,-1217.65,-2228.5,-2574.18,2.6050240003685516
0,-2205.39,-1219.2,-2234.77,-2571.67,2.6100240464345177
0,-2211.16,-1221.45,-2230.56,-2569.01,2.6150240925004837
0,-2207.49,-1226.51,-2235.59,-2569.59,2.62002413856645
0,-2210.64,-1225.54,-2233.78,-2577.04,2.625024184632416
0,-2202.4,-1221.17,-2227.73,-2567.41,2.630024230698382
0,-2199.46,-1214.23,-2221.57,-2565.09,2.635024276764355
0,-2206.37,-1219.44,-2229.59,-2568.52,2.640024322830321
0,-2213.32,-1229.45,-2231.33,-2568.88,2.645024368896287
0,-2199.97,-1218.17,-2225.45,-2569.99,2.650024414962253
0,-2201.93,-1215.56,-2229.98,-2563.2,2.655024461028219
0,-2202.27,-1217.49,-2223.54,-2564.36,2.6600245070941853
0,-2204.29,-1217.38,-2224.42,-2570.92,2.6650245531601513
0,-2201.78,-1207.96,-2225.18,-2565.4,2.6700245992261173
0,-2193.72,-1207.81,-2217.54,-2562.18,2.6750246452920834
0,-2196.59,-1209.12,-2220.15,-2570.13,2.6800246913580494
0,-2191.59,-1210.59,-2214.56,-2564.17,2.6850247374240155
0,-2192.63,-1206.46,-2211.08,-2565.92,2.6900247834899815
0,-2196.82,-1207.76,-2220.91,-2570.66,2.6950248295559476
0,-2204.12,-1208.0,-2220.72,-2574.62,2.7000248756219136
0,-2196.41,-1205.45,-2221.43,-2569.37,2.7050249216878797
0,-2204.44,-1212.12,-2226.7,-2566.07,2.710024967753853
0,-2205.63,-1214.94,-2225.04,-2572.21,2.715025013819819
0,-2202.52,-1215.42,-2226.47,-2570.77,2.720025059885785
0,-2204.07,-1215.57,-2229.79,-2574.01,2.725025105951751
0,-2210.47,-1221.43,-2232.72,-2571.98,2.730025152017717
0,-2205.48,-1219.15,-2228.99,-2573.58,2.735025198083683
0,-2207.58,-1220.03,-2235.13,-2573.17,2.740025244149649
0,-2209.63,-1223.97,-2232.55,-2576.41,2.745025290215615
0,-2211.54,-1217.07,-2231.47,-2573.4,2.750025336281581
0,-2213.83,-1221.34,-2233.88,-2574.46,2.7550253823475472
0,-2217.2,-1228.2,-2240.4,-2580.05,2.7600254284135133
0,-2219.66,-1227.06,-2235.86,-2576.22,2.7650254744794793
0,-2218.54,-1225.28,-2232.47,-2574.8,2.7700255205454454
0,-2213.61,-1214.08,-2228.2,-2572.13,2.7750255666114114
0,-2214.36,-1219.22,-2231.84,-2576.12,2.7800256126773775
0,-2208.85,-1219.1,-2229.84,-2576.92,2.7850256587433435
0,-2213.92,-1218.17,-2229.71,-2568.31,2.7900257048093167
0,-2216.41,-1219.27,-2231.44,-2571.46,2.7950257508752827
0,-2219.33,-1216.58,-2234.84,-2569.26,2.8000257969412488
0,-2216.67,-1222.12,-2234.84,-2571.03,2.805025843007215
0,-2210.94,-1221.8,-2228.66,-2570.46,2.810025889073181
0,-2206.63,-1221.46,-2229.57,-2565.68,2.815025935139147
0,-2209.91,-1220.76,-2223.64,-2565.86,2.820025981205113
0,-2203.34,-1214.98,-2222.22,-2564.98,2.825026027271079
0,-2206.08,-1215.04,-2225.72,-2569.83,2.830026073337045
0,-2203.41,-1220.59,-2227.36,-2567.06,2.835026119403011
0,-2201.88,-1208.41,-2218.8,-2564.28,2.840026165468977
0,-2200.73,-1209.78,-2221.94,-2568.07,2.845026211534943
0,-2204.8,-1209.82,-2224.81,-2568.96,2.850026257600909
0,-2199.3,-1207.5,-2217.64,-2563.89,2.8550263036668753
0,-2199.06,-1211.54,-2225.38,-2562.26,2.8600263497328413
0,-2200.6,-1201.18,-2216.78,-2555.06,2.8650263957988145
0,-2196.06,-1205.41,-2220.43,-2564.85,2.8700264418647805
0,-2188.67,-1201.71,-2217.01,-2564.39,2.8750264879307466
0,-2197.77,-1202.73,-2222.22,-2571.59,2.8800265339967126
0,-2205.55,-1217.63,-2227.36,-2575.86,2.8850265800626786
0,-2199.02,-1212.49,-2219.2,-2569.39,2.8900266261286447
0,-2204.09,-1215.78,-2225.14,-2572.97,2.8950266721946107
0,-2204.3,-1220.8,-2229.88,-2576.76,2.900026718260577
0,-2201.3,-1211.49,-2224.67,-2568.41,2.905026764326543
0,-2207.23,-1216.35,-2225.11,-2569.22,2.910026810392509
0,-2199.96,-1214.94,-2221.7,-2564.49,2.915026856458475
0,-2201.6,-1216.52,-2224.66,-2567.86,2.920026902524441
0,-2200.7,-1214.86,-2222.43,-2573.5,2.925026948590407
0,-2202.8,-1215.95,-2227.15,-2574.56,2.930026994656373
0,-2201.86,-1206.4,-2220.49,-2565.81,2.935027040722339
0,-2206.51,-1219.2,-2228.45,-2565.09,2.9400270867883123
0,-2207.73,-1226.43,-2225.88,-2572.48,2.9450271328542783
0,-2203.09,-1212.65,-2218.5,-2564.82,2.9500271789202444
0,-2201.69,-1216.39,-2224.25,-2562.34,2.9550272249862104
0,-2212.43,-1218.77,-2225.42,-2570.59,2.9600272710521764
0,-2213.93,-1225.47,-2234.94,-2572.87,2.9650273171181425
0,-2206.64,-1220.22,-2234.45,-2569.27,2.9700273631841085
0,-2213.67,-1223.41,-2234.12,-2572.44,2.9750274092500746
0,-2211.0,-1226.81,-2228.23,-2572.35,2.9800274553160406
0,-2205.16,-1217.15,-2227.73,-2564.12,2.9850275013820067
0,-2208.74,-1219.92,-2232.6,-2568.51,2.9900275474479727
0,-2211.95,-1221.88,-2233.72,-2569.89,2.9950275935139388
0,-2208.1,-1219.18,-2229.48,-2572.1,3.000027639579905
0,-2205.64,-1218.12,-2229.71,-2564.0,3.005027685645871
0,-2199.61,-1208.89,-2217.79,-2556.28,3.010027731711837
0,-2195.14,-1217.34,-2222.41,-2563.99,3.01502777777781
0,-2196.09,-1217.82,-2220.69,-2553.58,3.020027823843776
0,-2205.78,-1217.48,-2226.93,-2560.06,3.025027869909742
0,-2208.44,-1220.07,-2233.71,-2577.6,3.030027915975708
0,-2200.3,-1217.05,-2232.19,-2571.34,3.0350279620416742
0,-2195.9,-1209.08,-2220.61,-2561.33,3.0400280081076403
0,-2202.75,-1212.98,-2224.68,-2564.57,3.0450280541736063
0,-2201.61,-1214.81,-2222.65,-2573.33,3.0500281002395724
0,-2203.78,-1218.51,-2224.34,-2568.1,3.0550281463055384
0,-2206.09,-1218.15,-2231.91,-2572.38,3.0600281923715045
0,-2206.02,-1214.92,-2228.61,-2571.32,3.0650282384374705
0,-2207.25,-1219.71,-2235.22,-2576.08,3.0700282845034366
0,-2205.57,-1223.5,-2231.94,-2578.17,3.0750283305694026
0,-2209.44,-1221.63,-2235.04,-2578.24,3.0800283766353687
0,-2216.04,-1223.49,-2241.22,-2583.55,3.0850284227013347
0,-2207.37,-1220.96,-2233.9,-2582.06,3.090028468767308
0,-2203.27,-1219.6,-2227.97,-2580.11,3.095028514833274
0,-2209.18,-1211.3,-2227.99,-2577.2,3.10002856089924
0,-2200.64,-1205.46,-2218.55,-2576.39,3.105028606965206
0,-2198.63,-1207.48,-2221.74,-2571.17,3.110028653031172
0,-2197.25,-1204.29,-2221.4,-2566.74,3.115028699097138
0,-2204.34,-1207.73,-2222.92,-2572.7,3.120028745163104
0,-2205.84,-1209.15,-2223.12,-2571.32,3.12502879122907
0,-2215.13,-1220.7,-2231.11,-2577.72,3.1300288372950362
0,-2212.51,-1222.51,-2235.67,-2581.05,3.1350288833610023
0,-2208.86,-1222.7,-2227.86,-2580.99,3.1400289294269683
0,-2214.88,-1223.93,-2236.99,-2585.05,3.1450289754929344
0,-2211.46,-1223.18,-2233.19,-2582.46,3.1500290215589004
0,-2208.98,-1222.43,-2235.71,-2580.53,3.1550290676248665
0,-2207.43,-1214.98,-2230.56,-2579.41,3.1600291136908325
0,-2214.56,-1223.0,-2233.37,-2579.37,3.1650291597567985
0,-2214.02,-1231.52,-2239.14,-2587.48,3.1700292058227717
0,-2214.99,-1226.89,-2243.16,-2588.1,3.1750292518887377
0,-2212.69,-1227.91,-2237.48,-2583.73,3.180029297954704
0,-2213.96,-1224.63,-2238.27,-2581.77,3.18502934402067
0,-2202.44,-1217.47,-2231.54,-2571.13,3.190029390086636
0,-2203.09,-1215.09,-2229.35,-2570.35,3.195029436152602
0,-2200.74,-1218.38,-2225.5,-2572.26,3.200029482218568
0,-2205.58,-1217.14,-2220.5,-2570.22,3.205029528284534
0,-2206.55,-1211.46,-2224.6,-2570.31,3.2100295743505
0,-2204.4,-1214.78,-2224.41,-2569.21,3.215029620416466
0,-2199.81,-1213.4,-2218.31,-2563.21,3.220029666482432
0,-2199.8,-1218.78,-2224.81,-2566.99,3.225029712548398
0,-2204.41,-1220.42,-2228.18,-2568.23,3.2300297586143643
0,-2200.21,-1218.32,-2227.5,-2572.03,3.2350298046803303
0,-2204.27,-1212.89,-2227.04,-2572.06,3.2400298507462963
0,-2200.16,-1215.6,-2226.78,-2565.79,3.2450298968122695
0,-2204.05,-1215.94,-2222.2,-2566.22,3.2500299428782355
0,-2206.13,-1209.57,-2220.56,-2565.03,3.2550299889442016
0,-2209.09,-1213.44,-2228.78,-2572.74,3.2600300350101676
0,-2202.21,-1211.62,-2223.55,-2572.02,3.2650300810761337
0,-2205.27,-1217.2,-2233.25,-2572.7,3.2700301271420997
0,-2205.77,-1217.92,-2228.47,-2574.47,3.2750301732080658
0,-2206.68,-1217.47,-2229.96,-2569.83,3.280030219274032
0,-2204.68,-1215.43,-2228.12,-2573.57,3.285030265339998
0,-2207.34,-1214.04,-2226.57,-2570.95,3.290030311405964
0,-2210.84,-1216.01,-2232.35,-2574.21,3.29503035747193
0,-2205.93,-1214.1,-2229.38,-2572.82,3.300030403537896
0,-2209.33,-1218.24,-2231.33,-2575.69,3.305030449603862
0,-2210.22,-1222.34,-2231.47,-2572.91,3.310030495669828
0,-2218.03,-1219.58,-2230.25,-2575.15,3.315030541735794
0,-2211.45,-1222.73,-2231.99,-2575.49,3.3200305878017673
0,-2209.08,-1224.53,-2234.35,-2571.55,3.3250306338677333
0,-2216.74,-1224.55,-2233.64,-2574.76,3.3300306799336994
0,-2213.08,-1218.71,-2235.05,-2571.67,3.3350307259996654
0,-2210.61,-1208.31,-2227.97,-2569.88,3.3400307720656315
0,-2208.36,-1213.2,-2228.96,-2564.8,3.3450308181315975
0,-2207.81,-1215.49,-2226.51,-2562.76,3.3500308641975636
0,-2207.01,-1222.6,-2226.96,-2565.67,3.3550309102635296
0,-2203.76,-1215.21,-2229.75,-2560.6,3.3600309563294957
0,-2211.25,-1218.73,-2228.37,-2564.5,3.3650310023954617
0,-2207.45,-1209.89,-2219.97,-2559.94,3.3700310484614278
0,-2204.7,-1213.73,-2228.66,-2564.54,3.375031094527394
0,-2205.78,-1214.32,-2227.5,-2560.92,3.38003114059336
0,-2198.81,-1210.33,-2226.31,-2558.59,3.385031186659326
0,-2204.11,-1220.0,-2227.74,-2564.07,3.390031232725292
0,-2212.0,-1218.61,-2228.63,-2557.9,3.395031278791265
0,-2211.03,-1219.18,-2228.97,-2564.72,3.400031324857231
0,-2201.57,-1208.66,-2218.53,-2563.62,3.405031370923197
0,-2203.29,-1218.11,-2224.83,-2571.86,3.4100314169891632
0,-2201.55,-1220.67,-2227.22,-2572.7,3.4150314630551293
0,-2202.57,-1218.35,-2226.17,-2569.43,3.4200315091210953
0,-2196.77,-1208.89,-2213.95,-2565.11,3.4250315551870614
0,-2204.89,-1210.33,-2219.24,-2569.75,3.4300316012530274
0,-2206.87,-1215.6,-2222.11,-2566.07,3.4350316473189935
0,-2207.1,-1213.78,-2220.6,-2570.61,3.4400316933849595
0,-2205.97,-1212.08,-2225.92,-2572.2,3.4450317394509256
0,-2199.67,-1213.94,-2225.62,-2568.15,3.4500317855168916
0,-2204.37,-1213.38,-2231.02,-2575.19,3.4550318315828576
0,-2204.57,-1216.41,-2227.88,-2577.45,3.4600318776488237
0,-2205.61,-1214.68,-2226.32,-2577.01,3.4650319237147897
0,-2202.6,-1208.04,-2227.34,-2570.62,3.470031969780763
0,-2208.19,-1213.69,-2225.39,-2574.14,3.475032015846729
0,-2205.57,-1216.58,-2236.0,-2574.52,3.480032061912695
0,-2208.51,-1218.1,-2231.29,-2575.09,3.485032107978661
0,-2207.85,-1220.66,-2228.24,-2581.39,3.490032154044627
0,-2206.11,-1220.77,-2232.16,-2577.59,3.495032200110593
0,-2206.72,-1222.49,-2233.92,-2578.88,3.500032246176559
0,-2206.73,-1217.5,-2229.15,-2575.65,3.505032292242525
0,-2206.5,-1214.84,-2226.7,-2578.23,3.5100323383084913
0,-2208.92,-1222.2,-2229.89,-2574.63,3.5150323843744573
0,-2209.3,-1224.42,-2233.88,-2574.89,3.5200324304404234
0,-2212.93,-1226.41,-2234.57,-2576.58,3.5250324765063894
0,-2218.77,-1224.17,-2246.02,-2580.39,3.5300325225723554
0,-2219.63,-1230.57,-2242.76,-2583.03,3.5350325686383215
0,-2210.53,-1228.22,-2239.18,-2581.88,3.5400326147042875
0,-2218.45,-1235.27,-2239.04,-2581.98,3.5450326607702536
0,-2215.34,-1228.42,-2232.54,-2578.24,3.5500327068362267
0,-2217.48,-1225.82,-2239.41,-2576.94,3.555032752902193
0,-2215.8,-1225.13,-2233.19,-2577.74,3.560032798968159
0,-2212.29,-1219.84,-2230.3,-2574.82,3.565032845034125
0,-2210.36,-1222.76,-2236.91,-2574.89,3.570032891100091
0,-2208.47,-1226.5,-2229.49,-2573.89,3.575032937166057
0,-2207.35,-1221.09,-2233.4,-2574.58,3.580032983232023
0,-2216.91,-1220.86,-2238.23,-2573.69,3.585033029297989
0,-2208.64,-1221.1,-2233.59,-2570.49,3.590033075363955
0,-2211.15,-1229.04,-2232.11,-2569.07,3.595033121429921
0,-2204.66,-1217.97,-2232.81,-2571.42,3.600033167495887
0,-2201.04,-1219.33,-2231.35,-2574.77,3.6050332135618532
0,-2208.31,-1221.49,-2229.32,-2577.04,3.6100332596278193
0,-2207.89,-1213.31,-2226.01,-2571.39,3.6150333056937853
0,-2207.89,-1211.54,-2229.83,-2567.63,3.6200333517597514
0,-2204.96,-1207.76,-2225.63,-2562.43,3.6250333978257245
0,-2203.72,-1207.38,-2218.1,-2565.58,3.6300334438916906
0,-2201.89,-1209.42,-2219.29,-2564.63,3.6350334899576566
0,-2201.26,-1202.21,-2217.84,-2563.08,3.6400335360236227
0,-2196.92,-1198.06,-2213.26,-2563.03,3.6450335820895887
0,-2197.4,-1206.14,-2218.59,-2563.73,3.6500336281555548
0,-2198.32,-1201.73,-2216.87,-2566.51,3.655033674221521
0,-2203.92,-1210.4,-2221.15,-2570.91,3.660033720287487
0,-2202.66,-1216.78,-2216.08,-2564.74,3.665033766353453
0,-2198.05,-1211.93,-2221.49,-2565.1,3.670033812419419
0,-2201.6,-1216.75,-2224.92,-2560.57,3.675033858485385
0,-2199.64,-1217.14,-2214.77,-2556.22,3.680033904551351
0,-2188.45,-1211.49,-2215.57,-2565.9,3.685033950617317
0,-2190.22,-1204.83,-2218.49,-2560.09,3.690033996683283
0,-2197.12,-1207.19,-2218.84,-2564.48,3.695034042749249
0,-2194.69,-1209.78,-2214.59,-2566.22,3.7000340888152223
0,-2198.51,-1216.35,-2221.77,-2571.29,3.7050341348811884
0,-2205.22,-1211.45,-2221.01,-2565.18,3.7100341809471544
0,-2205.5,-1207.46,-2225.9,-2568.39,3.7150342270131205
0,-2205.98,-1212.97,-2225.99,-2567.49,3.7200342730790865
0,-2206.46,-1217.72,-2225.1,-2567.96,3.7250343191450526
0,-2204.57,-1215.1,-2224.33,-2572.93,3.7300343652110186
0,-2204.06,-1216.35,-2225.19,-2571.08,3.7350344112769847
0,-2200.21,-1214.62,-2225.72,-2565.81,3.7400344573429507
0,-2206.75,-1210.23,-2225.6,-2572.87,3.7450345034089167
0,-2208.24,-1210.0,-2229.71,-2566.13,3.750034549474883
0,-2203.69,-1219.39,-2224.56,-2565.78,3.755034595540849
0,-2204.39,-1217.69,-2227.32,-2569.75,3.760034641606815
0,-2207.4,-1220.23,-2225.24,-2574.65,3.765034687672781
0,-2210.26,-1214.35,-2226.21,-2573.52,3.770034733738747
0,-2213.91,-1218.61,-2237.08,-2575.25,3.77503477980472
0,-2206.78,-1212.46,-2229.5,-2573.59,3.780034825870686
0,-2201.22,-1217.42,-2225.5,-2574.1,3.7850348719366522
0,-2205.52,-1225.09,-2231.35,-2572.27,3.7900349180026183
0,-2208.69,-1221.25,-2228.38,-2570.03,3.7950349640685843
0,-2207.23,-1218.17,-2228.57,-2570.38,3.8000350101345504
0,-2205.53,-1216.65,-2235.67,-2567.75,3.8050350562005164
0,-2208.91,-1223.12,-2229.52,-2572.84,3.8100351022664825
0,-2211.66,-1225.7,-2236.35,-2570.41,3.8150351483324485
0,-2211.18,-1224.8,-2240.27,-2575.19,3.8200351943984145
0,-2215.25,-1229.86,-2243.74,-2578.31,3.8250352404643806
0,-2211.37,-1221.93,-2234.14,-2572.89,3.8300352865303466
0,-2209.07,-1216.69,-2236.93,-2575.99,3.8350353325963127
0,-2205.87,-1224.18,-2234.3,-2570.77,3.8400353786622787
0,-2212.22,-1232.5,-2235.48,-2582.09,3.8450354247282448
0,-2204.5,-1221.01,-2232.35,-2573.95,3.850035470794218
0,-2205.86,-1213.66,-2227.7,-2569.82,3.855035516860184
0,-2205.73,-1217.41,-2224.62,-2572.39,3.86003556292615
0,-2205.18,-1213.49,-2231.23,-2567.84,3.865035608992116
0,-2194.05,-1211.17,-2221.51,-2559.97,3.870035655058082
0,-2195.32,-1208.95,-2218.95,-2565.69,3.875035701124048
0,-2196.9,-1211.3,-2218.05,-2564.84,3.880035747190014
0,-2194.31,-1209.24,-2216.16,-2564.55,3.8850357932559803
0,-2187.5,-1210.41,-2210.07,-2557.18,3.8900358393219463
0,-2193.15,-1205.02,-2210.5,-2560.64,3.8950358853879123
0,-2191.84,-1201.41,-2209.29,-2559.83,3.9000359314538784
0,-2200.64,-1210.38,-2218.33,-2572.63,3.9050359775198444
0,-2202.64,-1218.75,-2227.32,-2567.94,3.9100360235858105
0,-2206.43,-1214.76,-2229.32,-2569.84,3.9150360696517765
0,-2208.0,-1217.27,-2227.07,-2570.78,3.9200361157177426
0,-2209.6,-1221.62,-2235.89,-2574.09,3.9250361617837086
0,-2209.97,-1223.04,-2234.25,-2577.24,3.9300362078496818
0,-2211.58,-1219.5,-2233.05,-2577.27,3.935036253915648
0,-2199.83,-1210.9,-2220.67,-2569.5,3.940036299981614
0,-2205.56,-1216.53,-2229.06,-2575.8,3.94503634604758
0,-2209.33,-1221.83,-2231.38,-2581.02,3.950036392113546
0,-2207.91,-1221.53,-2237.6,-2574.62,3.955036438179512
0,-2199.5,-1214.84,-2229.73,-2571.65,3.960036484245478
0,-2202.39,-1216.71,-2223.7,-2571.56,3.965036530311444
0,-2210.08,-1214.22,-2226.89,-2571.9,3.97003657637741
0,-2208.14,-1215.01,-2228.7,-2572.06,3.975036622443376
0,-2205.52,-1204.91,-2222.7,-2571.46,3.9800366685093422
0,-2203.46,-1208.27,-2229.1,-2569.58,3.9850367145753083
0,-2203.47,-1217.69,-2225.58,-2570.45,3.9900367606412743
0,-2203.55,-1210.02,-2225.69,-2571.67,3.9950368067072404
0,-2205.77,-1208.87,-2222.4,-2570.58,4.000036852773206
0,-2204.06,-1215.53,-2220.04,-2571.08,4.00503689883918
0,-2205.8,-1218.52,-2221.8,-2572.71,4.010036944905146
0,-2205.16,-1217.43,-2225.73,-2573.75,4.015036990971112
0,-2203.59,-1214.44,-2229.01,-2563.74,4.020037037037078
0,-2203.34,-1213.64,-2227.91,-2570.76,4.025037083103044
0,-2202.63,-1216.42,-2230.71,-2570.26,4.03003712916901
0,-2201.82,-1213.25,-2224.96,-2570.77,4.035037175234976
0,-2199.03,-1203.48,-2217.87,-2563.07,4.040037221300942
0,-2200.06,-1209.83,-2220.93,-2564.5,4.045037267366908
0,-2206.45,-1211.06,-2221.96,-2564.45,4.050037313432874
0,-2201.7,-1210.05,-2223.31,-2566.08,4.05503735949884
0,-2206.8,-1210.73,-2226.67,-2566.23,4.060037405564806
0,-2203.57,-1223.11,-2227.79,-2574.26,4.065037451630772
0,-2198.36,-1207.72,-2219.59,-2565.54,4.070037497696738
0,-2202.47,-1214.59,-2227.77,-2567.81,4.075037543762704
0,-2206.59,-1223.12,-2229.58,-2570.48,4.080037589828677
0,-2202.34,-1219.39,-2222.44,-2568.19,4.085037635894643
0,-2199.2,-1208.48,-2227.52,-2569.31,4.0900376819606095
0,-2205.04,-1216.42,-2223.31,-2563.68,4.0950377280265755
0,-2200.56,-1213.34,-2224.43,-2568.94,4.1000377740925416
0,-2205.79,-1219.54,-2225.19,-2573.54,4.105037820158508
0,-2205.07,-1213.44,-2223.44,-2565.7,4.110037866224474
0,-2207.85,-1216.03,-2228.17,-2569.64,4.11503791229044
0,-2200.85,-1217.11,-2223.77,-2566.94,4.120037958356406
0,-2203.41,-1215.75,-2222.24,-2570.27,4.125038004422372
0,-2204.02,-1206.05,-2222.44,-2575.09,4.130038050488338
0,-2211.36,-1216.83,-2227.15,-2570.34,4.135038096554304
0,-2209.96,-1224.11,-2229.36,-2574.75,4.14003814262027
0,-2209.27,-1226.76,-2231.93,-2578.42,4.145038188686236
0,-2204.32,-1220.42,-2233.63,-2581.79,4.150038234752202
0,-2200.07,-1220.97,-2228.21,-2572.05,4.155038280818175
0,-2203.49,-1218.67,-2230.05,-2571.94,4.160038326884141
0,-2204.63,-1222.76,-2233.46,-2570.47,4.165038372950107
0,-2206.4,-1221.85,-2228.11,-2570.47,4.170038419016073
0,-2204.3,-1221.38,-2230.54,-2563.94,4.175038465082039
0,-2206.48,-1214.42,-2226.58,-2573.42,4.180038511148005
0,-2218.14,-1222.18,-2237.67,-2579.03,4.185038557213971
0,-2221.43,-1222.91,-2235.98,-2578.95,4.1900386032799375
0,-2206.46,-1217.69,-2227.91,-2571.8,4.1950386493459035
0,-2205.16,-1219.17,-2230.05,-2579.86,4.20003869541187
0,-2210.16,-1218.7,-2230.97,-2583.34,4.205038741477836
0,-2205.66,-1218.49,-2225.58,-2573.65,4.210038787543802
0,-2218.11,-1214.72,-2232.37,-2582.6,4.215038833609768
0,-2210.64,-1218.57,-2234.43,-2575.66,4.220038879675734
0,-2211.68,-1220.41,-2232.41,-2577.38,4.2250389257417
0,-2215.74,-1223.4,-2236.59,-2575.99,4.230038971807673
0,-2215.37,-1217.79,-2230.26,-2568.66,4.235039017873639
0,-2209.92,-1215.52,-2225.24,-2569.34,4.240039063939605
0,-2205.24,-1214.55,-2228.84,-2573.87,4.245039110005571
0,-2206.37,-1218.73,-2223.48,-2575.64,4.250039156071537
0,-2203.42,-1210.76,-2223.38,-2572.26,4.255039202137503
0,-2205.0,-1207.7,-2222.15,-2578.48,4.260039248203469
0,-2201.21,-1211.26,-2221.02,-2570.51,4.265039294269435
0,-2195.76,-1207.39,-2220.69,-2563.95,4.270039340335401
0,-2197.15,-1205.45,-2220.26,-2565.66,4.275039386401367
0,-2198.96,-1203.89,-2219.27,-2564.86,4.280039432467333
0,-2192.35,-1205.45,-2217.41,-2562.47,4.2850394785332995
0,-2194.13,-1205.69,-2221.92,-2567.5,4.2900395245992655
0,-2197.82,-1213.03,-2219.85,-2577.37,4.295039570665232
0,-2195.84,-1208.79,-2216.35,-2570.06,4.300039616731198
0,-2197.37,-1211.47,-2218.95,-2569.4,4.305039662797164
0,-2198.87,-1219.03,-2228.9,-2571.59,4.310039708863137
0,-2202.91,-1219.48,-2230.17,-2573.18,4.315039754929103
0,-2202.85,-1218.8,-2229.43,-2573.05,4.320039800995069
0,-2204.41,-1214.36,-2229.85,-2568.37,4.325039847061035
0,-2209.09,-1213.07,-2231.55,-2569.56,4.330039893127001
0,-2208.07,-1223.47,-2227.81,-2574.29,4.335039939192967
0,-2204.45,-1214.3,-2227.11,-2567.06,4.340039985258933
0,-2200.06,-1212.5,-2229.29,-2568.2,4.345040031324899
0,-2204.51,-1219.59,-2227.31,-2567.87,4.350040077390865
0,-2214.07,-1226.14,-2231.01,-2575.08,4.355040123456831
0,-2207.42,-1221.8,-2233.94,-2576.01,4.360040169522797
0,-2217.95,-1227.87,-2239.91,-2580.26,4.365040215588763
0,-2209.36,-1227.05,-2235.7,-2575.98,4.370040261654729
0,-2211.03,-1223.1,-2229.75,-2573.67,4.375040307720695
0,-2203.67,-1209.64,-2223.71,-2567.18,4.3800403537866615
0,-2201.06,-1207.91,-2224.42,-2569.39,4.385040399852635
0,-2207.21,-1218.44,-2231.65,-2571.7,4.390040445918601
0,-2213.37,-1225.52,-2234.5,-2576.34,4.395040491984567
0,-2208.71,-1215.15,-2231.87,-2572.89,4.400040538050533
0,-2210.1,-1215.74,-2231.69,-2576.22,4.405040584116499
0,-2212.92,-1218.61,-2230.12,-2577.87,4.410040630182465
0,-2210.25,-1217.44,-2231.13,-2576.11,4.415040676248431
0,-2210.86,-1223.88,-2228.27,-2572.4,4.420040722314397
0,-2206.15,-1217.32,-2232.09,-2571.73,4.425040768380363
0,-2204.17,-1210.93,-2226.06,-2569.26,4.430040814446329
0,-2202.78,-1212.38,-2221.47,-2566.44,4.435040860512295
0,-2208.39,-1218.38,-2226.85,-2570.15,4.440040906578261
0,-2207.67,-1224.24,-2233.39,-2578.31,4.445040952644227
0,-2208.89,-1221.72,-2230.96,-2581.16,4.450040998710193
0,-2209.75,-1214.26,-2232.27,-2575.22,4.455041044776159
0,-2210.22,-1213.62,-2231.36,-2578.67,4.460041090842132
0,-2205.48,-1210.75,-2225.84,-2572.25,4.4650411369080985
0,-2207.2,-1211.83,-2226.47,-2571.65,4.4700411829740645
0,-2210.74,-1217.79,-2233.43,-2573.66,4.4750412290400305
0,-2208.93,-1226.52,-2232.42,-2578.91,4.480041275105997
0,-2208.03,-1225.81,-2236.11,-2576.66,4.485041321171963
0,-2214.2,-1218.72,-2233.03,-2571.63,4.490041367237929
0,-2208.51,-1225.11,-2232.45,-2573.69,4.495041413303895
0,-2210.44,-1221.11,-2235.3,-2571.45,4.500041459369861
0,-2209.16,-1226.03,-2234.3,-2568.85,4.505041505435827
0,-2213.34,-1221.56,-2236.04,-2575.21,4.510041551501793
0,-2212.01,-1222.62,-2236.66,-2583.44,4.515041597567759
0,-2214.89,-1226.91,-2235.61,-2577.06,4.520041643633725
0,-2215.51,-1226.0,-2239.0,-2578.82,4.525041689699691
0,-2215.35,-1221.24,-2238.22,-2579.46,4.530041735765657
0,-2211.79,-1221.19,-2237.87,-2579.93,4.53504178183163
0,-2208.7,-1230.2,-2239.21,-2579.24,4.540041827897596
0,-2209.11,-1223.35,-2235.11,-2574.48,4.545041873963562
0,-2208.11,-1216.7,-2229.23,-2570.87,4.550041920029528
0,-2207.58,-1217.84,-2233.16,-2573.4,4.555041966095494
0,-2204.45,-1217.49,-2229.92,-2563.3,4.56004201216146
0,-2198.46,-1215.51,-2225.52,-2564.95,4.5650420582274265
0,-2200.08,-1212.44,-2225.42,-2561.38,4.5700421042933925
0,-2198.34,-1204.03,-2213.99,-2559.85,4.575042150359359
0,-2195.02,-1207.02,-2215.0,-2562.15,4.580042196425325
0,-2199.2,-1211.1,-2220.9,-2564.62,4.585042242491291
0,-2202.01,-1215.87,-2222.0,-2572.49,4.590042288557257
0,-2200.94,-1217.9,-2223.57,-2561.95,4.595042334623223
0,-2200.28,-1215.26,-2218.91,-2559.31,4.600042380689189
0,-2198.68,-1213.81,-2221.64,-2560.21,4.605042426755155
0,-2204.99,-1214.86,-2230.19,-2561.71,4.610042472821128
0,-2204.76,-1208.65,-2228.84,-2568.61,4.615042518887094
0,-2203.62,-1211.82,-2229.39,-2565.89,4.62004256495306
0,-2201.12,-1216.63,-2222.63,-2567.58,4.625042611019026
0,-2205.78,-1210.86,-2220.95,-2565.66,4.630042657084992
0,-2203.35,-1212.14,-2223.17,-2563.4,4.635042703150958
0,-2201.3,-1208.13,-2218.89,-2564.29,4.640042749216924
0,-2203.02,-1208.1,-2221.57,-2563.23,4.64504279528289
0,-2200.9,-1211.0,-2219.02,-2562.84,4.650042841348856
0,-2199.38,-1215.01,-2222.67,-2568.69,4.655042887414822
0,-2202.95,-1208.39,-2220.7,-2563.97,4.6600429334807885
0,-2202.47,-1212.07,-2226.17,-2565.82,4.6650429795467545
0,-2203.41,-1215.98,-2227.97,-2565.39,4.6700430256127206
0,-2204.94,-1220.19,-2225.97,-2574.66,4.675043071678687
0,-2205.83,-1219.75,-2228.8,-2570.59,4.680043117744653
0,-2211.25,-1214.65,-2226.43,-2572.01,4.685043163810619
0,-2197.53,-1200.69,-2217.08,-2561.23,4.690043209876592
0,-2204.54,-1203.84,-2222.44,-2563.22,4.695043255942558
0,-2209.44,-1211.12,-2225.2,-2568.34,4.700043302008524
0,-2204.18,-1212.53,-2224.1,-2572.91,4.70504334807449
0,-2202.2,-1214.41,-2230.31,-2574.51,4.710043394140456
0,-2212.39,-1215.21,-2230.94,-2571.65,4.715043440206422
0,-2210.09,-1224.08,-2233.03,-2571.43,4.720043486272388
0,-2210.06,-1217.85,-2230.72,-2578.39,4.725043532338354
0,-2212.16,-1219.0,-2230.87,-2573.94,4.73004357840432
0,-2213.75,-1225.27,-2237.7,-2579.45,4.735043624470286
0,-2211.03,-1219.44,-2234.35,-2573.36,4.740043670536252
0,-2207.09,-1218.71,-2225.53,-2576.22,4.745043716602218
0,-2207.34,-1215.38,-2224.69,-2574.82,4.750043762668184
0,-2215.2,-1222.31,-2234.9,-2583.4,4.7550438087341504
0,-2215.74,-1229.81,-2243.54,-2583.93,4.7600438548001165
0,-2211.55,-1229.52,-2238.85,-2578.26,4.76504390086609
0,-2209.85,-1226.17,-2236.25,-2575.53,4.770043946932056
0,-2207.11,-1223.46,-2233.66,-2573.02,4.775043992998022
0,-2215.36,-1224.43,-2233.68,-2576.56,4.780044039063988
0,-2219.63,-1226.11,-2242.05,-2585.19,4.785044085129954
0,-2209.88,-1217.55,-2229.84,-2576.87,4.79004413119592
0,-2210.82,-1217.02,-2225.0,-2573.22,4.795044177261886
0,-2205.09,-1226.76,-2232.19,-2572.59,4.800044223327852
0,-2206.66,-1220.86,-2225.67,-2571.03,4.805044269393818
0,-2208.24,-1218.61,-2226.75,-2570.08,4.810044315459784
0,-2204.3,-1214.62,-2228.39,-2567.96,4.81504436152575
0,-2203.59,-1212.19,-2217.36,-2561.41,4.820044407591716
0,-2203.01,-1217.31,-2228.92,-2567.33,4.825044453657682
0,-2195.98,-1210.76,-2222.61,-2565.79,4.830044499723648
0,-2199.28,-1214.57,-2219.49,-2569.03,4.835044545789614
0,-2200.23,-1213.44,-2225.05,-2569.77,4.840044591855587
0,-2202.53,-1204.06,-2220.71,-2563.09,4.8450446379215535
0,-2200.85,-1208.9,-2221.37,-2566.83,4.8500446839875195
0,-2199.21,-1209.4,-2218.91,-2565.58,4.855044730053486
0,-2199.14,-1205.84,-2215.71,-2568.1,4.860044776119452
0,-2193.71,-1208.48,-2215.19,-2562.87,4.865044822185418
0,-2202.54,-1213.28,-2221.45,-2558.15,4.870044868251384
0,-2206.76,-1221.27,-2230.24,-2568.11,4.87504491431735
0,-2201.4,-1223.71,-2232.01,-2570.02,4.880044960383316
0,-2196.08,-1217.35,-2220.98,-2568.46,4.885045006449282
0,-2193.43,-1214.29,-2222.49,-2564.97,4.890045052515248
0,-2201.66,-1223.73,-2229.88,-2569.82,4.895045098581214
0,-2207.42,-1222.06,-2230.59,-2575.04,4.90004514464718
0,-2207.36,-1228.69,-2235.12,-2578.75,4.905045190713146
0,-2206.28,-1222.79,-2228.22,-2577.09,4.910045236779112
0,-2210.21,-1228.37,-2229.77,-2576.37,4.915045282845085
0,-2208.68,-1216.18,-2226.0,-2568.95,4.920045328911051
0,-2203.27,-1211.99,-2226.33,-2571.84,4.925045374977017
0,-2211.94,-1215.85,-2230.73,-2580.1,4.930045421042983
0,-2210.75,-1219.7,-2235.81,-2568.13,4.935045467108949
0,-2205.45,-1215.53,-2230.34,-2568.47,4.9400455131749155
0,-2199.85,-1211.78,-2229.38,-2566.49,4.9450455592408815
0,-2200.59,-1216.49,-2227.3,-2572.43,4.950045605306848
0,-2200.39,-1218.36,-2225.03,-2565.68,4.955045651372814
0,-2203.64,-1217.33,-2230.88,-2566.96,4.96004569743878
0,-2202.3,-1208.65,-2218.27,-2561.96,4.965045743504746
0,-2198.35,-1215.61,-2221.66,-2562.59,4.970045789570712
0,-2200.6,-1213.75,-2219.32,-2569.52,4.975045835636678
0,-2198.42,-1211.52,-2221.45,-2566.1,4.980045881702644
0,-2200.23,-1212.86,-2222.44,-2566.66,4.98504592776861
0,-2199.9,-1215.06,-2221.88,-2571.28,4.990045973834583
0,-2196.23,-1210.38,-2219.87,-2563.94,4.995046019900549
0,-2199.14,-1218.96,-2223.82,-2563.72,5.000046065966515
0,-2192.15,-1212.32,-2217.24,-2563.33,5.005046112032481
0,-2192.48,-1208.9,-2219.91,-2561.75,5.010046158098447
0,-2197.37,-1205.69,-2222.04,-2561.9,5.015046204164413
0,-2201.65,-1209.0,-2219.9,-2562.81,5.020046250230379
0,-2205.95,-1208.89,-2224.49,-2567.85,5.025046296296345
0,-2207.81,-1214.07,-2225.57,-2570.06,5.030046342362311
0,-2203.06,-1215.5,-2226.76,-2567.42,5.0350463884282775
0,-2204.23,-1214.36,-2224.61,-2570.45,5.0400464344942435
0,-2207.36,-1217.08,-2230.59,-2572.59,5.0450464805602095
0,-2216.27,-1222.59,-2230.51,-2580.41,5.050046526626176
0,-2209.67,-1222.23,-2232.85,-2575.0,5.055046572692142
0,-2208.34,-1222.41,-2228.76,-2573.94,5.060046618758108
0,-2205.97,-1216.97,-2226.62,-2573.54,5.065046664824081
0,-2204.94,-1213.64,-2228.97,-2574.03,5.070046710890047
0,-2203.99,-1216.2,-2227.76,-2574.09,5.075046756956013
0,-2207.8,-1221.17,-2226.01,-2570.9,5.080046803021979
0,-2202.4,-1220.44,-2226.5,-2575.26,5.085046849087945
0,-2206.84,-1215.5,-2230.04,-2576.73,5.090046895153911
0,-2206.48,-1212.47,-2226.9,-2575.37,5.095046941219877
0,-2204.27,-1213.62,-2227.28,-2573.61,5.100046987285843
0,-2203.56,-1217.18,-2231.16,-2571.71,5.105047033351809
0,-2208.41,-1224.98,-2233.21,-2575.76,5.110047079417775
0,-2203.75,-1215.52,-2232.39,-2573.68,5.115047125483741
0,-2204.12,-1215.37,-2224.56,-2570.21,5.120047171549707
0,-2208.05,-1210.77,-2228.1,-2573.65,5.125047217615673
0,-2206.14,-1214.93,-2228.1,-2566.78,5.130047263681639
0,-2201.52,-1216.52,-2223.71,-2566.95,5.1350473097476055
0,-2196.09,-1213.98,-2220.65,-2567.01,5.1400473558135715
0,-2205.85,-1218.57,-2228.45,-2567.74,5.145047401879545
0,-2201.28,-1209.95,-2220.48,-2566.23,5.150047447945511
0,-2203.59,-1220.82,-2226.52,-2569.3,5.155047494011477
0,-2214.52,-1224.06,-2233.14,-2577.41,5.160047540077443
0,-2209.59,-1216.68,-2231.77,-2572.98,5.165047586143409
0,-2208.74,-1213.97,-2230.03,-2570.07,5.170047632209375
0,-2205.28,-1218.07,-2225.73,-2571.96,5.175047678275341
0,-2208.32,-1214.27,-2227.82,-2568.71,5.180047724341307
0,-2209.59,-1217.39,-2232.48,-2573.77,5.185047770407273
0,-2212.79,-1216.5,-2232.59,-2572.43,5.190047816473239
0,-2210.43,-1223.18,-2234.36,-2572.39,5.195047862539205
0,-2204.8,-1217.9,-2226.78,-2567.67,5.200047908605171
0,-2206.7,-1218.55,-2225.07,-2560.11,5.205047954671137
0,-2211.74,-1224.77,-2232.08,-2570.02,5.210048000737103
0,-2207.47,-1225.13,-2239.41,-2571.54,5.215048046803069
0,-2205.34,-1221.26,-2231.52,-2569.93,5.2200480928690425
0,-2205.91,-1222.96,-2226.32,-2570.26,5.2250481389350085
0,-2202.93,-1218.57,-2229.12,-2573.41,5.230048185000975
0,-2205.76,-1217.46,-2227.25,-2565.28,5.235048231066941
0,-2204.39,-1219.5,-2224.59,-2563.13,5.240048277132907
0,-2205.73,-1221.38,-2231.79,-2571.54,5.245048323198873
0,-2201.05,-1218.09,-2227.13,-2573.29,5.250048369264839
0,-2205.71,-1220.26,-2231.74,-2580.72,5.255048415330805
0,-2208.13,-1219.39,-2229.37,-2578.33,5.260048461396771
0,-2210.99,-1216.04,-2233.26,-2575.92,5.265048507462737
0,-2209.98,-1215.04,-2236.0,-2583.15,5.270048553528703
0,-2207.9,-1217.27,-2234.1,-2584.57,5.275048599594669
0,-2209.03,-1220.23,-2232.53,-2578.21,5.280048645660635
0,-2202.65,-1214.99,-2227.97,-2574.1,5.285048691726601
0,-2204.17,-1217.72,-2226.94,-2574.29,5.290048737792567
0,-2208.19,-1219.92,-2227.35,-2579.84,5.29504878385854
0,-2204.13,-1217.04,-2229.29,-2576.28,5.300048829924506
0,-2203.81,-1220.05,-2230.55,-2573.43,5.305048875990472
0,-2208.01,-1217.1,-2225.85,-2571.82,5.310048922056438
0,-2213.55,-1220.11,-2228.44,-2581.94,5.3150489681224045
0,-2205.39,-1219.07,-2229.5,-2575.43,5.3200490141883705
0,-2201.84,-1212.46,-2229.44,-2572.59,5.3250490602543366
0,-2208.22,-1215.96,-2231.95,-2577.29,5.330049106320303
0,-2206.34,-1221.23,-2229.95,-2576.81,5.335049152386269
0,-2199.8,-1215.99,-2225.94,-2567.85,5.340049198452235
0,-2210.21,-1218.34,-2231.03,-2574.86,5.345049244518201
0,-2202.93,-1216.87,-2229.65,-2574.73,5.350049290584167
0,-2199.09,-1215.7,-2225.31,-2573.64,5.355049336650133
0,-2202.66,-1211.35,-2219.73,-2569.55,5.360049382716099
0,-2198.51,-1210.28,-2221.03,-2567.29,5.365049428782065
0,-2200.49,-1207.16,-2218.76,-2565.46,5.370049474848038
0,-2206.28,-1217.62,-2228.83,-2564.87,5.375049520914004
0,-2210.91,-1217.85,-2225.15,-2569.34,5.38004956697997
0,-2204.72,-1216.31,-2229.51,-2568.36,5.385049613045936
0,-2205.51,-1216.23,-2229.21,-2568.75,5.390049659111902
0,-2210.8,-1217.81,-2228.64,-2572.46,5.395049705177868
0,-2211.77,-1216.82,-2230.87,-2570.02,5.400049751243834
0,-2215.8,-1217.51,-2234.07,-2574.25,5.4050497973098
0,-2218.45,-1215.31,-2240.61,-2579.06,5.410049843375766
0,-2208.23,-1217.1,-2231.5,-2574.29,5.4150498894417325
0,-2207.02,-1220.97,-2228.06,-2571.42,5.4200499355076985
0,-2215.28,-1216.85,-2231.65,-2575.08,5.425049981573665
0,-2213.05,-1224.02,-2235.02,-2579.36,5.430050027639631
0,-2212.27,-1227.2,-2236.24,-2581.24,5.435050073705597
0,-2210.76,-1225.65,-2235.84,-2581.37,5.440050119771563
0,-2214.3,-1224.29,-2235.74,-2579.67,5.445050165837536
0,-2210.56,-1214.6,-2233.44,-2571.73,5.450050211903502
0,-2208.55,-1215.29,-2228.68,-2567.45,5.455050257969468
0,-2211.89,-1218.52,-2231.71,-2573.2,5.460050304035434
0,-2208.35,-1222.86,-2230.07,-2570.52,5.4650503501014
0,-2204.76,-1214.87,-2223.61,-2572.48,5.470050396167366
0,-2200.67,-1210.78,-2226.06,-2569.15,5.475050442233332
0,-2207.06,-1214.87,-2226.18,-2568.9,5.480050488299298
0,-2207.94,-1210.94,-2225.98,-2566.47,5.485050534365264
0,-2204.41,-1211.46,-2227.04,-2570.31,5.49005058043123
0,-2204.42,-1215.71,-2225.18,-2568.59,5.495050626497196
0,-2204.91,-1218.27,-2228.95,-2568.11,5.500050672563162
0,-2209.29,-1216.3,-2229.07,-2572.24,5.505050718629128
0,-2205.56,-1219.85,-2229.86,-2568.05,5.5100507646950945
0,-2198.39,-1210.67,-2225.09,-2570.23,5.5150508107610605
0,-2197.39,-1210.88,-2222.68,-2569.79,5.520050856827027
0,-2203.89,-1219.22,-2227.41,-2574.57,5.525050902893
0,-2197.59,-1211.79,-2219.58,-2564.78,5.530050948958966
0,-2202.23,-1213.43,-2226.16,-2574.15,5.535050995024932
0,-2203.71,-1216.55,-2230.28,-2571.92,5.540051041090898
0,-2204.5,-1213.8,-2224.57,-2570.45,5.545051087156864
0,-2202.31,-1219.04,-2228.01,-2564.07,5.55005113322283
0,-2203.1,-1214.1,-2225.06,-2567.21,5.555051179288796
0,-2208.77,-1216.44,-2230.51,-2573.32,5.560051225354762
0,-2207.53,-1219.3,-2228.39,-2569.87,5.565051271420728
0,-2194.18,-1206.54,-2217.43,-2566.89,5.570051317486694
0,-2194.83,-1209.73,-2218.69,-2565.67,5.57505136355266
0,-2198.35,-1210.05,-2221.67,-2564.04,5.580051409618626
0,-2200.24,-1208.25,-2224.2,-2565.32,5.585051455684592
0,-2209.38,-1209.32,-2224.09,-2567.52,5.590051501750558
0,-2205.77,-1209.53,-2222.01,-2564.04,5.595051547816524
0,-2203.16,-1209.18,-2220.97,-2568.07,5.6000515938824975
0,-2204.31,-1206.96,-2223.95,-2568.37,5.605051639948464
0,-2205.83,-1215.73,-2224.6,-2573.66,5.61005168601443
0,-2219.84,-1225.05,-2233.95,-2578.08,5.615051732080396
0,-2213.19,-1226.77,-2233.1,-2570.8,5.620051778146362
0,-2213.61,-1224.38,-2231.58,-2574.7,5.625051824212328
0,-2205.52,-1215.05,-2228.98,-2573.12,5.630051870278294
0,-2203.61,-1212.44,-2225.82,-2561.22,5.63505191634426
0,-2198.95,-1210.56,-2220.31,-2554.76,5.640051962410226
0,-2201.46,-1214.18,-2231.13,-2578.41,5.645052008476192
0,-2219.56,-1223.97,-2237.16,-2582.15,5.650052054542158
0,-2213.51,-1218.04,-2237.52,-2580.06,5.655052100608124
0,-2205.92,-1219.99,-2227.93,-2577.01,5.66005214667409
0,-2206.54,-1219.19,-2233.33,-2573.59,5.665052192740056
0,-2209.42,-1223.84,-2234.49,-2579.3,5.670052238806022
0,-2202.64,-1226.2,-2228.75,-2579.98,5.675052284871995
0,-2206.48,-1220.98,-2229.55,-2574.51,5.680052330937961
0,-2196.95,-1216.6,-2223.43,-2574.82,5.685052377003927
0,-2201.75,-1215.54,-2221.68,-2572.3,5.6900524230698935
0,-2205.12,-1220.23,-2232.01,-2572.62,5.6950524691358595
0,-2211.91,-1213.07,-2229.72,-2569.84,5.7000525152018255
0,-2216.32,-1222.38,-2227.8,-2570.12,5.705052561267792
0,-2212.62,-1215.1,-2235.18,-2568.23,5.710052607333758
0,-2217.38,-1217.83,-2232.69,-2569.56,5.715052653399724
0,-2214.67,-1225.24,-2232.68,-2577.32,5.72005269946569
0,-2212.05,-1220.47,-2228.87,-2575.16,5.725052745531656
0,-2207.27,-1213.52,-2231.14,-2569.2,5.730052791597622
0,-2203.89,-1218.95,-2229.27,-2571.83,5.735052837663588
0,-2208.82,-1215.58,-2224.87,-2572.74,5.740052883729554
0,-2207.78,-1220.31,-2231.93,-2582.46,5.74505292979552
0,-2208.69,-1221.75,-2232.93,-2571.78,5.750052975861493
0,-2200.4,-1213.63,-2225.96,-2573.19,5.755053021927459
0,-2206.21,-1216.94,-2231.99,-2573.24,5.760053067993425
0,-2211.2,-1220.07,-2232.69,-2572.73,5.765053114059391
0,-2206.39,-1216.43,-2231.54,-2573.28,5.770053160125357
0,-2203.64,-1219.32,-2225.32,-2569.53,5.775053206191323
0,-2198.48,-1215.64,-2224.13,-2571.92,5.780053252257289
0,-2201.66,-1214.73,-2223.69,-2562.39,5.785053298323255
0,-2198.82,-1211.02,-2222.66,-2565.65,5.7900533443892215
0,-2201.5,-1212.49,-2230.0,-2566.48,5.7950533904551875
0,-2201.24,-1218.96,-2229.97,-2573.13,5.800053436521154
0,-2206.85,-1219.51,-2229.71,-2573.5,5.80505348258712
0,-2204.13,-1218.06,-2228.86,-2570.39,5.810053528653086
0,-2204.39,-1217.44,-2228.73,-2568.67,5.815053574719052
0,-2200.71,-1211.62,-2225.05,-2567.6,5.820053620785018
0,-2199.87,-1214.35,-2220.44,-2561.38,5.825053666850991
0,-2201.77,-1217.43,-2224.37,-2569.84,5.830053712916957
0,-2206.18,-1216.93,-2231.46,-2569.14,5.835053758982923
0,-2205.67,-1216.41,-2229.29,-2567.42,5.840053805048889
0,-2206.84,-1215.04,-2229.02,-2572.77,5.845053851114855
0,-2208.36,-1223.84,-2232.45,-2577.83,5.850053897180821
0,-2214.42,-1222.61,-2235.78,-2573.52,5.855053943246787
0,-2210.01,-1216.99,-2236.37,-2573.93,5.860053989312753
0,-2208.18,-1218.9,-2232.78,-2575.5,5.865054035378719
0,-2201.9,-1214.79,-2230.35,-2574.25,5.870054081444685
0,-2209.29,-1215.11,-2234.88,-2572.46,5.875054127510651
0,-2207.23,-1212.86,-2228.95,-2563.46,5.880054173576617
0,-2204.62,-1216.48,-2220.08,-2565.82,5.8850542196425835
0,-2198.39,-1208.53,-2222.29,-2564.38,5.8900542657085495
0,-2205.41,-1213.81,-2220.07,-2565.17,5.8950543117745156
0,-2201.06,-1209.64,-2223.7,-2561.31,5.900054357840482
0,-2201.5,-1213.2,-2227.11,-2565.46,5.905054403906455
0,-2200.93,-1208.29,-2219.7,-2566.67,5.910054449972421
0,-2201.57,-1206.64,-2222.67,-2566.62,5.915054496038387
0,-2201.05,-1206.9,-2218.66,-2565.95,5.920054542104353
0,-2202.0,-1214.2,-2221.28,-2573.13,5.925054588170319
0,-2204.25,-1212.99,-2221.36,-2570.56,5.930054634236285
0,-2196.46,-1212.89,-2218.85,-2568.32,5.935054680302251
0,-2197.97,-1219.54,-2222.48,-2568.37,5.940054726368217
0,-2195.65,-1212.71,-2219.65,-2565.89,5.945054772434183
0,-2198.65,-1211.87,-2222.49,-2569.82,5.950054818500149
0,-2208.52,-1216.16,-2231.25,-2571.31,5.955054864566115
0,-2206.8,-1216.25,-2228.56,-2578.01,5.960054910632081
0,-2210.82,-1215.63,-2234.77,-2572.53,5.965054956698047
0,-2208.38,-1211.79,-2228.27,-2571.8,5.970055002764013
0,-2206.04,-1215.49,-2226.91,-2573.76,5.975055048829979
0,-2207.32,-1213.86,-2222.15,-2566.52,5.9800550948959525
0,-2201.95,-1209.42,-2222.26,-2565.63,5.985055140961919
0,-2211.12,-1216.33,-2232.22,-2575.48,5.990055187027885
0,-2210.62,-1222.26,-2235.2,-2581.37,5.995055233093851
0,-2206.6,-1222.61,-2229.33,-2572.3,6.000055279159817
0,-2211.83,-1221.35,-2228.57,-2574.6,6.005055325225783
0,-2206.86,-1218.17,-2224.8,-2570.35,6.010055371291749
0,-2211.82,-1222.88,-2232.61,-2571.72,6.015055417357715
0,-2207.43,-1221.62,-2233.02,-2571.09,6.020055463423681
0,-2207.54,-1222.56,-2230.37,-2575.05,6.025055509489647
0,-2204.94,-1221.23,-2230.57,-2567.33,6.030055555555613
0,-2208.37,-1217.75,-2231.38,-2566.58,6.035055601621579
0,-2205.07,-1208.4,-2220.56,-2565.24,6.040055647687545
0,-2205.52,-1212.21,-2227.39,-2571.69,6.045055693753511
0,-2214.03,-1223.68,-2235.94,-2577.65,6.050055739819477
0,-2212.78,-1224.7,-2240.07,-2573.19,6.05505578588545
0,-2216.96,-1222.29,-2231.75,-2579.61,6.060055831951416
0,-2211.59,-1218.48,-2240.95,-2586.19,6.065055878017382
0,-2210.45,-1217.89,-2232.01,-2575.47,6.0700559240833485
0,-2209.05,-1222.98,-2233.76,-2579.02,6.0750559701493145
0,-2210.63,-1222.45,-2233.09,-2576.67,6.080056016215281
0,-2205.45,-1215.14,-2227.88,-2574.25,6.085056062281247
0,-2201.77,-1216.61,-2230.34,-2570.75,6.090056108347213
0,-2203.98,-1212.54,-2227.91,-2568.32,6.095056154413179
0,-2203.51,-1216.97,-2225.52,-2570.92,6.100056200479145
0,-2203.24,-1214.56,-2225.1,-2570.94,6.105056246545111
0,-2198.2,-1208.67,-2223.64,-2568.24,6.110056292611077
0,-2196.46,-1205.31,-2225.35,-2567.99,6.115056338677043
0,-2200.61,-1210.22,-2224.37,-2569.81,6.120056384743009
0,-2203.58,-1215.63,-2227.94,-2574.24,6.125056430808975
0,-2204.96,-1212.72,-2226.73,-2570.38,6.130056476874948
0,-2203.66,-1214.36,-2222.3,-2570.9,6.135056522940914
0,-2201.81,-1211.53,-2225.13,-2567.43,6.14005656900688
0,-2194.83,-1208.49,-2218.29,-2568.91,6.145056615072846
0,-2202.12,-1212.82,-2217.64,-2566.16,6.150056661138812
0,-2201.11,-1211.62,-2220.46,-2566.9,6.155056707204778
0,-2206.42,-1222.18,-2225.56,-2566.81,6.160056753270744
0,-2209.18,-1219.78,-2230.12,-2575.02,6.1650567993367105
0,-2210.65,-1215.7,-2230.79,-2577.3,6.1700568454026765
0,-2200.85,-1210.76,-2222.35,-2573.6,6.175056891468643
0,-2206.6,-1214.1,-2223.06,-2568.83,6.180056937534609
0,-2209.54,-1209.25,-2223.72,-2567.1,6.185056983600575
0,-2209.07,-1210.06,-2227.94,-2565.94,6.190057029666541
0,-2207.63,-1213.77,-2226.32,-2572.05,6.195057075732507
0,-2205.95,-1212.88,-2224.35,-2565.07,6.200057121798473
0,-2204.93,-1215.18,-2226.18,-2564.25,6.205057167864446
0,-2208.37,-1212.73,-2226.98,-2570.22,6.210057213930412
0,-2208.44,-1208.88,-2226.32,-2573.23,6.215057259996378
0,-2206.29,-1215.23,-2231.34,-2567.69,6.220057306062344
0,-2202.0,-1225.23,-2229.74,-2572.03,6.22505735212831
0,-2207.89,-1216.76,-2229.62,-2573.08,6.230057398194276
0,-2200.96,-1215.57,-2222.47,-2569.25,6.235057444260242
0,-2206.49,-1217.29,-2229.84,-2567.77,6.240057490326208
0,-2210.75,-1222.77,-2233.82,-2568.62,6.245057536392174
0,-2211.28,-1218.52,-2226.76,-2568.98,6.25005758245814
0,-2210.7,-1223.81,-2229.42,-2565.98,6.255057628524106
0,-2210.66,-1221.81,-2230.03,-2568.85,6.2600576745900725
0,-2207.45,-1224.4,-2235.59,-2570.03,6.2650577206560385
0,-2218.15,-1219.58,-2237.63,-2574.27,6.2700577667220045
0,-2222.3,-1227.4,-2236.54,-2574.38,6.275057812787971
0,-2217.25,-1220.12,-2235.56,-2574.38,6.280057858853937
0,-2204.75,-1215.46,-2223.15,-2569.88,6.28505790491991
0,-2206.34,-1209.27,-2227.37,-2571.8,6.290057950985876
0,-2211.5,-1215.86,-2233.13,-2576.82,6.295057997051842
0,-2218.11,-1223.99,-2238.97,-2579.61,6.300058043117808
0,-2208.99,-1222.63,-2230.87,-2573.15,6.305058089183774
0,-2206.04,-1220.83,-2230.31,-2575.7,6.31005813524974
0,-2201.77,-1215.31,-2225.65,-2572.13,6.315058181315706
0,-2200.18,-1210.83,-2218.06,-2564.34,6.320058227381672
0,-2200.71,-1204.61,-2217.16,-2564.5,6.325058273447638
0,-2202.93,-1215.62,-2222.07,-2562.69,6.330058319513604
0,-2201.99,-1209.01,-2219.16,-2565.61,6.33505836557957
0,-2190.83,-1203.0,-2216.76,-2560.58,6.340058411645536
0,-2196.66,-1202.83,-2211.59,-2559.3,6.345058457711502
0,-2193.31,-1215.37,-2222.65,-2562.41,6.350058503777468
0,-2205.65,-1215.7,-2225.73,-2574.31,6.355058549843434
1,-2204.21,-1215.42,-2226.76,-2569.89,6.360058595909408
0,-2204.24,-1216.63,-2226.8,-2571.16,6.365058641975374
0,-2204.31,-1211.94,-2225.43,-2568.08,6.37005868804134
0,-2208.63,-1220.45,-2232.55,-2576.87,6.375058734107306
0,-2212.52,-1221.03,-2233.86,-2577.11,6.380058780173272
0,-2219.63,-1229.69,-2238.2,-2583.66,6.385058826239238
0,-2211.16,-1220.59,-2235.09,-2577.52,6.390058872305204
0,-2213.11,-1227.44,-2237.93,-2578.67,6.39505891837117
0,-2210.43,-1219.25,-2229.99,-2575.23,6.400058964437136
0,-2209.63,-1218.68,-2231.61,-2574.49,6.405059010503102
0,-2209.09,-1222.41,-2236.2,-2574.95,6.410059056569068
0,-2204.83,-1217.5,-2237.94,-2574.61,6.415059102635034
0,-2203.64,-1217.74,-2229.47,-2574.81,6.420059148701
0,-2213.52,-1221.84,-2238.79,-2578.59,6.425059194766966
0,-2213.65,-1228.93,-2244.07,-2578.9,6.430059240832932
0,-2210.83,-1220.32,-2236.71,-2581.59,6.435059286898905
0,-2218.03,-1226.5,-2237.47,-2579.2,6.440059332964871
0,-2204.95,-1216.26,-2225.41,-2570.39,6.4450593790308375
0,-2204.84,-1218.27,-2227.91,-2571.43,6.4500594250968035
0,-2204.17,-1209.06,-2219.68,-2565.58,6.45505947116277
0,-2200.98,-1204.9,-2222.98,-2569.25,6.460059517228736
0,-2203.39,-1210.52,-2222.53,-2564.68,6.465059563294702
0,-2200.55,-1215.22,-2224.57,-2568.91,6.470059609360668
0,-2197.23,-1212.84,-2219.82,-2566.5,6.475059655426634
0,-2200.29,-1210.16,-2220.03,-2562.68,6.4800597014926
0,-2206.91,-1215.07,-2230.5,-2566.13,6.485059747558566
0,-2204.14,-1215.31,-2222.7,-2563.63,6.490059793624532
0,-2202.35,-1207.18,-2224.43,-2567.2,6.495059839690498
0,-2205.77,-1208.41,-2222.61,-2573.66,6.500059885756464
0,-2201.8,-1210.77,-2226.36,-2572.27,6.50505993182243
0,-2208.08,-1216.21,-2232.47,-2576.79,6.510059977888403
0,-2212.56,-1222.44,-2235.03,-2579.4,6.515060023954369
0,-2209.54,-1220.1,-2229.15,-2579.49,6.520060070020335
0,-2204.84,-1219.39,-2234.03,-2577.06,6.525060116086301
0,-2206.8,-1214.19,-2232.93,-2579.87,6.530060162152267
0,-2208.92,-1220.36,-2230.24,-2576.79,6.535060208218233
0,-2203.37,-1212.29,-2226.76,-2572.81,6.5400602542841995
0,-2200.04,-1215.42,-2227.28,-2571.12,6.5450603003501655
0,-2205.25,-1220.12,-2228.48,-2570.57,6.5500603464161316
0,-2206.48,-1218.01,-2229.68,-2567.94,6.555060392482098
0,-2206.64,-1214.44,-2230.67,-2572.41,6.560060438548064
0,-2203.52,-1215.4,-2223.62,-2572.81,6.56506048461403
0,-2201.25,-1215.23,-2223.48,-2566.87,6.570060530679996
0,-2206.12,-1221.44,-2229.94,-2575.71,6.575060576745962
0,-2206.76,-1218.07,-2228.36,-2567.79,6.580060622811928
0,-2203.06,-1218.67,-2229.47,-2567.01,6.585060668877901
0,-2210.21,-1221.5,-2233.59,-2571.21,6.590060714943867
0,-2214.45,-1216.41,-2232.25,-2571.78,6.595060761009833
0,-2203.52,-1213.55,-2228.18,-2567.1,6.600060807075799
0,-2198.67,-1217.32,-2215.69,-2558.13,6.605060853141765
0,-2201.94,-1217.72,-2224.2,-2560.08,6.610060899207731
0,-2198.8,-1208.94,-2216.65,-2556.58,6.615060945273697
0,-2196.97,-1205.93,-2218.37,-2557.9,6.620060991339663
0,-2201.48,-1211.08,-2214.86,-2558.36,6.625061037405629
0,-2199.96,-1207.98,-2225.44,-2564.19,6.630061083471595
0,-2200.12,-1201.25,-2217.24,-2558.29,6.635061129537561
0,-2199.45,-1210.34,-2219.98,-2562.99,6.6400611756035275
0,-2208.33,-1217.23,-2223.25,-2564.87,6.6450612216694935
0,-2209.18,-1216.17,-2226.54,-2567.29,6.65006126773546
0,-2204.84,-1213.42,-2228.59,-2565.58,6.655061313801426
0,-2211.27,-1218.37,-2226.36,-2565.58,6.660061359867392
0,-2207.75,-1214.42,-2228.41,-2574.33,6.665061405933365
0,-2211.05,-1213.85,-2229.59,-2570.07,6.670061451999331
0,-2217.19,-1221.63,-2232.31,-2575.61,6.675061498065297
0,-2205.69,-1217.39,-2230.4,-2571.65,6.680061544131263
0,-2211.54,-1218.29,-2229.54,-2573.28,6.685061590197229
0,-2207.19,-1224.07,-2234.48,-2574.91,6.690061636263195
0,-2210.08,-1211.88,-2233.51,-2574.77,6.695061682329161
0,-2207.53,-1218.09,-2235.32,-2576.83,6.700061728395127
0,-2206.25,-1217.51,-2238.38,-2576.24,6.705061774461093
0,-2203.31,-1216.24,-2228.34,-2578.63,6.710061820527059
0,-2210.42,-1217.49,-2226.76,-2581.12,6.715061866593025
0,-2202.99,-1211.59,-2227.26,-2571.33,6.720061912658991
0,-2214.62,-1218.73,-2233.02,-2582.21,6.725061958724957
0,-2212.07,-1220.07,-2231.82,-2573.75,6.730062004790923
0,-2210.51,-1218.86,-2234.67,-2575.69,6.7350620508568895
0,-2212.45,-1217.22,-2229.03,-2574.57,6.740062096922863
0,-2208.1,-1222.21,-2232.6,-2568.5,6.745062142988829
0,-2210.95,-1223.7,-2236.57,-2571.91,6.750062189054795
0,-2213.33,-1227.09,-2233.24,-2565.39,6.755062235120761
0,-2212.23,-1223.0,-2234.2,-2572.12,6.760062281186727
0,-2214.69,-1216.62,-2228.5,-2570.64,6.765062327252693
0,-2216.83,-1226.14,-2234.44,-2567.88,6.770062373318659
0,-2210.94,-1222.51,-2233.83,-2569.32,6.775062419384625
0,-2213.45,-1218.13,-2234.88,-2566.97,6.780062465450591
0,-2210.83,-1225.63,-2233.83,-2566.0,6.785062511516557
0,-2211.77,-1233.46,-2236.75,-2576.83,6.790062557582523
0,-2214.82,-1229.65,-2238.82,-2576.54,6.795062603648489
0,-2215.98,-1224.23,-2236.2,-2570.24,6.800062649714455
0,-2200.62,-1212.56,-2223.76,-2561.55,6.805062695780421
0,-2200.64,-1212.23,-2222.18,-2554.83,6.810062741846387
0,-2200.17,-1207.69,-2220.01,-2556.54,6.81506278791236
0,-2193.84,-1207.46,-2211.31,-2556.11,6.8200628339783265
0,-2188.52,-1205.16,-2211.06,-2548.64,6.8250628800442925
0,-2186.74,-1202.01,-2209.33,-2550.53,6.830062926110259
0,-2190.31,-1204.22,-2213.47,-2552.74,6.835062972176225
0,-2198.34,-1201.55,-2214.76,-2555.52,6.840063018242191
0,-2193.88,-1210.4,-2218.27,-2562.95,6.845063064308157
0,-2192.4,-1200.79,-2213.67,-2558.8,6.850063110374123
0,-2190.8,-1198.03,-2211.38,-2561.07,6.855063156440089
0,-2197.2,-1211.74,-2218.27,-2561.04,6.860063202506055
0,-2195.36,-1204.37,-2215.01,-2560.38,6.865063248572021
0,-2192.18,-1205.7,-2216.02,-2564.92,6.870063294637987
0,-2199.33,-1205.58,-2220.08,-2563.12,6.875063340703953
0,-2198.96,-1209.84,-2218.11,-2567.58,6.880063386769919
0,-2204.26,-1220.27,-2221.72,-2570.07,6.885063432835885
0,-2202.22,-1215.73,-2225.01,-2571.07,6.890063478901858
0,-2203.76,-1215.08,-2227.29,-2568.08,6.895063524967824
0,-2214.22,-1214.18,-2228.12,-2569.63,6.90006357103379
0,-2209.08,-1214.07,-2228.63,-2575.83,6.905063617099756
0,-2213.61,-1223.83,-2235.04,-2581.08,6.910063663165722
0,-2212.43,-1225.53,-2231.54,-2581.86,6.9150637092316884
0,-2210.4,-1223.03,-2234.6,-2577.33,6.9200637552976545
0,-2213.33,-1227.57,-2232.55,-2582.34,6.9250638013636205
0,-2215.86,-1222.93,-2238.67,-2589.5,6.930063847429587
0,-2217.41,-1229.03,-2241.85,-2586.18,6.935063893495553
0,-2212.34,-1223.78,-2242.79,-2591.66,6.940063939561519
0,-2218.93,-1225.68,-2239.04,-2583.65,6.945063985627485
0,-2214.33,-1219.49,-2239.23,-2584.49,6.950064031693451
0,-2212.88,-1217.2,-2230.17,-2583.03,6.955064077759417
0,-2213.38,-1218.31,-2227.26,-2580.88,6.960064123825383
0,-2212.12,-1224.33,-2236.28,-2576.21,6.965064169891356
0,-2213.72,-1228.28,-2236.87,-2582.04,6.970064215957322
0,-2214.05,-1227.28,-2236.81,-2577.25,6.975064262023288
0,-2210.72,-1228.07,-2233.49,-2570.92,6.980064308089254
0,-2211.49,-1222.52,-2235.08,-2575.9,6.98506435415522
0,-2207.71,-1216.76,-2231.53,-2565.84,6.990064400221186
0,-2211.97,-1220.77,-2232.96,-2572.45,6.995064446287152
0,-2213.3,-1222.59,-2229.48,-2566.25,7.000064492353118
0,-2204.06,-1220.04,-2229.24,-2566.8,7.005064538419084
0,-2205.54,-1220.99,-2233.97,-2566.73,7.01006458448505
0,-2202.56,-1215.75,-2232.33,-2568.04,7.0150646305510165
0,-2202.91,-1213.7,-2230.84,-2570.25,7.0200646766169825
0,-2201.45,-1212.68,-2222.52,-2562.9,7.025064722682949
0,-2200.9,-1215.42,-2224.15,-2563.45,7.030064768748915
0,-2196.14,-1212.54,-2219.17,-2563.11,7.035064814814881
0,-2193.13,-1207.5,-2215.67,-2556.64,7.040064860880847
0,-2196.58,-1215.3,-2217.72,-2563.02,7.04506490694682
0,-2199.07,-1208.91,-2219.88,-2565.05,7.050064953012786
0,-2202.97,-1205.18,-2217.45,-2566.43,7.055064999078752
0,-2200.26,-1210.78,-2218.96,-2563.04,7.060065045144718
0,-2199.4,-1212.03,-2224.47,-2575.07,7.065065091210684
0,-2198.73,-1212.05,-2226.38,-2569.5,7.07006513727665
0,-2198.12,-1211.15,-2222.99,-2566.88,7.075065183342616
0,-2206.95,-1211.13,-2225.54,-2572.09,7.080065229408582
0,-2200.76,-1211.47,-2223.83,-2569.49,7.085065275474548
0,-2205.19,-1213.56,-2225.48,-2572.63,7.090065321540514
0,-2205.91,-1216.31,-2231.62,-2573.84,7.09506536760648
0,-2204.81,-1208.93,-2226.33,-2567.91,7.100065413672446
0,-2205.02,-1211.63,-2224.08,-2570.43,7.105065459738412
0,-2203.14,-1216.06,-2228.4,-2571.24,7.1100655058043785
0,-2203.48,-1219.38,-2231.83,-2572.21,7.1150655518703445
0,-2209.3,-1215.2,-2228.5,-2570.17,7.120065597936318
0,-2198.77,-1214.73,-2226.2,-2570.79,7.125065644002284
0,-2196.66,-1212.48,-2226.63,-2568.54,7.13006569006825
0,-2200.9,-1208.03,-2222.21,-2568.94,7.135065736134216
0,-2206.16,-1214.9,-2228.87,-2575.76,7.140065782200182
0,-2206.32,-1224.0,-2226.36,-2576.76,7.145065828266148
0,-2204.16,-1217.86,-2233.56,-2573.11,7.150065874332114
0,-2203.46,-1221.04,-2230.24,-2572.64,7.15506592039808
0,-2205.31,-1212.69,-2229.17,-2572.44,7.160065966464046
0,-2200.96,-1212.84,-2225.18,-2572.7,7.165066012530012
0,-2199.9,-1212.3,-2221.99,-2570.25,7.170066058595978
0,-2202.69,-1212.56,-2221.08,-2572.15,7.175066104661944
0,-2206.46,-1216.98,-2228.01,-2571.62,7.18006615072791
0,-2206.12,-1216.38,-2226.48,-2576.66,7.185066196793876
0,-2202.98,-1215.97,-2226.8,-2574.42,7.190066242859842
0,-2205.72,-1217.29,-2224.15,-2578.33,7.1950662889258155
0,-2204.95,-1218.15,-2228.31,-2579.59,7.2000663349917815
0,-2204.7,-1213.44,-2227.44,-2577.32,7.2050663810577475
0,-2206.72,-1214.45,-2229.29,-2573.17,7.210066427123714
0,-2198.27,-1211.64,-2225.13,-2570.97,7.21506647318968
0,-2207.46,-1211.46,-2226.3,-2577.13,7.220066519255646
0,-2210.29,-1222.77,-2232.75,-2579.95,7.225066565321612
0,-2212.87,-1222.76,-2234.3,-2578.43,7.230066611387578
0,-2217.8,-1228.8,-2242.52,-2578.33,7.235066657453544
0,-2216.52,-1226.05,-2240.79,-2580.88,7.24006670351951
0,-2217.26,-1224.35,-2238.38,-2581.37,7.245066749585476
0,-2215.35,-1221.22,-2235.76,-2575.1,7.250066795651442
0,-2219.37,-1222.94,-2236.58,-2580.17,7.255066841717408
0,-2215.88,-1222.05,-2233.04,-2577.49,7.260066887783374
0,-2216.14,-1225.55,-2232.17,-2577.15,7.26506693384934
0,-2212.59,-1226.05,-2238.57,-2578.56,7.270066979915313
0,-2217.86,-1230.13,-2241.55,-2579.28,7.275067025981279
0,-2221.36,-1224.18,-2241.19,-2582.73,7.280067072047245
0,-2218.55,-1220.63,-2246.12,-2577.01,7.285067118113211
0,-2214.65,-1224.43,-2238.31,-2581.76,7.290067164179177
0,-2210.42,-1217.6,-2229.94,-2569.06,7.2950672102451435
0,-2205.85,-1217.0,-2222.76,-2567.53,7.3000672563111095
0,-2205.65,-1219.11,-2226.12,-2568.31,7.305067302377076
0,-2211.24,-1223.65,-2231.12,-2575.05,7.310067348443042
0,-2215.59,-1224.53,-2236.07,-2581.01,7.315067394509008
0,-2213.04,-1220.62,-2238.12,-2571.09,7.320067440574974
0,-2207.71,-1219.77,-2234.15,-2572.77,7.32506748664094
0,-2210.49,-1217.72,-2231.09,-2576.42,7.330067532706906
0,-2207.09,-1218.2,-2225.72,-2570.82,7.335067578772872
0,-2204.82,-1213.71,-2228.86,-2574.58,7.340067624838838
0,-2201.64,-1214.63,-2227.55,-2571.88,7.345067670904811
0,-2200.49,-1216.15,-2229.57,-2572.8,7.350067716970777
0,-2204.55,-1212.2,-2228.73,-2569.83,7.355067763036743
0,-2199.28,-1218.23,-2230.46,-2572.84,7.360067809102709
0,-2198.56,-1217.56,-2222.75,-2568.99,7.365067855168675
0,-2198.06,-1207.2,-2217.55,-2566.55,7.370067901234641
0,-2196.16,-1207.68,-2214.55,-2567.52,7.375067947300607
0,-2193.63,-1204.39,-2219.09,-2555.47,7.380067993366573
0,-2192.31,-1216.04,-2218.73,-2563.35,7.385068039432539
0,-2199.76,-1221.92,-2226.05,-2564.14,7.3900680854985055
0,-2201.3,-1209.24,-2218.49,-2562.1,7.3950681315644715
0,-2200.72,-1210.11,-2223.9,-2564.73,7.400068177630438
0,-2201.11,-1207.61,-2225.81,-2571.55,7.405068223696404
0,-2204.24,-1215.08,-2225.14,-2570.88,7.41006826976237
0,-2206.77,-1214.61,-2230.9,-2573.18,7.415068315828336
0,-2205.41,-1214.57,-2226.35,-2569.81,7.420068361894302
0,-2207.52,-1217.98,-2231.28,-2572.13,7.425068407960275
0,-2203.26,-1217.91,-2224.85,-2575.13,7.430068454026241
0,-2210.87,-1223.47,-2227.22,-2573.59,7.435068500092207
0,-2206.46,-1216.33,-2231.38,-2568.4,7.440068546158173
0,-2210.52,-1222.12,-2233.84,-2574.18,7.445068592224139
0,-2209.1,-1219.93,-2227.7,-2581.68,7.450068638290105
0,-2204.37,-1225.02,-2228.06,-2574.73,7.455068684356071
0,-2202.86,-1214.85,-2222.61,-2568.03,7.460068730422037
0,-2197.92,-1212.38,-2221.62,-2561.07,7.465068776488003
0,-2195.76,-1211.14,-2215.96,-2569.62,7.470068822553969
0,-2202.96,-1205.98,-2222.46,-2563.21,7.475068868619935
0,-2209.04,-1213.01,-2227.15,-2572.92,7.480068914685901
0,-2210.89,-1222.73,-2229.77,-2579.15,7.4850689607518675
0,-2210.53,-1222.94,-2231.58,-2573.84,7.4900690068178335
0,-2203.28,-1217.72,-2229.99,-2569.12,7.4950690528837995
0,-2202.77,-1220.55,-2234.72,-2571.78,7.500069098949773
0,-2208.7,-1222.43,-2231.5,-2572.76,7.505069145015739
0,-2207.03,-1222.63,-2229.47,-2572.3,7.510069191081705
0,-2210.1,-1222.77,-2232.54,-2575.58,7.515069237147671
0,-2209.78,-1220.2,-2232.1,-2574.61,7.520069283213637
0,-2207.48,-1214.53,-2229.73,-2568.08,7.525069329279603
0,-2210.7,-1217.5,-2227.82,-2574.68,7.530069375345569
0,-2207.82,-1226.25,-2234.82,-2579.42,7.535069421411535
0,-2217.17,-1232.62,-2234.66,-2577.64,7.540069467477501
0,-2215.88,-1222.24,-2234.05,-2571.33,7.545069513543467
0,-2209.12,-1211.28,-2229.03,-2568.76,7.550069559609433
0,-2211.83,-1221.04,-2238.07,-2570.35,7.555069605675399
0,-2208.39,-1226.97,-2235.05,-2575.58,7.560069651741365
0,-2205.53,-1218.95,-2230.28,-2572.48,7.565069697807331
0,-2208.27,-1215.94,-2230.53,-2570.64,7.570069743873297
0,-2218.55,-1219.81,-2233.94,-2569.26,7.5750697899392705
0,-2210.16,-1214.4,-2228.41,-2568.61,7.5800698360052365
0,-2213.38,-1221.17,-2231.74,-2570.95,7.585069882071203
0,-2211.28,-1219.12,-2230.22,-2567.43,7.590069928137169
0,-2208.7,-1212.61,-2225.87,-2566.19,7.595069974203135
0,-2204.63,-1208.77,-2226.17,-2569.26,7.600070020269101
0,-2202.78,-1211.24,-2225.62,-2564.7,7.605070066335067
0,-2205.32,-1211.82,-2225.37,-2565.25,7.610070112401033
0,-2204.13,-1211.96,-2223.45,-2568.51,7.615070158466999
0,-2191.5,-1209.86,-2215.03,-2567.7,7.620070204532965
0,-2202.41,-1211.34,-2216.64,-2564.18,7.625070250598931
0,-2198.46,-1210.52,-2213.42,-2567.45,7.630070296664897
0,-2206.4,-1209.95,-2226.65,-2570.1,7.635070342730863
0,-2208.47,-1213.71,-2227.58,-2563.84,7.640070388796829
0,-2205.2,-1212.05,-2219.64,-2568.48,7.645070434862795
0,-2202.97,-1211.88,-2224.81,-2567.33,7.650070480928768
0,-2202.13,-1215.23,-2222.58,-2562.02,7.655070526994734
0,-2198.68,-1206.18,-2216.23,-2566.17,7.6600705730607
0,-2201.04,-1210.19,-2221.74,-2570.66,7.665070619126666
0,-2200.54,-1211.47,-2222.09,-2565.1,7.6700706651926325
0,-2204.13,-1211.62,-2226.14,-2569.09,7.6750707112585985
0,-2205.23,-1219.52,-2227.8,-2567.95,7.680070757324565
0,-2199.58,-1222.41,-2234.33,-2576.76,7.685070803390531
0,-2205.98,-1227.16,-2227.89,-2574.58,7.690070849456497
0,-2211.29,-1223.33,-2239.25,-2574.34,7.695070895522463
0,-2205.87,-1228.24,-2237.63,-2580.59,7.700070941588429
0,-2209.16,-1235.03,-2243.03,-2587.52,7.705070987654395
0,-2210.69,-1225.13,-2239.31,-2584.52,7.710071033720361
0,-2210.38,-1213.09,-2228.42,-2572.13,7.715071079786327
0,-2209.27,-1217.53,-2230.31,-2570.07,7.720071125852293
0,-2203.81,-1213.43,-2233.34,-2572.21,7.725071171918266
0,-2203.31,-1214.7,-2234.22,-2577.76,7.730071217984232
0,-2206.49,-1217.2,-2231.15,-2576.16,7.735071264050198
0,-2206.32,-1213.18,-2227.1,-2574.64,7.740071310116164
0,-2205.21,-1208.03,-2224.35,-2569.29,7.74507135618213
0,-2206.69,-1218.33,-2228.23,-2573.77,7.750071402248096
0,-2208.3,-1220.98,-2231.3,-2570.62,7.755071448314062
0,-2211.31,-1219.9,-2237.16,-2570.9,7.760071494380028
0,-2208.86,-1216.47,-2230.52,-2571.02,7.7650715404459945
0,-2201.99,-1217.0,-2225.14,-2567.86,7.7700715865119605
0,-2205.76,-1217.54,-2226.15,-2574.12,7.7750716325779266
0,-2212.87,-1222.47,-2236.76,-2573.38,7.780071678643893
0,-2213.79,-1223.56,-2235.66,-2574.35,7.785071724709859
0,-2213.35,-1219.87,-2237.37,-2574.91,7.790071770775825
0,-2214.95,-1221.83,-2239.34,-2580.19,7.795071816841791
0,-2211.77,-1222.38,-2241.16,-2578.52,7.800071862907757
0,-2209.92,-1223.14,-2235.52,-2578.3,7.80507190897373
0,-2210.0,-1211.75,-2230.87,-2568.94,7.810071955039696
0,-2207.98,-1217.14,-2228.35,-2570.3,7.815072001105662
0,-2212.41,-1214.33,-2230.85,-2577.95,7.820072047171628
0,-2212.34,-1216.52,-2228.39,-2572.9,7.825072093237594
0,-2207.25,-1213.3,-2227.32,-2565.82,7.83007213930356
0,-2210.6,-1213.12,-2226.98,-2569.78,7.835072185369526
0,-2207.34,-1219.86,-2227.38,-2570.79,7.840072231435492
0,-2203.66,-1216.42,-2228.93,-2567.44,7.845072277501458
0,-2196.61,-1212.46,-2227.23,-2565.29,7.850072323567424
0,-2202.21,-1212.36,-2228.35,-2566.55,7.85507236963339
0,-2206.03,-1220.37,-2229.06,-2572.16,7.860072415699356
0,-2202.02,-1216.81,-2231.82,-2574.23,7.8650724617653225
0,-2204.3,-1219.08,-2227.51,-2573.24,7.8700725078312885
0,-2208.85,-1217.83,-2234.2,-2578.17,7.875072553897255
0,-2208.82,-1216.18,-2228.94,-2576.72,7.880072599963228
0,-2202.88,-1214.88,-2227.02,-2575.24,7.885072646029194
0,-2208.61,-1219.32,-2228.4,-2578.4,7.89007269209516
0,-2207.81,-1217.85,-2233.72,-2574.58,7.895072738161126
0,-2210.4,-1220.42,-2229.83,-2573.51,7.900072784227092
0,-2204.79,-1215.3,-2224.48,-2569.43,7.905072830293058
0,-2208.59,-1213.91,-2230.51,-2567.57,7.910072876359024
0,-2211.66,-1220.33,-2231.12,-2573.14,7.91507292242499
0,-2209.16,-1230.46,-2239.82,-2582.15,7.920072968490956
0,-2215.37,-1226.0,-2235.93,-2576.82,7.925073014556922
0,-2209.45,-1219.8,-2237.08,-2571.13,7.930073060622888
0,-2206.43,-1219.33,-2231.13,-2569.24,7.935073106688854
0,-2205.19,-1223.78,-2232.29,-2569.16,7.94007315275482
0,-2213.89,-1230.77,-2242.05,-2571.25,7.945073198820786
0,-2209.52,-1221.65,-2239.14,-2569.79,7.950073244886752
0,-2215.14,-1221.8,-2228.3,-2568.27,7.9550732909527255
0,-2209.4,-1211.47,-2224.53,-2561.35,7.960073337018692
0,-2204.24,-1216.92,-2227.19,-2569.51,7.965073383084658
0,-2203.56,-1214.1,-2222.85,-2560.69,7.970073429150624
0,-2203.02,-1215.78,-2225.08,-2565.03,7.97507347521659
0,-2200.13,-1208.58,-2219.88,-2564.12,7.980073521282556
0,-2203.75,-1209.21,-2218.88,-2561.06,7.985073567348522
0,-2202.97,-1215.67,-2226.52,-2563.07,7.990073613414488
0,-2204.09,-1212.24,-2221.09,-2566.65,7.995073659480454
0,-2208.42,-1212.62,-2228.37,-2570.11,8.00007370554642
0,-2202.21,-1216.22,-2219.38,-2568.54,8.005073751612386
0,-2207.9,-1222.17,-2223.76,-2575.78,8.010073797678352
0,-2204.53,-1213.68,-2222.86,-2572.15,8.015073843744318
0,-2205.32,-1214.06,-2231.24,-2573.54,8.020073889810284
0,-2197.12,-1210.86,-2224.5,-2567.26,8.02507393587625
0,-2204.44,-1214.78,-2220.42,-2568.51,8.030073981942223
0,-2208.31,-1217.17,-2232.77,-2576.73,8.03507402800819
0,-2215.43,-1222.12,-2237.44,-2577.92,8.040074074074155
0,-2205.74,-1220.46,-2236.08,-2578.74,8.045074120140121
0,-2211.53,-1221.66,-2235.62,-2580.4,8.050074166206088
0,-2211.38,-1224.44,-2233.55,-2582.75,8.055074212272054
0,-2217.78,-1221.56,-2238.04,-2581.48,8.06007425833802
0,-2214.32,-1229.51,-2238.32,-2581.76,8.065074304403986
0,-2215.14,-1223.87,-2235.76,-2585.5,8.070074350469952
0,-2210.26,-1219.37,-2231.55,-2578.49,8.075074396535918
0,-2213.19,-1225.24,-2236.37,-2572.7,8.080074442601884
0,-2204.71,-1220.96,-2232.59,-2572.7,8.08507448866785
0,-2204.83,-1219.65,-2235.06,-2581.16,8.090074534733816
0,-2203.9,-1218.97,-2226.44,-2568.56,8.095074580799782
0,-2202.54,-1216.54,-2229.28,-2569.18,8.100074626865748
0,-2201.53,-1214.4,-2222.61,-2572.06,8.105074672931721
0,-2204.73,-1216.68,-2225.55,-2570.17,8.110074718997687
0,-2200.73,-1211.62,-2225.8,-2571.55,8.115074765063653
0,-2196.17,-1207.77,-2217.05,-2566.15,8.12007481112962
0,-2199.16,-1212.75,-2223.77,-2566.24,8.125074857195585
0,-2204.97,-1208.64,-2224.12,-2569.3,8.130074903261551
0,-2211.09,-1213.49,-2228.44,-2572.57,8.135074949327517
0,-2210.87,-1214.82,-2229.32,-2570.48,8.140074995393483
0,-2221.93,-1218.38,-2233.97,-2572.52,8.14507504145945
0,-2208.35,-1211.11,-2230.33,-2572.14,8.150075087525416
0,-2206.89,-1207.75,-2222.31,-2569.76,8.155075133591382
0,-2204.0,-1218.98,-2227.79,-2568.41,8.160075179657348
0,-2203.23,-1217.83,-2223.57,-2572.35,8.165075225723314
0,-2206.89,-1220.09,-2228.7,-2567.59,8.17007527178928
0,-2210.52,-1219.97,-2226.91,-2569.31,8.175075317855246
0,-2212.45,-1218.79,-2230.89,-2561.16,8.180075363921212
0,-2209.41,-1213.49,-2227.61,-2566.55,8.185075409987185
0,-2207.54,-1214.76,-2221.09,-2566.46,8.190075456053151
0,-2208.1,-1209.06,-2224.75,-2561.6,8.195075502119117
0,-2205.19,-1216.8,-2226.27,-2568.44,8.200075548185083
0,-2206.9,-1227.11,-2225.41,-2563.83,8.20507559425105
0,-2208.31,-1218.0,-2229.23,-2560.34,8.210075640317015
0,-2208.42,-1216.11,-2228.51,-2566.78,8.215075686382981
0,-2205.49,-1217.55,-2227.75,-2563.89,8.220075732448947
0,-2213.01,-1221.81,-2232.86,-2570.79,8.225075778514913
0,-2212.75,-1225.32,-2229.34,-2569.32,8.23007582458088
0,-2202.01,-1219.53,-2227.95,-2570.38,8.235075870646845
0,-2202.61,-1221.94,-2228.84,-2571.25,8.240075916712811
0,-2199.37,-1217.73,-2228.32,-2570.11,8.245075962778778
0,-2206.49,-1221.22,-2226.94,-2565.72,8.250076008844744
0,-2199.1,-1215.59,-2224.56,-2568.34,8.25507605491071
0,-2206.91,-1217.36,-2228.19,-2564.97,8.260076100976683
0,-2204.91,-1218.94,-2225.82,-2570.72,8.265076147042649
0,-2206.74,-1216.22,-2227.45,-2570.05,8.270076193108615
0,-2205.08,-1211.51,-2220.38,-2565.42,8.275076239174581
0,-2199.15,-1213.14,-2225.51,-2562.51,8.280076285240547
0,-2204.02,-1210.9,-2223.85,-2567.4,8.285076331306513
0,-2195.14,-1209.51,-2215.46,-2562.08,8.290076377372479
0,-2202.84,-1203.37,-2219.82,-2567.04,8.295076423438445
0,-2202.52,-1208.52,-2219.15,-2567.9,8.300076469504411
0,-2199.03,-1208.4,-2221.36,-2572.66,8.305076515570377
0,-2206.66,-1216.05,-2227.83,-2571.38,8.310076561636343
0,-2203.16,-1215.24,-2229.47,-2570.85,8.31507660770231
0,-2207.5,-1219.26,-2228.66,-2575.63,8.320076653768275
0,-2203.2,-1215.08,-2224.23,-2573.57,8.325076699834241
0,-2197.72,-1218.69,-2225.77,-2571.8,8.330076745900207
0,-2201.62,-1222.43,-2227.3,-2574.85,8.33507679196618
0,-2211.59,-1218.54,-2228.35,-2569.23,8.340076838032147
0,-2206.54,-1214.0,-2232.5,-2572.84,8.345076884098113
0,-2204.66,-1215.38,-2223.44,-2566.96,8.350076930164079
0,-2203.58,-1215.21,-2220.41,-2575.7,8.355076976230045
0,-2200.63,-1219.45,-2232.49,-2578.28,8.36007702229601
0,-2201.56,-1217.66,-2226.21,-2569.24,8.365077068361977
0,-2199.49,-1212.03,-2226.87,-2569.68,8.370077114427943
0,-2203.94,-1214.36,-2226.68,-2575.26,8.375077160493909
0,-2202.66,-1218.09,-2227.02,-2575.38,8.380077206559875
0,-2202.58,-1221.22,-2229.84,-2575.96,8.385077252625841
0,-2209.15,-1219.08,-2230.66,-2574.73,8.390077298691807
0,-2210.9,-1219.44,-2237.34,-2569.63,8.395077344757773
0,-2206.41,-1222.77,-2232.89,-2574.92,8.40007739082374
0,-2206.08,-1222.3,-2237.32,-2577.23,8.405077436889705
0,-2212.03,-1220.12,-2240.46,-2581.42,8.410077482955678
0,-2216.38,-1225.9,-2239.84,-2582.28,8.415077529021644
0,-2216.18,-1224.77,-2240.16,-2582.09,8.42007757508761
0,-2216.49,-1228.74,-2243.22,-2583.1,8.425077621153577
0,-2207.4,-1226.08,-2235.65,-2581.08,8.430077667219543
0,-2212.67,-1225.26,-2237.1,-2585.36,8.435077713285509
0,-2212.03,-1225.48,-2237.34,-2583.07,8.440077759351475
0,-2216.53,-1227.29,-2245.78,-2580.43,8.44507780541744
0,-2215.05,-1228.1,-2239.32,-2583.96,8.450077851483407
0,-2212.95,-1232.5,-2240.79,-2588.07,8.455077897549373
0,-2213.14,-1227.0,-2235.86,-2580.59,8.460077943615339
0,-2205.06,-1221.92,-2232.8,-2577.61,8.465077989681305
0,-2205.91,-1216.18,-2226.2,-2570.87,8.470078035747271
0,-2208.54,-1215.15,-2225.12,-2573.08,8.475078081813237
0,-2205.93,-1219.53,-2229.56,-2576.34,8.480078127879203
0,-2209.03,-1216.4,-2235.91,-2576.02,8.485078173945176
0,-2213.41,-1214.88,-2232.71,-2570.99,8.490078220011142
0,-2211.73,-1215.28,-2226.95,-2564.84,8.495078266077108
0,-2204.09,-1210.9,-2224.47,-2565.18,8.500078312143074
0,-2206.17,-1211.72,-2225.91,-2567.14,8.50507835820904
0,-2208.69,-1211.71,-2225.2,-2564.11,8.510078404275006
0,-2206.63,-1212.45,-2225.48,-2564.14,8.515078450340972
0,-2208.49,-1213.1,-2231.04,-2571.98,8.520078496406938
0,-2208.82,-1219.13,-2227.06,-2562.2,8.525078542472905
0,-2205.1,-1213.99,-2222.49,-2569.05,8.53007858853887
0,-2203.57,-1215.04,-2225.3,-2564.47,8.535078634604837
0,-2199.97,-1209.85,-2224.42,-2563.57,8.540078680670803
0,-2204.79,-1215.38,-2229.87,-2566.12,8.545078726736769
0,-2208.08,-1215.99,-2233.06,-2572.98,8.550078772802735
0,-2201.28,-1213.04,-2222.13,-2573.49,8.5550788188687
0,-2201.79,-1216.05,-2224.67,-2571.84,8.560078864934667
0,-2202.29,-1211.86,-2224.1,-2575.23,8.56507891100064
0,-2203.03,-1212.31,-2229.29,-2572.59,8.570078957066606
0,-2201.21,-1211.77,-2223.33,-2572.25,8.575079003132572
0,-2202.31,-1210.44,-2224.28,-2563.71,8.580079049198538
0,-2200.91,-1213.84,-2223.39,-2567.82,8.585079095264504
0,-2207.76,-1217.12,-2221.6,-2570.48,8.59007914133047
0,-2201.93,-1215.41,-2226.46,-2570.44,8.595079187396436
0,-2202.44,-1216.33,-2226.19,-2572.17,8.600079233462402
0,-2209.86,-1216.87,-2227.7,-2577.91,8.605079279528368
0,-2210.36,-1223.51,-2236.0,-2576.2,8.610079325594334
0,-2209.76,-1219.83,-2227.75,-2577.1,8.6150793716603
0,-2206.09,-1222.27,-2229.98,-2571.45,8.620079417726267
0,-2211.42,-1215.56,-2231.25,-2574.16,8.625079463792233
0,-2207.41,-1215.58,-2229.06,-2569.96,8.630079509858199
0,-2207.78,-1212.85,-2226.43,-2572.71,8.635079555924165
0,-2209.21,-1217.89,-2227.95,-2571.97,8.640079601990138
0,-2206.9,-1212.73,-2222.36,-2571.45,8.645079648056104
0,-2200.57,-1207.62,-2219.38,-2566.94,8.65007969412207
0,-2203.3,-1217.63,-2229.7,-2571.62,8.655079740188036
0,-2204.94,-1213.42,-2227.32,-2567.73,8.660079786254002
