labels,F4,F3,Fz,Cz,timestamps
0,-2.2738275288930794,-2.088699835571857,-4.267622836584117,-3.734299601173561,-2.000311284046667
0,-4.774207148856082,0.010659933956530088,-3.466885555957872,-6.874737014109873,-1.9953105058365495
0,-22.734579282798293,-8.37997186751156,-17.30614039478987,-14.15516609376332,-1.9903097276264319
0,5.3250561162686525,-4.59059520275637,-2.7553873049885436,-5.0155868145111455,-1.9853089494163179
0,12.304699096088864,14.048789965786337,7.355373762301717,4.094000850073986,-1.9803081712062003
0,8.014349704446321,2.3581836756964436,10.156142856238407,-1.826403073100613,-1.9753073929960827
0,-1.295992011503045,0.33758596414362474,-4.44307997433683,-6.706798556981725,-1.9703066147859651
0,-4.2963260051701315,-8.863003132056814,-3.76229468098454,-5.547185574322947,-1.9653058365758511
0,0.2933477699137592,2.356416423956574,1.8784987846848682,1.452435902513687,-1.9603050583657335
0,4.0830293603259,4.665844669260622,8.01930047114994,10.982065901440723,-1.955304280155616
0,6.542718812604497,9.915281640885835,10.34011042668167,12.781704450148764,-1.9503035019454984
0,12.792416172922302,13.814727375363365,12.630928698906116,8.011351575564603,-1.9453027237353844
0,8.502121486747575,11.254181908329285,-0.5582446654394324,2.641007303661187,-1.9403019455252668
0,0.05183479868956575,8.723645274317855,-6.377409620326461,-4.309328340296697,-1.9353011673151492
0,-18.068443847194914,-15.646882493061627,-21.84656611978945,-21.95965533117584,-1.9303003891050352
0,-16.418714406596507,-16.46740136039542,-24.715714117010158,-24.53997364311451,-1.9252996108949176
0,-3.238976834179483,8.142088706372249,-1.9648535635992552,7.179716751194619,-1.9202988326848
0,-11.13923108342122,-9.558412257913341,-9.293984409589829,-6.070584119622536,-1.9152980544746825
0,-10.299477106837632,-6.848904217933813,-5.153106603950848,-1.230876226314757,-1.9102972762645685
0,-9.499714856050128,-15.579387137857916,-12.342220094913017,-7.631159539359271,-1.905296498054451
0,-6.009944281744719,-3.8598609810181643,0.838675170016213,5.198565971071336,-1.9002957198443333
0,8.87983466615047,3.2596742901212883,13.32957924385966,23.53830033487971,-1.8952949416342157
0,14.259622037917191,12.96921871349991,19.55049217949765,28.408043581225392,-1.8902941634241017
0,14.77941788328117,2.4487723267961456,9.951414028842303,19.70779573751648,-1.8852933852139842
0,39.86922225066392,10.778335167033823,19.60234484240027,21.137556828910142,-1.8802926070038666
0,20.65903518644884,17.657907270441356,18.003284669169563,24.007326878347317,-1.875291828793749
0,21.378856734483453,28.71748867211022,34.00423355642603,30.627105906572776,-1.870291050583635
0,15.808686936182784,22.27707940537439,25.02519154926971,24.196893931926642,-1.8652902723735174
0,24.658525830900576,26.326679501320434,25.586158690235266,19.116690970211152,-1.8602894941633998
0,24.128373456018135,18.476288988660897,26.32713501922159,19.14649703487077,-1.8552887159532823
0,29.238229846736242,28.80590789380369,28.948120573559983,20.106312137287304,-1.8502879377431682
0,23.36809503582342,18.2055362408931,25.209115387986092,6.836136286998726,-1.8452871595330507
0,28.317969053499677,21.625174051835643,26.270119494607243,8.465969492008409,-1.840286381322933
0,40.26785192733966,34.32482134632347,32.17113292290909,15.525811759162636,-1.8352856031128155
0,37.74774368192439,41.124478141553745,39.15215569960529,18.965663094215667,-1.8302848249027015
0,36.19764433839309,41.89414445157572,37.26318784826115,17.355523501540258,-1.825284046692584
0,36.3275539142509,43.09382028668632,34.5242293889511,19.335392983846003,-1.8202832684824664
0,51.39747242331825,46.403505653109875,39.65528033815655,15.64527154208549,-1.8152824902723488
0,42.47739987546699,41.453200552843406,32.986340708785775,12.3951591755115,-1.8102817120622348
0,38.447336276318396,56.48290498353114,44.82741051015448,25.205055881772285,-1.8052809338521172
0,44.32728162726262,60.74261893816535,49.288489747805095,21.554961656821167,-1.8002801556419996
0,31.477235925666612,47.552342404614336,36.41957842317752,12.984876494687649,-1.795279377431882
0,20.62719916519247,39.60207536550066,29.2806765335518,6.304800387572176,-1.790278599221768
0,18.487171336422524,25.8418177987649,13.331784072611832,-9.6652666735743,-1.7852778210116504
0,25.227152427546226,29.401569678565103,19.572901031339306,5.6246753017241256,-1.7802770428015329
0,14.43714242468168,17.07133097604128,18.204027398708337,5.824626303890939,-1.7752762645914153
0,15.697141312001962,11.91110165990098,21.29516316190146,9.524586323140763,-1.7702754863813013
0,15.207149071951562,11.330881696995652,13.556308306277359,8.124555349116537,-1.7652747081711837
0,12.437165685450514,-4.679328947100506,5.28746281549212,1.59453337072965,-1.7602739299610661
0,20.087191131967174,5.88046969245717,13.228626671867863,11.684520376216948,-1.7552731517509486
0,15.177225389468456,3.4902775801711092,8.889799856697612,6.604516353176962,-1.7502723735408345
0,7.407268434378067,-7.439905319665755,1.5309823503537574,5.784521288496484,-1.745271595330717
0,-1.312679758172929,-8.670079042768473,0.6721741324889605,4.9045351683560625,-1.7402708171205994
0,7.857380786168883,-6.510243624450823,2.2933751823714426,10.794557978308552,-1.7352700389104818
0,13.1074500412604,-3.940399099366908,-0.5154145208980672,4.594589703255065,-1.7302692607003678
0,-9.43247201960301,-11.560545501510619,-3.664194998293925,1.014630327430332,-1.7252684824902502
0,-17.572385423451433,-19.750682864118556,-16.81296627064044,-10.915320165350987,-1.7202677042801326
0,-14.802290196819541,-23.510811219245554,-19.541728358100166,-16.975261791118143,-1.715266926070015
0,-9.30218636503325,-19.230930597229708,-13.770481279570228,-6.065194565105418,-1.710266147859901
0,-8.73207395211218,-28.581041026356786,-18.569225052353605,-11.97511850144552,-1.7052653696497835
0,-11.271952980988143,-22.071142532686807,-9.077959692163821,-5.725033613244338,-1.700264591439666
0,-7.891823473634274,-20.041235139964474,-12.986685213282914,-3.874939912755856,-1.6952638132295519
0,-4.051685451126153,-13.821318869743513,-6.56540162876815,6.52516258835818,-1.6902630350194343
0,-3.181538933805088,-17.511393741690622,-5.634108950674078,3.5452738786094375,-1.6852622568093167
0,-1.4913839415172854,-8.201459773868756,-2.102807190294471,8.265393946263927,-1.6802614785991992
0,-0.6012204938057919,-8.551516982990895,7.058503641530322,10.9755227790546,-1.6752607003890851
0,-0.631048610038845,-5.0515653847210835,8.809823533988443,13.1756603639393,-1.6702599221789676
0,5.319131690476196,-0.45160499397864484,-1.0088475241129404,9.585806686872402,-1.66525914396885
0,6.259320388311158,-2.2916358252152054,1.8724904555658903,8.635961732723317,-1.6602583657587324
0,-7.330482536245492,-12.25165789256051,-7.286162538857814,-1.4138745145776486,-1.6552575875486184
0,-4.6002771030534,-9.491671209662629,-8.97480651913141,0.5862979283011909,-1.6502568093385008
0,-11.570063331705763,-6.611675789392335,-8.083441496508168,4.196479044434271,-1.6452560311283833
0,8.480158758742114,1.5883283561901098,4.197932518423473,9.986668816694875,-1.6402552529182657
0,-6.029610850355626,-1.4016587844584265,-0.10068448446791045,8.056867227504064,-1.6352544747081517
0,-18.329372177386194,-9.441637222628694,-2.9492925151951663,6.067074258578576,-1.630253696498034
0,-16.159125240107894,-10.841606969262797,-1.1878915837416386,5.607289890891504,-1.6252529182879165
0,-0.03887005512059072,0.2584319653289544,-0.21648169997569888,9.537514104742304,-1.620252140077799
0,-14.318606637862638,-10.041520428474358,-11.375062873575514,-6.012253120167308,-1.615251361867685
0,-18.718335002803396,-17.17146415963254,-16.123635113788968,-11.872011804438246,-1.6102505836575673
0,-15.468055163239761,-8.55139923620864,-12.792198428966111,-13.791761968345346,-1.6052498054474498
0,-14.487767130970756,-4.751325665158539,-11.330752826207855,-10.351503631242089,-1.6002490272373322
0,0.08252908366473832,4.458756547442555,-0.40929831140890083,-3.2712368113818737,-1.5952482490272182
0,8.462833471293742,19.34884739577894,11.782165110298825,6.749038473808511,-1.5902474708171006
0,15.803146022685608,27.43894687340185,19.593637433745243,8.429322207140991,-1.585246692606983
0,22.073466727867444,38.13905497217571,25.245118652778718,11.659614371047475,-1.5802459143968655
0,52.66379557522389,63.17917168115068,48.256608759337695,26.679914947061878,-1.5752451361867514
0,57.60413255026355,65.66929698525959,53.798107742388076,26.90022391523195,-1.5702443579766339
0,64.26447763414407,78.83943086395223,62.569615586707556,34.41054125343039,-1.5652435797665163
0,62.52483080255641,67.22957329017974,57.971132271903514,27.570866936821822,-1.5602428015563987
0,65.7651920251975,79.15972422991047,58.28265777192618,31.79120093763029,-1.5552420233462847
0,54.005561265633794,73.12988364196404,48.29419205504487,24.47154322514881,-1.5502412451361671
0,64.60593848140762,55.180051478034756,50.095735084125344,23.011893765891976,-1.5452404669260495
0,64.06632362414308,58.230227683110144,53.16728681695392,27.542252523809815,-1.540239688715932
0,28.966716639652006,39.980412196237694,36.5688472064378,19.792619460431563,-1.535238910505818
0,17.867117468689656,27.76060495140664,23.93041620099308,12.752994535010933,-1.5302381322957004
0,12.547526048488258,12.700805878638088,16.481993745416027,3.8933777049341405,-1.5252373540855828
0,10.147942314165357,14.001014905216413,15.683579781918333,6.7637689263357625,-1.5202365758754652
0,-0.3516338004779209,-6.758768043256996,-4.60482574904915,-4.36583184536191,-1.5152357976653512
0,7.478797637538624,3.6314569579718965,10.276777091892793,4.914575344921428,-1.5102350194552336
0,-12.14076343922336,-18.638310166489152,-15.311611756346746,-12.195009547808901,-1.505234241245116
0,-8.800317098180503,-12.688069491554824,-12.319992354769788,-10.744586568299706,-1.5002334630349985
0,-10.009863406209499,-12.207821091122526,-14.508364763652867,-8.824155760629667,-1.4952326848248845
0,-26.579402429210855,-35.07756503768397,-27.426729041992,-17.98371716789339,-1.490231906614767
0,-30.46893423159805,-45.48730140173107,-32.915085246992085,-27.42327083192293,-1.4852311284046493
0,-30.76845887558683,-40.29703025074704,-30.97343343343698,-24.2628167927975,-1.4802303501945318
0,-29.007976420646045,-39.23675164840433,-26.22177365323863,-18.722355088397006,-1.4752295719844177
0,-23.927486923364555,-36.4464656544052,-32.65010595537139,-20.681885754357914,-1.4702287937743002
0,-17.416990437648515,-23.356172324730355,-20.07843038597984,-6.151408824331913,-1.4652280155641826
0,-26.846487015048357,-23.96587171211394,-25.726746988543663,-10.030924330401666,-1.460227237354065
0,-17.865976704956264,-20.925563866599056,-17.125055804122866,-7.45043230351742,-1.455226459143951
0,-15.23545955468694,-22.915248835913935,-14.763356871642856,-4.479932773779422,-1.4502256809338334
0,-12.54493560969421,-9.154926665682872,-3.041650228277666,1.5505742293663116,-1.4452249027237158
0,-27.494404913804782,-19.72459739969424,-21.569935909882272,-6.288911323119763,-1.4402241245136018
0,-26.423867509076548,-18.714261080122476,-20.468213951087485,-10.688389459960728,-1.4352233463034842
0,-11.8233234354488,-1.673917747593216,-2.696484385056495,8.512139790547586,-1.4302225680933667
0,-5.732772730828168,-3.5535674414498235,0.04525275640408433,9.80267640037654,-1.425221789883249
0,-12.522215431661477,-10.923210200245803,-6.8230025577442195,2.933220341228343,-1.420221011673135
0,-12.091651573359698,-17.252846061879,-11.5212503581147,-1.7662284157548034,-1.4152202334630175
0,-13.181081190289587,-14.50247506324325,-8.809490674721737,-4.2856698997603555,-1.4102194552529
0,-11.510504315645013,-14.842097239870796,-5.1577235367469925,-4.2851041399117245,-1.4052186770427824
0,-6.499920981448252,1.2982873740758576,-0.8959489725972296,2.455468834939001,-1.4002178988326683
0,2.270668781237741,-1.8313212545858462,6.885832989773901,4.6860489961232625,-1.3952171206225508
0,-13.388735058024869,-13.400923158509807,-5.8123776775077145,-9.663363685042201,-1.3902163424124332
0,-1.0581325291971515,-4.290518369871952,-3.6905810023509833,-4.772769237181477,-1.3852155642023156
0,-23.14752366159885,-24.07010692007105,-28.51877701235047,-26.872167688414265,-1.3802147859922016
0,-17.836908483528067,-25.849688839267856,-21.236965734042794,-22.54155906568778,-1.375214007782084
0,-12.886287021816074,-20.639264155803026,-17.275147192175254,-16.38094339414431,-1.3702132295719665
0,-23.885659301613252,-25.938832895799717,-25.563321409426322,-24.950320696867696,-1.3652124513618489
0,-16.565025346342484,-23.298395083077924,-17.56148840642276,-21.939690994890686,-1.3602116731517349
0,-10.54438517766302,-17.44795073917626,-13.879648201795304,-19.639054307143724,-1.3552108949416173
0,-5.883738815676774,-14.667499883511201,-11.887800812396124,-13.108410650490965,-1.3502101167314997
0,-14.343086279320914,-24.697042533628725,-19.195946253579425,-22.997760039933404,-1.3452093385213821
0,-27.73242758644249,-25.946578705212904,-26.37408453919307,-20.167102488698692,-1.3402085603112681
0,-31.05176275329159,-25.536108411795084,-27.71221568119859,-19.776438008124575,-1.3352077821011505
0,-25.61109179380929,-23.715631664501764,-21.700339689247144,-16.165766607591216,-1.330207003891033
0,-8.98041471936093,-4.1351484721416805,-7.33845657064553,-3.295088294712671,-1.3252062256809154
0,-15.059731539140687,-15.934658841679706,-14.95656633080197,-8.67440307577396,-1.3202054474708014
0,-17.289042260729715,-13.454162778726673,-12.544668973720098,-14.113710956129491,-1.3152046692606838
0,-0.6283468903605627,1.1063397122544598,1.2272354977530116,6.946988059663976,-1.3102038910505662
0,-5.9476454331603215,-10.993151372254506,-6.780852918352522,0.4676939676244784,-1.3052031128404487
0,1.003062106417779,-5.152636035088273,-1.0089342234825587,1.18840676389375,-1.3002023346303346
0,-12.366224275690865,-9.9721142784392,-4.797008418735785,3.869126444461165,-1.295201556420217
0,-4.7455045831083496,-9.341586103750457,-2.7550755048814937,1.9598530051122187,-1.2902007782100995
0,3.0952211811031316,-8.301051511630563,-6.123135482345592,-1.9894135585758992,-1.285199999999982
0,9.19595301421866,5.979489498093189,9.478811648763449,12.181326748775199,-1.280199221789868
0,-4.303309086607087,-7.739963073913765,-6.389234111537025,-4.757926077722187,-1.2751984435797503
0,-5.72256512446184,-12.809409226678572,-7.997272763204024,-13.377172043167008,-1.2701976653696327
0,14.708184897531051,1.4711510412619382,3.874695694014981,3.873588847532424,-1.2651968871595152
0,-8.801059023798869,-0.19828226804349824,0.4266712606665371,-4.825643410065709,-1.2601961089494012
0,-12.89029689170092,-5.097709152205153,-4.711346062592157,-5.104868820041703,-1.2551953307392836
0,2.4804712908723765,-0.6871296086552305,1.1006437249418415,1.3259126138037365,-1.250194552529166
0,5.041245521473612,0.8834563653670859,4.112640624058399,-1.4732991120732803,-1.2451937743190484
0,17.072025797704892,10.34404877268877,13.324644635437904,10.417495998862025,-1.2401929961089344
0,25.612812116431247,21.51464761576955,22.816655759148887,22.018297942807973,-1.2351922178988168
0,31.813604472938092,24.855252895998586,29.488673993931275,21.329106714944725,-1.2301914396886993
0,24.354402860206235,24.51586461296714,23.920699336478688,22.10992230874966,-1.2251906614785817
0,17.35520726862816,7.056482764132016,11.402731781117742,9.640744715723427,-1.2201898832684677
0,11.946017686280483,11.267107345077552,8.384771320116776,8.941573925617396,-1.21518910505835
0,10.136834099465785,7.857738350059809,6.546817944320987,2.5024099269288147,-1.2101883268482325
0,13.677656493150131,7.528375772364925,6.00887164364946,6.71325270735795,-1.2051875486381185
0,13.998484851114183,16.32901960439213,4.800932407333702,0.23410225407114793,-1.200186770428001
0,12.019319155905592,10.819669837541941,7.853000224010019,-1.9650414461189243,-1.1951859922178834
0,9.280159388815926,13.650326462040766,8.725075081708862,-1.6341784065289775,-1.1901852140077658
0,17.471005529941692,10.930989466877396,12.187156967734165,-1.5033086404020475,-1.1851844357976518
0,1.6918575582267057,3.8716588398890823,3.3092458685331394,-5.892432160801851,-1.1801836575875342
0,-9.997284548302813,-1.8076654319674934,-0.8986582302275252,-4.321548980516589,-1.1751828793774166
0,-8.066420811872057,0.9230166378119341,1.993444656657739,-8.610659111913849,-1.170182101167299
0,10.794448745641791,7.983705035565659,6.965554514182566,0.1402374331573506,-1.165181322957185
0,0.3553241026253453,1.1043997474175606,5.517671327065119,0.43114064329762314,-1.1601805447470674
0,5.3062052372865445,5.36510075912906,7.679795079545657,6.982050507285748,-1.1551797665369499
0,4.147092127451967,10.975808056023439,7.5819257552473065,3.0829670137448355,-1.1501789883268323
0,0.12798475057811443,4.126521622860324,4.1340633371264826,2.0338901509435745,-1.1451782101167183
0,14.328883083749107,18.117241443650094,20.66620780741565,19.124819906700996,-1.1401774319066007
0,18.189787103451106,4.137967501486116,20.438359147337067,17.77575626806868,-1.1351766536964831
0,11.09069678510688,9.968699778471205,17.240517336608086,17.726699220791097,-1.1301758754863656
0,-11.058387897076113,-2.410561744137432,-1.957317646735857,4.217648749027662,-1.1251750972762515
0,1.1725330304356765,11.780182914329226,9.664854174074922,16.218604835540287,-1.120174319066134
0,7.043459541127608,7.48093373402788,6.337032775064576,11.889567461928902,-1.1151735408560164
0,-11.925608391455384,-10.028309305438295,-10.040781868247532,3.3705366086800317,-1.1101727626458988
0,-10.494670793631709,-9.147546224711627,-4.678589780522303,3.7215122553214046,-1.1051719844357848
0,5.976272308755357,4.513222955873482,1.4236090138364632,0.2924943807757787,-1.1001712062256672
0,3.4972208903274726,12.623998216328317,5.405814490735493,8.373482963619058,-1.0951704280155496
0,-6.3818250742305045,4.43477953644887,1.3180266260645703,5.674477982064995,-1.090169649805432
0,-0.710865610283208,-14.554433104503456,0.5202453954735895,4.415479413827951,-1.085168871595318
0,3.7900992569100045,-1.09363972740334,7.5124707743675,10.256487236038883,-1.0801680933852005
0,-1.1889304978343573,1.3171596472401315,5.414702737850259,5.5775014251945505,-1.075167315175083
0,18.222045100135183,5.837964999217511,8.616941260546218,9.438521957081658,-1.0701665369649653
0,9.303026024925224,2.7987763082272594,6.209186316447937,3.0295488067579184,-1.0651657587548513
0,4.234012249731027,-6.210406446300888,3.931437878881608,5.250581948633214,-1.0601649805447337
0,3.9050037468442573,-3.4995832850174016,4.3536959205804076,4.491621356586757,-1.0551642023346162
0,-4.853999512001811,0.6912457716315717,-1.2740395861678535,0.782667004060918,-1.0501634241244986
0,-1.3929975552483644,3.8220807034216797,-3.8417686693130415,0.9037188641635165,-1.0451626459143846
0,9.358009588696039,1.6729214901232812,0.7405086432007333,7.304776909765011,-1.040161867704267
0,-0.8209781086548302,4.103768111305776,1.892792323544041,3.6558411134580346,-1.0351610894941494
0,-41.29996067579413,-27.03537945355523,-32.46491765588628,-17.193088552445193,-1.0301603112840318
0,-35.96893814017901,-25.414521224384742,-23.782621321822006,-11.052012115460832,-1.0251595330739178
0,-15.077910526827512,-12.693657219534387,-8.460318699229074,2.259070397642921,-1.0201587548638003
0,-17.526877857960226,-23.022787455344613,-18.108009811108957,-10.919841039089777,-1.0151579766536827
0,-3.4958401536698327,-10.601911946283439,-16.14569467883829,-14.998746450966005,-1.010157198443565
0,-11.704797432667233,-4.921030705226091,-7.22337332234461,-5.497645862483093,-1.005156420233451
0,-12.443749712656144,1.9298562560855443,-1.721045760285551,-3.2065392971857127,-1.0001556420233335
0,-1.2126970104105799,6.940748926398648,1.6512879894790422,-3.2454267778864976,-0.9951548638132159
0,-9.36163934185651,-3.7983527055718485,-6.266372090575029,-8.774308326925162,-0.9901540856030984
0,-12.04057672220031,-5.467448651255821,-9.154026017738278,-5.503183966162842,-0.9851533073929843
0,-13.729509165824687,1.6734610779980035,-5.56167380884506,-2.7820537168911077,-0.9801525291828668
0,-7.73843668605554,-3.8156235289268032,-7.75931548007031,1.5890824000909438,-0.9751517509727492
0,-5.2673592951463055,3.1952975170219493,-4.566951046907673,1.13022436422835,-0.9701509727626352
0,-2.236277004518213,8.556224204898514,2.10541947572169,6.331372154942032,-0.9651501945525176
0,6.384810174887575,15.937156523417716,13.457796073153583,10.582525751372517,-0.9601494163424
0,8.415902232179555,10.198094460477014,12.710178730399727,14.903685132042847,-0.9551486381322825
0,3.2069991560961655,5.149038002884367,4.182567431622288,6.8748502745232525,-0.9501478599221684
0,6.4781009348079674,13.799987136425322,11.75496216000513,18.176021155266085,-0.9451470817120509
0,-3.770792444008972,7.350941845971385,3.337362897880925,13.127197749521693,-0.9401463035019333
0,2.7403190070290786,7.981902115474774,7.839769626845355,13.878380031215148,-0.9351455252918157
0,3.4914352751792443,11.652867927986593,3.802182327845426,8.829567972914678,-0.9301447470817017
0,3.252556347545996,7.863839265671383,7.854600981249181,6.490761545998151,-0.9251439688715841
0,-3.9563177889929744,-3.7051838901396454,-0.6129744331130063,-3.988039279031839,-0.9201431906614665
0,9.064812852261571,8.415798441303826,8.899456064122417,8.47316546783643,-0.915142412451349
0,4.035948257806233,0.3567862404180142,1.2718924519029613,-0.575624243654576,-0.910141634241235
0,-2.9429115861963187,0.6877794873410767,-5.175665291181529,-4.4344084439731475,-0.9051408560311174
0,-15.64176669376101,-16.281221837901718,-19.243217186557494,-19.25318716352241,-0.9001400778209998
0,-7.980617078518975,-17.330217754868258,-14.010763254993504,-11.86196043204123,-0.8951392996108822
0,-5.269462753256617,-14.809208282028454,-8.948303516041436,-11.28072827809582,-0.8901385214007682
0,-12.30830372986673,-16.10819343636811,-11.915837987950114,-15.079490728956515,-0.8851377431906506
0,-16.237140019361338,-10.587173233354063,-13.433366687812187,-15.108247810616682,-0.8801369649805331
0,-8.505971631678802,-12.106147687067407,-10.20088963159174,-10.116999547742205,-0.8751361867704155
0,-10.094798575564571,-10.255116810362468,-14.288406834082686,-14.285745963677435,-0.8701354085603015
0,-19.113620858619406,-22.514080614908917,-19.90591830883728,-23.134487080449357,-0.8651346303501839
0,-15.132438487213175,-15.123039111002155,-16.573424067969576,-17.80322291855224,-0.8601338521400663
0,-7.341251466305993,-17.291992307318075,-9.87092412199392,-11.141953496725444,-0.8551330739299488
0,-12.420059799523981,-18.720940210834442,-19.358418479887327,-17.44067883202934,-0.8501322957198347
0,-13.918863489353678,-29.43988282675685,-20.185907149148576,-19.989398939996775,-0.8451315175097172
0,-9.377662537160028,-10.63882015831219,-8.313390135685527,-3.6881138346345037,-0.8401307392995996
0,-9.256456943168224,-10.257752206769357,-9.490867443877423,0.3631764713609873,-0.835129961089482
0,-8.165246706570803,-1.7266789719172047,-6.808339076917128,8.264471965962237,-0.830129182879368
0,5.375968174256653,8.354399547259582,6.344194962801524,13.165772637057946,-0.8251284046692504
0,16.547187701288216,15.6854833518548,13.366734673179408,16.167078471829665,-0.8201276264591328
0,1.9184118761417366,-5.133427557588931,4.099280051758741,4.4983894563534985,-0.8151268482490153
0,-4.7603593002684415,-7.77233318112272,-1.9981689046079394,0.7497055756302524,-0.8101260700389012
0,-0.25912582741621626,5.238766481114666,4.814387800438332,9.101026813948021,-0.8051252918287837
0,8.932112295202858,17.679871429062167,16.496950162929924,14.902353155048754,-0.8001245136186661
0,9.343355067933036,10.110981662196226,12.439518178269637,10.56368458186709,-0.7951237354085485
0,3.494602490578036,5.692097178986124,9.86209184079069,9.565021076253352,-0.7901229571984345
0,-3.3941454376796303,-8.766782023015747,0.044671143699209104,-5.843637380944193,-0.7851221789883169
0,0.38711128201311107,0.014344053394474976,3.607256079414711,5.737709190531676,-0.7801214007781994
0,-4.601627351489615,-0.6445245944555793,1.0398466399456978,-0.8909392292785692,-0.7751206225680818
0,7.769638660777782,1.1866120309485653,5.212442817050232,-0.25958266043703904,-0.7701198443579678
0,9.640909317712065,14.957753927077619,14.705044602143444,6.831778876886785,-0.7651190661478502
0,6.1421846177646415,14.298901090923595,7.477651986000423,4.69314536232551,-0.7601182879377326
0,12.853464558645166,12.640053518481931,10.530264958478103,3.264516775138775,-0.755117509727615
0,18.844749137128932,19.161211204429634,18.87288350840006,13.655893094088404,-0.750116731517501
0,20.356038348731015,18.252374141965284,19.115507623357335,15.687274297232468,-0.7451159533073834
0,23.01733218729148,20.623542322622217,14.408137289396628,12.188660361566123,-0.7401151750972659
0,20.048630644687155,24.534715736072126,16.020772490894256,13.67005126277883,-0.7351143968871519
0,-8.120066289095137,1.87589437006337,-1.496586789261734,-6.08855302464619,-0.7301136186770343
0,-9.048758625232301,-13.662921789128006,-9.173940569142989,-17.657152526861505,-0.7251128404669167
0,15.47255362489319,-5.6517327556501655,-0.14128886702033783,-0.6357472697705822,-0.7201120622567991
0,-4.236129550046237,-2.9705385431916342,-2.778631700870017,-7.084337278507803,-0.7151112840466851
0,-12.694808161493535,-1.1293391648340636,-7.045969088319955,-7.622922577499708,-0.7101105058365675
0,4.386517779224992,2.371865366683558,-6.513301046626249,-11.23150319053532,-0.70510972762645
0,5.047848261117612,-0.5369249612843843,-2.3706275925463056,-15.280079140583169,-0.7001089494163324
0,0.3291832732417773,9.374289838531238,3.332051257626984,-13.028650449521312,-0.6951081712062184
0,22.480522804296633,14.415509753052609,10.174735487745075,-0.19721713803113472,-0.6901073929961008
0,28.081866842101892,29.94673476832441,25.357425081233398,18.224220774016235,-0.6851066147859832
0,42.97321537267082,41.49796486865803,36.44012002023944,23.45566326658053,-0.6801058365758657
0,71.35456837896106,56.709200035506875,57.54282028447892,31.94711031827402,-0.6751050583657516
0,51.63592583948761,60.250440246243635,56.605525849910386,24.66856190548199,-0.6701042801556341
0,49.33728772738395,66.72168547310338,55.578236687632504,28.88001800196365,-0.6651035019455165
0,59.748654010332274,78.16293568238571,63.43095276331307,33.20147857875126,-0.6601027237353989
0,61.070024650694364,67.21419083382797,60.23367403694998,39.07294360397904,-0.6551019455252849
0,54.47139960531457,55.28545088034723,51.296400462746305,30.634413042578764,-0.6501011673151673
0,54.062778825396066,56.96671576840247,59.31913198921147,40.14588685607949,-0.6451003891050497
0,64.64416225659001,53.607985438607045,51.96186855936735,38.60736500252434,-0.6400996108949322
0,35.535549839084695,57.149259826084304,41.51461011093563,22.288847436430895,-0.6350988326848181
0,33.36694150799026,52.8705388605618,45.437356576694484,24.150334109051908,-0.6300980544747006
0,46.74833719411826,40.761822466491715,44.73010788490037,37.7118249688245,-0.625097276264583
0,10.739736824598298,23.343110563542194,19.47286395961539,16.443319961506386,-0.6200964980544654
0,-1.7288596764271391,13.994403067602859,7.465624721388192,9.004819030298957,-0.6150957198443514
0,-5.1274523864767945,0.8156998920508212,-6.121609911453659,-4.543677883453761,-0.6100949416342338
0,-2.4760413834116473,3.1470009488962276,-6.888840021411504,-3.052170839237861,-0.6050941634241163
0,3.905373255107067,-5.96169385040396,-8.796065690842003,-6.250659896580069,-0.6000933852139987
0,-7.153208548406303,-3.9503845944434772,-6.923287001489319,0.40085488530930125,-0.5950926070038847
0,-4.421786871289049,3.6609286283940334,6.09949596555883,12.242373447466779,-0.5900918287937671
0,-2.7203617905721185,-12.267754270019221,-3.9477168704000682,2.4238957307716125,-0.5850910505836495
0,-37.37893338268087,-16.526433377413017,-21.964925589839186,-16.19457832427592,-0.580090272373532
0,-26.16750172272004,-14.365108780644029,-14.742130272569357,-6.743048777129246,-0.5750894941634179
0,5.193933116269245,2.2762194346470657,1.6506690028087587,7.58848431333343,-0.5700887159533004
0,6.475371062962483,-4.1624488162084745,4.953472158721767,-0.8299791113188988,-0.5650879377431828
0,-16.16318795334823,-14.051113617325328,-14.223720882005683,-11.518439109441259,-0.5600871595330652
0,-11.841744003109554,-8.709775052238802,-4.960910196303047,-4.5968957391951175,-0.5550863813229512
0,-12.40029715600238,-16.378433203571706,-17.848095860482193,-9.77534905817369,-0.5500856031128336
0,-29.54884748044024,-27.52708815269479,-30.495277949736924,-19.473799123161662,-0.545084824902716
0,4.602604956695982,-20.585739979286917,-12.872456537580295,-6.582245989889537,-0.5400840466925985
0,8.0240600898166,-16.884388760965578,-8.489631695582212,-2.460689712934604,-0.5350832684824844
0,19.025517853649074,0.41696542658214497,-9.866803493723335,-3.8591303460180484,-0.5300824902723669
0,-30.183021817584873,-16.571677490954087,-9.883972000875413,-0.8475679423920854,-0.5250817120622493
0,-41.151558989596275,-26.830317586796635,-19.481137284905188,-4.526002555019656,-0.5200809338521317
0,-28.290093726331346,-13.898954932731666,-14.408299412463883,-0.434434236612359,-0.5150801556420177
0,-15.998626088827539,-29.6975895986453,-14.385458448751809,2.6471369603241266,-0.5100793774319001
0,-32.287156135316756,-41.69622165218433,-27.35261445739234,-3.5012890166290234,-0.5050785992217826
0,-30.15568392153714,-36.444851158171836,-29.869767500165622,-7.109712219820338,-0.5000778210116685
0,-33.504209500547674,-32.213478178016366,-28.856917636510744,-8.308132701308896,-0.49507704280155096
0,-38.972732922368614,-39.972102769570945,-36.86406492309583,-3.21655051260169,-0.4900762645914334
0,-29.301254233737634,-30.630724987210698,-25.871209413585156,2.805034295351372,-0.4850754863813158
0,-22.419773478119875,-21.149344881969704,-20.948351158654866,4.466621671869498,-0.4800747081712018
0,-32.46829069601374,-26.92796250191445,-23.215490206310246,-2.791788433793565,-0.4750739299610842
0,-27.25680592518985,-18.54657789258111,-17.392626602266432,-3.440196072507633,-0.47007315175096664
0,-32.31531920064916,-26.125191097210013,-23.629760390155383,-13.808601294998198,-0.46507237354084907
0,-10.973830554615445,-13.633802156859938,-7.876891611657198,-0.41700415148522163,-0.46007159533073505
0,-23.312340016861718,-19.302411110570517,-16.134020306734,-6.2554046915353485,-0.4550708171206175
0,-16.980847615136145,-12.661017995587121,-13.791146513901898,-4.223802964165536,-0.4500700389104999
0,-13.199353375377006,-11.3096228475816,-6.368270270377987,-1.1321990179590546,-0.44506926070038233
0,-13.127857321867246,-6.578225700894944,-8.415391612227177,-4.090592901138057,-0.4400684824902683
0,-7.856359477484126,1.0331734111248696,-1.402510574635441,5.6710153383224196,-0.43506770428015074
0,-6.944859863967268,-2.9154255442849637,-1.069627192200722,4.012625652487778,-0.43006692607003316
0,3.056641497782099,7.355977400330415,3.2532585007794292,12.944237993146295,-0.4250661478599156
0,-7.221855412644077,-11.072617787564498,-0.7138535299422437,-4.0541476884639565,-0.42006536964980157
0,-10.750350615306106,-7.541211140393559,-3.580963318658175,-2.6225314415956458,-0.415064591439684
0,-6.638844129730917,-6.279802690115836,-9.968070899560528,-6.9309133155870235,-0.4100638132295664
0,-15.02733597464297,-18.198392467926304,-12.835176306390373,-5.349293359458568,-0.40506303501944885
0,-10.745826167786031,-14.026980504010854,-9.502279572064705,-5.217671621727838,-0.4000622568093348
0,-4.154314725841153,-7.675566827303536,-3.7393807285114393,6.273951849557285,-0.39506147859921725
0,-2.042801664577452,-6.47415146551798,-2.716479806831044,1.9755770065467892,-0.3900607003890997
0,0.6887130007876925,-5.542734445444041,0.5464231623845519,1.247203801265838,-0.3850599221789821
0,5.6402292552260445,-5.981315793191186,-2.5906718512053173,0.6788321855112727,-0.3800591439688681
0,-1.438252916369719,-7.389895534271368,-8.417764877757897,-5.609537889034101,-0.3750583657587505
0,3.383266470698363,-8.788473693570342,-5.834855947093148,-9.877906470557413,-0.37005758754863294
0,2.744787400938706,-7.917050295262124,-4.331945088494236,-8.256273606774984,-0.36505680933851536
0,-16.053690141230707,-16.355625362690983,-17.419032330599045,-14.404639344620136,-0.36005603112840134
0,-15.952166171079085,-10.594198918190243,-14.996117701178905,-12.413003730024526,-0.35505525291828377
0,0.21935929701138512,-3.612770982969405,-0.2432012268611219,-8.121366807780328,-0.3500544747081662
0,1.410886249600963,-10.701341577251508,-1.2102829332608507,-13.949728621542306,-0.3450536964980486
0,-2.3175853262918724,-5.4499107204760975,-6.657362845443175,-9.43808921388165,-0.3400529182879346
0,-5.83605544351657,-2.8684784313892684,-10.594440988105498,-11.186448626288602,-0.33505214007781703
0,3.1954758852490426,5.702955271779681,-5.611517385378788,-6.094806899209825,-0.33005136186769946
0,-6.49299135244987,-9.55560962897642,-1.9685920606884721,-14.213164072133988,-0.3250505836575819
0,-14.4014571687827,-14.244173151450829,-10.925665036842767,-14.701520183561463,-0.32004980544746786
0,-7.849921575326183,-7.4627353128167915,-16.122736336012004,-21.589875270767557,-0.3150490272373503
0,-12.26838458272625,-23.10129612920676,-25.699805979336304,-32.43822936938358,-0.3100482490272327
0,-21.526846200521515,-19.419855615394965,-12.106873986389635,-18.846582512903627,-0.30504747081711514
0,-19.445306436881477,-21.678413784438174,-11.9339403749798,-23.13493473242159,-0.3000466926070011
0,-12.523765298292487,-11.9569706474753,-11.4610051613888,-15.8932860567608,-0.29504591439688355
0,0.6377772103688955,-3.6955262139258327,-7.198068360688201,-13.391636512775653,-0.290045136186766
0,-8.700678914674286,-12.934080491957616,-18.56512998687833,-23.099986125594224,-0.2850443579766484
0,-14.839133676495786,-15.642633488770512,-15.6921900527968,-17.39833491865905,-0.2800435797665344
0,-14.197587077344847,-13.021185210468548,-19.369248569858044,-17.786682913614623,-0.2750428015564168
0,1.7939608816161943,-2.4797356619148965,4.933694452033716,-0.7850301303871574,-0.27004202334629923
0,-0.7444897998829736,2.471715153008059,0.30663900405598876,-3.113376587651081,-0.26504124513618166
0,-1.8029391217114754,5.633167230826292,1.9495850777525408,0.3382776965603448,-0.26004046692606764
0,-1.441387083617253,2.284620567964044,-1.857467335380933,-0.670067295548842,-0.25503968871595006
0,3.5401663147398876,-2.903924839443191,-2.644518243897262,-3.0984115816708595,-0.2500389105058325
0,-3.5182789262647542,-9.962468995364242,-5.621567656231894,-6.94675517934563,-0.24503813229571847
0,-5.026722806222307,-6.191011903471631,-4.228615580526728,-7.475098105770466,-0.2400373540856009
0,5.304834675417357,1.6904464331234847,-0.055662024540523714,2.296559622358302,-0.23503657587548332
0,10.326393519259451,8.131906011705723,4.917293004247115,7.608217988703883,-0.23003579766536575
0,-4.802046274362035,8.113366829461736,4.110249498351539,4.039876976858741,-0.22503501945525173
0,-8.950484705418532,5.474828883046936,0.33320745003303526,3.291536570009853,-0.22003424124513415
0,7.781078226181861,7.78629216843123,10.886166851207935,8.80319675086307,-0.21503346303501658
0,14.242642520634927,20.497756680823116,16.279127693286295,18.544857501531812,-0.210032684824899
0,18.764208177638956,17.44922241435843,18.052089966741143,13.916518803167769,-0.205031906614785
0,12.175775195705764,12.260689361701955,11.585053660673392,3.7581806356474248,-0.2000311284046674
0,9.737343571911195,8.732157513982514,-2.0819812372076534,3.349842977723646,-0.19503035019454984
0,-2.1010866978806733,-2.2763731388672626,-9.719014740044265,-8.638494192470272,-0.19002957198443227
0,-17.7995156184136,-14.554902607494677,-20.036046860936665,-17.936830896779167,-0.18502879377431825
0,-7.357943194187037,-1.1834309023892378,-10.093077612099751,-5.775167156365221,-0.18002801556420067
0,-6.366369428840676,-1.7119580334675342,-7.2801070044784355,-5.773502991369622,-0.1750272373540831
0,-4.854794325114058,-3.4904840101716275,-3.2871350479029995,4.548161578879641,-0.17002645914396552
0,-2.2432178850961058,-6.199008841640635,-8.074161751441634,1.5798265353953047,-0.1650256809338515
0,-7.331640110397755,-5.2875325366545445,-10.751187123541593,-5.388508140805865,-0.16002490272373393
0,-17.030061002109342,-16.506055103441792,-13.1882111718882,-17.696842468602537,-0.15502412451361636
0,-6.4084805605162565,-13.56457654938124,-10.345233903174408,-8.215176466260072,-0.15002334630349878
0,1.4831012150589076,-2.3730968807373842,-4.232255323021552,-6.823510151035763,-0.14502256809338476
0,-4.795315674021102,-9.88161610272718,0.020724563816299557,-2.131843539242728,-0.1400217898832672
0,-0.413731226068559,-4.72013421978058,-2.5362942469137537,-2.100176646573314,-0.13502101167314962
0,9.86785456073295,12.571348764212122,17.496688240655935,16.28149051152694,-0.13002023346303204
0,-1.53055831190846,13.422832845400228,6.459672022046072,8.80315791933244,-0.12501945525291802
0,-2.4889698425538427,8.774318019268694,4.452657092015152,-0.7451744396232733,-0.12001867704280045
0,-1.4973800298758393,3.1958042803016333,-2.41435655541874,-11.83350658242088,-0.11501789883268287
0,-5.495788872409697,-4.242708377792766,-7.221368926561109,-23.781838525995656,-0.1100171206225653
0,-1.074196368425248,1.0487800383785726,-2.058380027588261,-20.470170286181105,-0.10501634241245128
0,-1.8726025159026092,-6.869730477751485,-5.985389864295703,-16.84850187704898,-0.1000155642023337
0,-14.761007312503779,-24.158239932389947,-13.122398441985608,-21.53683331073014,-0.09501478599221613
0,1.2105892445889666,-8.466748330852774,1.0105942346642034,-2.3251645975583957,-0.09001400778209856
0,-2.297812841231116,1.5447443227841398,2.113588161576865,-0.17349574648828814,-0.08501322957198454
0,-4.426213566160879,2.6862380253305562,2.906583334925218,-0.9518267657519428,-0.08001245136186697
0,8.655387073802626,10.36773277376421,12.479579750713542,1.999842336622977,-0.07501167315174939
0,11.566989082591064,16.959228564623213,11.702577404407373,7.981511552565383,-0.07001089494163182
0,13.818592463576001,12.330725393503938,13.255576290566827,5.6831808737253,-0.0650101167315178
0,22.840197219046974,-0.6377767451821186,14.048576402594367,12.094850291207024,-0.060009338521400224
0,9.511803349840019,-0.6662778579301185,12.581577732628851,11.73651979533529,-0.05500856031128265
0,6.693410855278172,0.3352220483985629,8.014580271547018,14.118189375433078,-0.05000778210116508
0,18.11501973342208,10.016722966838259,12.07758400907335,20.149859019600083,-0.045007003891051056
0,14.806629981187916,14.538224890098622,17.870588933846197,22.38152871443273,-0.04000622568093348
0,20.808241594120048,11.269727810096665,17.403595033249324,20.50319844470685,-0.03500544747081591
0,21.889854566101203,14.881231717607465,10.936602293179796,12.844868193227098,-0.030004669260698336
0,7.631468889202993,13.442736602135179,7.169610698080714,15.416537940974287,-0.025003891050584315
0,1.103084553908969,-4.245757548024333,-2.457379768696719,0.6782076674445063,-0.02000311284046674
0,1.244701549728749,2.995749254588158,7.655630875578124,8.189877351067697,-0.015002334630349168
0,3.6563198657596354,4.917256997065934,3.7186426132753057,2.641546969578985,-0.010001556420235147
0,30.487939490707344,8.098765666245473,9.98165542634993,3.1232165002205914,-0.0050007782101175735
0,14.169560412276228,17.550275248432392,8.234669296156497,0.4648859198568299,0.0
0,-7.338817383338453,3.0217857290527284,3.857684203323596,5.786555205076018,0.0050007782101175735
0,-12.767193910968635,-6.796702907368004,-4.109299872155272,2.1382243322040932,0.010001556420231594
0,-9.915569185337146,-5.21519067669398,-2.9262829505708403,5.54989327723928,0.015002334630349168
0,-8.923943220311322,-1.183677594587465,-0.45326505213460977,4.931562015792865,0.02000311284046674
0,-1.67231602881412,-1.4521636763352144,1.6797538031272923,5.0532305230342125,0.025003891050584315
0,-3.770687623059618,0.48935106301965403,-7.6172264046939695,-0.19510122631570104,0.030004669260698336
0,-18.729058014716678,-13.579133391381218,-17.274205695247907,-13.863433257786362,0.03500544747081591
0,5.212572785202334,-7.56761705399499,-4.381184087497894,0.9882344032785546,0.04000622568093348
0,6.97420476630219,-6.3660999385627415,-2.728161599476722,-4.800098267979146,0.045007003891051056
0,-3.624162081671872,5.2054179419019775,3.2348617514560907,1.2115687039946896,0.05000778210116508
0,-6.00252776911659,-0.7230634252372912,-0.24211405182473666,6.433235294921383,0.05500856031128265
0,5.199107693615128,3.458455947390526,2.3509109735223443,8.624901480379261,0.060009338521400224
0,-5.36925570365674,1.0299760470042958,2.243936810214563,2.966567235484253,0.0650101167315178
0,-7.187617970960575,0.8114968606526615,0.9169634408089326,-2.5517674651848146,0.07001089494163182
0,6.674020881916285,12.163018375172838,6.7899908476617625,2.429897352641274,0.07501167315174939
0,8.765660845331858,11.794540576958331,6.443019012820983,-1.1084383368523576,0.08001245136186697
0,0.7173019093900703,-8.353936548304153,0.40604791789303984,-2.0367745594849853,0.08501322957198454
0,0.9289440637338005,-9.242413015399993,-2.5709224559175494,-1.7551113410206125,0.09001400778209856
0,9.550587297643744,-1.2708888389380304,-1.3178921275484807,-5.753448707057148,0.09501478599221613
0,20.452231599938948,-4.46936403299955,-6.244861115822123,-11.17178668286487,0.1000155642023337
0,-10.98612304136768,2.2721613887512557,-4.731829439271942,-8.620125293123278,0.10501634241245128
0,-20.014476638860188,-5.946312587118171,-13.228797115960093,-14.618464561655422,0.1100171206225653
0,-23.162829204648865,-24.534785973712825,-16.675764163191428,-15.306804511211656,0.11501789883268287
0,-12.51118074932943,-22.473258783214163,-13.742730597144954,-6.745145163318223,0.12001867704280045
0,-0.7495312817876747,-7.571731026183236,-1.9596964326928785,4.446513461604805,0.12501945525291802
0,-5.277880809717083,-8.490202711490195,-5.8866616836357215,-3.1618286562445626,0.13002023346303204
0,-3.676229340186012,-0.4086738468228973,-0.9036263631167087,-3.5601715364735194,0.13502101167314962
0,-4.524576879859358,2.532855560756694,-0.4305904839080974,-3.6285151985335338,0.1400217898832672
0,-3.6829234350013484,-0.5156144956041068,-4.637554058555429,-3.5268596615847967,0.14502256809338476
0,3.2487309884800593,3.205915977204192,-1.1045170994107658,-2.8552049444471312,0.15002334630349878
0,12.410386384789035,7.097446972129363,8.838520381332224,8.866448934315542,0.15502412451361636
0,15.772042747731003,11.768978481754848,11.001558371353557,17.018101956030648,0.16002490272373393
0,-2.456299929768377,-1.269489501949152,2.314596857783383,7.34975410133398,0.1650256809338515
0,-10.144641655559997,-9.697956987544554,-4.872364172885305,-0.40859465013470575,0.17002645914396552
0,-10.42298243755346,-9.816423983580956,-13.84932473436213,-6.70694431942241,0.1750272373540831
0,-15.141322282979017,-1.7248904980447488,-11.526284839895446,-6.175294927642715,0.18002801556420067
0,-19.539661197936027,4.636643461693798,-8.22324450179187,-3.3336464955283622,0.18502879377431825
0,-22.55799918704188,-16.51182211138682,-17.23020373126504,-8.881999043285502,0.19002957198443227
0,-19.476336253099657,-15.710287223877831,-10.967162538377295,-4.090352590565706,0.19503035019454984
0,-8.094672396998046,-16.20875188138858,-11.914120931950922,-8.7387071564247,0.2000311284046674
0,-1.4230076180391942,0.5427839118107447,-3.5010789196268917,-10.047062759258758,0.205031906614785
0,-4.701341914555038,-8.775679847434628,-10.718036508087797,-11.175419416677592,0.210032684824899
0,10.330324715541323,8.11585683835537,1.1350062967215893,-3.783777145391926,0.21503346303501658
0,-18.228007725547105,0.11739396686846201,-3.161950510601823,-4.092135961289243,0.22003424124513415
0,-10.326339235365914,-0.7610684642918284,-6.558906935103217,3.5995041202935423,0.22503501945524818
0,4.615330189206249,7.610469542301714,5.7841370184494085,10.25114308417739,0.23003579766536575
0,6.01700055189987,9.422007983808946,7.12718134541371,17.48278091481899,0.23503657587548332
0,13.788671856409445,2.58354685688463,10.410226040877681,6.374417595773519,0.2400373540856009
0,8.530344105770782,4.145086157570303,8.40327109926354,9.676053109472123,0.24503813229571492
0,-0.11798269786468812,-0.7733741185586673,1.4663165141912644,-5.12231256258017,0.2500389105058325
0,-5.246308552994078,-7.271833976135747,-8.740637721305758,-12.030679439295405,0.25503968871595006
0,-2.964633458256445,-9.360293419648718,-10.847591614236523,-16.559047539278737,0.26004046692606764
0,16.84704258782027,19.76124754678173,11.795454828813662,4.512583119745452,0.26504124513618166
0,0.8187195865306075,7.352788919032364,0.7585016015695392,-5.925787479092246,0.27004202334629923
0,11.280397538569249,9.924330692290997,15.651548697527089,0.7958406477903404,0.2750428015564168
0,10.652076443869438,3.2658728607908385,9.664596109493829,0.9374674841577044,0.2800435797665344
0,7.133756301525919,2.327415418009923,2.8576438293630453,0.5590930138358362,0.2850443579766484
0,0.5354371097888085,1.478958356954425,2.610691848202784,-1.8892827793696543,0.290045136186766
0,1.0771188662999969,-2.749498329613493,-2.0562598434041517,-2.8776599116365613,0.29504591439688355
0,0.8588015684103302,-3.81795464897211,5.596788744917147,4.033961600951486,0.3000466926070011
0,15.100485213263845,9.92358939168314,8.519837603346886,21.325581742231012,0.30504747081711514
0,3.092169797555674,1.3351337851042402,0.3828867216862374,10.897200495387208,0.3100482490272327
0,15.213855317234739,2.896678523740605,14.43593608920336,12.98881784240088,0.3150490272373503
0,7.97554176734527,1.5982235996939964,4.138985694534425,7.470433763949507,0.32004980544746786
0,13.657229141930406,4.0197690048040755,4.982035525595548,8.142048239608785,0.3250505836575819
0,8.518917433968365,1.9813147306633374,9.535085569619302,7.453661248055036,0.33005136186769946
0,-2.8393933645381524,0.632860768609107,-7.69186418671867,-8.44472723272274,0.33505214007781703
0,-12.117703262136457,-8.865592890163105,-13.118813756969839,-16.453117224946546,0.3400529182879346
0,-11.866012267192868,-12.064046254263902,-15.885763154251492,-14.811508750270846,0.3450536964980486
0,-16.354320387225187,-18.142499331603663,-16.592712390584555,-14.639901829137361,0.3500544747081662
0,-22.852627628468166,-27.590952128829862,-23.129661476497738,-17.94829648053067,0.35505525291828377
0,-13.670933995556815,-15.859404650811253,-11.916610420812024,-17.656692721893666,0.36005603112840134
0,-8.089239491438626,-13.877856900422804,-9.423559230654671,-11.155090569069255,0.36505680933851536
0,-2.4875441176938313,-8.296308878789139,-5.270507911791766,0.5765099635376965,0.37005758754863294
0,-6.6758478750330905,-9.184760585716122,-6.217456469047686,-6.1818911375060495,0.3750583657587505
0,-0.9541507636286011,-2.0932120200352444,-2.3444049065872203,-4.700293885096478,0.3800591439688681
0,6.957547216683075,5.178336820063041,6.2586467718567595,5.421301708230772,0.3850599221789821
0,2.969246066089452,1.499885936604091,0.5416985626652859,3.86289563010357,0.3900607003890997
0,1.6609457845061808,13.481435331412147,6.734750462031289,-1.1355121319829256,0.39506147859921725
0,10.812646371469908,11.662985005744144,13.377802465744065,2.6360784092328244,0.4000622568093348
0,11.364347826010182,7.994534959963632,11.070854568902861,8.497667240811671,0.40506303501944885
0,18.206050146314404,13.116085193396286,14.863906765590627,8.449254349463423,0.4100638132295664
0,1.1877533294313545,1.4476357043814,4.5069590487296365,5.9608397212882105,0.415064591439684
0,-1.8305426286151647,11.059186490411115,5.440011410205567,6.892423341667334,0.42006536964980157
0,6.08116226764973,5.620737548252571,13.05306384109756,9.054005195284352,0.4250661478599156
0,18.672868013367108,10.422288873953939,13.116116331688714,14.315585266066337,0.43006692607003316
0,11.474574602966984,17.29384046272072,23.119168871164902,19.56716353693792,0.43506770428015074
0,-7.2537179701732235,3.165392308732976,-5.477778552647579,-7.111260010395125,0.4400684824902683
0,-1.4220097134028187,2.206944405160611,-3.284725953012468,-5.2296853951401205,0.44506926070038233
0,4.159699365811219,7.72849674447248,4.628326656415094,6.961887363276751,0.4500700389104999
0,-2.938590739924562,-0.3499506813117229,-3.2286207379994836,-5.806541754460358,0.4550708171206175
0,-7.966880037954871,-4.7183978804901585,-10.825568149803198,-14.934972767517985,0.4600715953307315
0,-10.865168535350318,-16.266844861336107,-15.222515592160125,-11.393405694555845,0.46507237354084907
0,-11.72345623850901,-12.705291631515442,-6.179463077381312,-4.3518405532847595,0.47007315175096664
0,-16.48174315283306,-2.943738197655536,-9.61641061672911,-5.630277360459812,0.4750739299610842
0,-18.810029282468363,-16.66218456532165,-15.30335822047579,-14.418716132084395,0.48007470817119824
0,-15.018314630057287,-10.690630739092105,-12.230305897852723,-12.857156883350935,0.4850754863813158
0,-2.1765991967032416,-1.8290767225161095,-2.6972536569456316,-5.345599628416745,0.4900762645914334
0,-10.784882982284106,-1.1275225182774973,-8.694201504844013,-15.564044380357698,0.49507704280155096
0,-13.723165985771857,-0.49596812860074857,-19.361149447817603,-30.60249115108966,0.5000778210116685
0,-15.281448205172888,-9.104413555492119,-14.568097491119005,-26.590939950843573,0.5050785992217861
0,-15.379729637250302,-10.812858800613624,-16.2950456386109,-19.739390787553766,0.5100793774318966
0,-15.558010277340369,-11.531303864942359,-9.861993892642957,-12.877843666783189,0.5150801556420141
0,-3.536290119361221,-7.389748748509639,-10.35894225419362,-11.06629859216022,0.5200809338521317
0,-8.654569156056096,-13.958193450342023,-12.035890723069972,-11.074755565862313,0.5250817120622493
0,-12.262847379281528,-19.076637968393488,-7.532839298022452,-9.953214588898984,0.5300824902723669
0,-11.971124780025324,-20.565082299268088,-16.369787976766442,-14.491675661196298,0.5350832684824844
0,-21.62940134817202,-17.64352643788015,-16.416736755887282,-16.52013878152669,0.540084046692602
0,-27.10767707212565,-27.251970377247236,-29.243685630537783,-25.368603947266855,0.5450848249027196
0,-26.975951938309638,-18.890414108347297,-27.120634593949486,-24.20707115401096,0.5500856031128301
0,-23.08422593076018,-12.03885762007426,-23.157583636984818,-20.965540395218962,0.5550863813229476
0,-13.032499031094899,-9.027300899513024,-13.244532748058504,-11.794011662165493,0.5600871595330652
0,1.1792287810446136,0.9242560675316265,6.758518086380089,11.06751505560383,0.5650879377431828
0,3.560957527167666,1.6558132959598928,8.091568880880928,13.199039769282718,0.5700887159533004
0,9.89268722905313,3.0973708008724787,14.064619649928133,15.130562489661868,0.5750894941634179
0,23.744417908012846,18.788928597152072,17.86767040717417,28.532083226309318,0.5800902723735355
0,28.85614958415115,18.66048669895133,26.31072116492527,21.793601987025507,0.5850910505836531
0,20.417882275615455,9.35204511913946,14.393771933713738,12.875118777509305,0.5900918287937635
0,-1.3603840016301918,-0.6963961307958273,0.156822722239286,2.3466336015491502,0.5950926070038811
0,-9.60864923312088,-2.1048370402472916,-2.130126462064326,6.778146461660442,0.6000933852139987
0,-2.0269134047697523,11.936722401054666,-4.357075612202257,6.059657359624531,0.6050941634241163
0,-4.385176502154723,9.098282203070742,0.8359752789087553,11.54116629662253,0.6100949416342338
0,14.026561489485513,5.659842375124856,12.899026218462634,15.392673273059016,0.6150957198443514
0,8.788300584784315,3.311402925772908,9.722077213368847,13.88417828826945,0.620096498054469
0,16.660040797666426,12.702963862911723,14.815128269744246,15.425681340276501,0.6250972762645866
0,17.941782140905865,11.19452519374662,14.748179392581013,13.607182425692834,0.630098054474697
0,16.87352462582905,9.636086924572265,12.301230585581843,6.858681539762142,0.6350988326848146
0,11.025268262169844,14.847649060620068,12.254281851114834,9.400178676546613,0.6400996108949322
0,14.64701305814948,16.71921160595593,17.457333190245958,16.521673829103445,0.6451003891050497
0,20.168759020587203,16.70077456329182,17.670384602670943,19.833166989373307,0.6501011673151673
0,14.03050615481881,15.572337933807342,15.973436086547322,19.524658147820997,0.6551019455252849
0,12.812254464600423,6.453901717155878,15.546487638403322,13.526147293168867,0.6601027237354025
0,14.674003952193845,5.635465911722089,9.449539253211382,11.067634412446674,0.66510350194552
0,14.635754618481252,8.867030514982584,12.202590924574686,10.459119491259788,0.6701042801556305
0,12.967506462977623,7.728595523693411,10.055642644917224,6.850602514065137,0.6751050583657481
0,5.969259483874262,-0.5898390660747821,6.2786944056096985,1.8120834644077028,0.6801058365758657
0,4.391013678271542,1.0717267412243245,2.961746197129207,-5.346437674751122,0.6851066147859832
0,-4.387230957432883,-5.496707059076534,-3.835201990643853,-14.164960920531385,0.6901073929961008
0,-7.885474427071995,-0.685140471578241,-11.48215016798871,-10.203486289535027,0.6951081712062184
0,-3.173716734249805,-8.28357350063637,-8.66909834482137,-10.242013797417503,0.700108949416336
0,-6.61195788208562,-13.202006150171846,-12.996046530274521,-8.820543458780696,0.7051097276264464
0,-5.060197873170312,-14.070438423345987,-9.21299473248732,-8.399075287251891,0.710110505836564
0,-11.758436709535523,-12.158870322215195,-17.899942958509737,-13.927609295534744,0.7151112840466816
0,-17.23667439245453,-16.797301847551495,-18.996891214135715,-21.676145495278206,0.7201120622567991
0,-20.584910922064033,-16.06573299875295,-18.273839503626107,-20.744683896710157,0.7251128404669167
0,-13.73314629696725,-7.524163773785305,-17.86078782950358,-15.733224508275692,0.7301136186770343
0,-9.611380514133272,-12.202594169286732,-12.927736192537665,-13.521767336583276,0.7351143968871519
0,-8.379613569136191,-4.161024180804597,-7.74468459192172,-10.130312386638906,0.7401151750972694
0,0.512154543459762,-6.219453803020486,-2.5516330256284014,-4.978859662168389,0.7451159533073799
0,-1.716076170286568,-4.2078830299436,-0.8385814908556598,0.8325908340141688,0.7501167315174975
0,4.0856942959439575,3.833688144898648,1.5144700155700184,-0.5159609004119063,0.755117509727615
0,5.927465948436304,2.895259728198222,6.647521496885058,4.645485132369455,0.7601182879377326
0,5.8092387931852265,-0.3231682734209687,1.660572956133969,1.7869289300789486,0.7651190661478502
0,-9.698987164202798,-10.041595853439631,-4.316375603926735,-2.341629509752854,0.7701198443579678
0,-6.9772119182242704,-4.010023005151467,-5.0333241806372655,-8.610190189663122,0.7751206225680853
0,-1.715435463017782,-2.2984497213814055,0.2497272288601758,-3.3287531119439437,0.7801214007782029
0,2.1463422077618874,-1.2268759944982555,-1.9572213722913172,-4.667318278417898,0.7851221789883134
0,4.028121100674706,3.3946981833814456,4.125830019212589,1.7141143095421796,0.790122957198431
0,8.119901222139445,9.14627282012778,6.94888140663056,5.805544650788696,0.7951237354085485
0,1.6716825781777136,-1.102152076685087,-0.1380672070527308,3.326972744085162,0.8001245136186661
0,-3.046534825619225,-7.280576499821364,-2.9550158191722513,2.7983985878707776,0.8051252918287837
0,-3.5847509838462916,-7.649000442024319,-4.721964427153089,-1.5201778197470173,0.8101260700389012
0,1.5570341089994226,-6.717423895573177,-3.648913028213549,-0.07875648084215786,0.8151268482490188
0,12.258820458503664,2.4241531478652534,8.084138380713762,-2.307337397505576,0.8201276264591364
0,-7.5093919299513185,-6.364269302920278,1.8771898027528136,-4.235920571722928,0.8251284046692469
0,-1.1076030512586545,5.87730876109994,15.850241240708831,8.495493994666903,0.8301291828793644
0,-1.1858129003095328,-1.2811126509654076,3.9432926967332733,-0.013093700170891565,0.835129961089482
0,-2.284021471804792,2.5904664699331015,4.69634417217885,8.028316341687988,0.8401307392995996
0,12.597771239650429,10.302046132661818,12.539395667666774,11.469724117721318,0.8451315175097172
0,28.149565239091203,20.14362634561419,19.892447183027716,11.281129624714417,0.8501322957198347
0,14.871360530380102,18.835207116146947,15.15549871691842,3.812532858540138,0.8551330739299523
0,22.793157115556273,28.33678844998309,24.368550266417795,-1.2760661857538083,0.8601338521400699
0,40.10495499455581,45.95837035063452,38.1616018266656,8.695332486374669,0.8651346303501803
0,53.71675416464364,56.459952818533694,53.12465339016735,18.526728869027462,0.8701354085602979
0,53.91855461933836,55.67153584991577,47.15770494576833,14.21812295546017,0.8751361867704155
0,58.29035634741322,60.51311943593746,54.57075647781582,18.33951473758882,0.8801369649805331
0,72.42215933225876,69.67470356216958,65.01380796568213,25.35090420570532,0.8851377431906506
0,65.2639635513354,71.74628820813936,62.52685938331149,21.552291348224074,0.8901385214007682
0,54.78576897578727,70.9178733468373,56.40991069879138,24.1036761514286,0.8951392996108858
0,59.447575570560275,79.51945894435717,61.5529618742613,28.96505859932331,0.9001400778210034
0,62.04938329474316,64.2910449597025,51.7660128660664,23.10643867350611,0.9051408560311138
0,54.13119210168064,56.7226313448977,39.339063625049974,10.947816353170037,0.9101416342412314
0,41.08300193910208,52.31421804555044,43.3721140970999,16.509191615444198,0.915142412451349
0,29.70481274970449,43.04580500161057,36.495164223753214,14.030564435831923,0.9201431906614665
0,44.436624471995,51.97739214797959,45.49821394252301,29.62193478830392,0.9251439688715841
0,53.39843704065785,41.288979414850175,38.721263186950814,22.473302644991353,0.9301447470817017
0,32.23025038628374,32.9805667279433,27.134311886654196,10.694667975888752,0.9351455252918193
0,7.882064435418009,14.042154009055189,9.577359967788368,0.41603074910006355,0.9401463035019297
0,10.86387911159842,17.28374117700828,14.720407353973663,1.6373909315910677,0.9451470817120473
0,-2.384305663284435,7.915328148588477,1.4834539672166969,-0.2312515101233108,0.9501478599221649
0,-15.922489967969842,-0.4730851607824347,-5.663500271414108,-3.019896609639753,0.9551486381322825
0,-11.920673880962733,-7.3414988364217875,-7.31045544113805,0.9414555994792284,0.9601494163424
0,-1.158857479896934,-3.109912963730001,4.822588379055016,15.382805083660353,0.9651501945525176
0,-6.037040841503474,-2.628327627784417,-1.314368889538418,6.364151808958216,0.9701509727626352
0,-9.195224041880522,-0.2467429133011958,-4.38132732552634,-1.0145042592886364,0.9751517509727528
0,3.9365928433938358,3.954841095201644,5.911712992528305,3.5468368436486193,0.9801525291828632
0,-4.091590260838308,-3.263575686778625,-4.345248013892055,-0.37182491779604954,0.9851533073929808
0,-3.0697734295000423,-1.9819933437752777,-1.112210423293316,3.6995104206540446,0.9901540856030984
0,-6.567956737290276,-6.6804119602084455,-6.829174314071535,-2.5491571768665415,0.9951548638132159
0,-15.13614025846772,-21.018831620079705,-16.386139764245907,-6.067827746271177,1.0001556420233335
0,-18.82432406646839,-21.967252406433058,-14.653106851045056,-4.6165013232916206,1.005156420233451
0,-20.802508233411807,-27.085674400670005,-16.34007565046921,-4.685177943258274,1.0101571984435687
0,-26.230692829654604,-27.294097682011238,-21.84704623701184,-10.523857640991114,1.0151579766536862
0,-24.258877923457174,-25.672522327204238,-19.8540186834597,-5.542540450700126,1.0201587548637967
0,-16.477063580809034,-14.330948410493662,-11.330993060762712,4.628773594038882,1.0251595330739143
0,-23.885249865501248,-15.279376003914813,-10.607969438172466,5.920084459988371,1.0301603112840318
0,-35.453436839175865,-30.237805177632076,-28.874947883477176,-5.9186078861673135,1.0351610894941494
0,-39.32162456095014,-33.32623599980699,-37.221928462750334,-17.407303477789416,1.040161867704267
0,-30.13981308682296,-21.914668536092346,-30.098911239593043,-13.096002347691215,1.0451626459143846
0,-23.598002469470885,-11.043102849493176,-20.355896274623436,-10.83470452755722,1.0501634241245021
0,-14.956192758630493,-27.391539000782625,-21.412883625651272,-7.8934100478216305,1.0551642023346197
0,-17.84438400172933,-28.869977048751426,-19.79987334814095,-6.922118937864348,1.0601649805447302
0,-19.2425762443394,-29.898417049901774,-19.696865495493757,-3.610831226241622,1.0651657587548478
0,-32.19076953020885,-27.20685905805384,-25.583860119106745,-9.66954694085272,1.0701665369649653
0,-18.15896390096151,-18.87530312428792,-21.190857268293023,-6.168266108975141,1.075167315175083
0,-18.137159395916836,-19.44374929720869,-17.777856990207408,-6.546988757212898,1.0801680933852005
0,-14.175356052301055,-15.902197623316532,-10.01485932999243,-4.625714911499494,1.085168871595318
0,-20.423553905570625,-20.15064814726631,-17.57186433111898,-10.924444597141022,1.0901696498054356
0,-10.411752989550763,-20.51910091192809,-16.378872035603568,-12.143177838738652,1.0951704280155532
0,-14.119953336525553,-17.157555958325894,-15.345882483975334,-5.011914660014083,1.1001712062256637
0,-20.37815497734761,-25.4860133255738,-20.962895715175442,-12.100655083757461,1.1051719844357812
0,-18.286357941368088,-25.934473050758267,-18.01991176645755,-6.949399131874883,1.1101727626458988
0,-7.444562256295347,-14.75293516877045,-8.346930673347655,-0.8081468254615187,1.1151735408560164
0,-13.202767948326876,-15.221399712377284,-15.093952469814102,-9.406898184955704,1.120174319066134
0,-11.87097504242417,-12.529866712573176,-13.150977188505815,-11.045653230227646,1.1251750972762515
0,-16.109183562387305,-12.668336198896942,-19.238004860771028,-14.064411980386819,1.130175875486369
0,-13.767393530739632,-14.206808199574336,-16.00503551649151,-14.96317445347187,1.1351766536964867
0,-13.41560496862935,-14.975282741533352,-20.012069183924176,-14.611940666228307,1.1401774319065971
0,-9.443817895852858,-16.103759850335525,-9.54910588964646,-3.280710634069006,1.1451782101167147
0,-11.262032330985026,-22.222239550044872,-14.116145658679432,-4.259484371317184,1.1501789883268323
0,-17.64024829146343,-25.330721862990625,-21.66318851463578,-6.538261891586609,1.1551797665369499
0,-14.268465793486588,-10.179206809527734,-12.830234479650926,-13.297043207925915,1.1601805447470674
0,-8.306684851877707,-14.797694408109262,-12.097283574282505,-11.605828332626396,1.165181322957185
0,-6.834905480198162,-12.026184675630292,-9.62433581765181,-9.064617276971306,1.1701821011673026
0,-3.623127691061407,-10.50467762768662,-5.721391227725533,-2.6734100512186636,1.175182879377413
0,-9.171351496398843,-13.683173278673209,-4.088449821581015,-4.022206664843245,1.1801836575875306
0,-10.379576907505227,-7.091671641841983,-4.735511615651012,0.2089928731671644,1.1851844357976482
0,-12.78780393488054,-8.670172729390607,-6.642576625864175,-2.2298114458996707,1.1901852140077658
0,-9.916032588028136,-3.218676552629758,-4.959644867650966,-7.008619630553638,1.1951859922178834
0,-3.314262875413309,-2.5471831222033914,-8.27671635588698,-9.757431688972204,1.200186770428001
0,-6.212494804647176,-11.515692448251613,-8.983791104820666,-15.726247628690855,1.2051875486381185
0,-10.070728382686827,-1.654204540399642,-4.710869127988641,-9.935067456262077,1.210188326848236
0,-7.168963615833674,-7.85271940768238,-4.947950438222932,-7.223891177095883,1.2151891050583465
0,-8.837200509619727,-7.381237058542362,-0.8550350477886854,5.207281204345684,1.2201898832684641
0,-8.745439068765045,-9.109757500789371,-2.7121229685643904,-1.021550315917378,1.2251906614785817
0,-12.453679297141763,-6.6182807415003495,-6.409214212141454,-9.080385741739244,1.2301914396886993
0,-9.021921197684986,-5.3268067869981826,-9.396308789748872,-6.109225076760988,1.2351922178988168
0,-2.1401647723761146,-10.595335642903168,-1.013406712075402,3.051931675830621,1.2401929961089344
0,-5.048410022427273,-11.13386731409846,-6.210507989231394,-1.2469154867666614,1.245193774319052
0,-2.426656948539356,-7.282401804594644,-7.357612630826423,4.634233432739612,1.2501945525291696
0,5.725094448902997,-2.470939117512846,0.20527935401752417,3.135378431518236,1.25519533073928
0,9.03684416954414,13.510520744605413,0.18816795659713412,15.29651950641091,1.2601961089493976
0,0.13859221268975833,4.431977779197988,1.421053168406202,5.617656653632692,1.2651968871595152
0,-0.11966142281377252,-2.6665680167780703,3.6739349809144244,-2.1012101313881795,1.2701976653696327
0,-5.567916738340699,-5.79511664674107,-7.933186614507586,-6.900080853727588,1.2751984435797503
0,3.5438262647921253,0.6163318859349799,-0.5703116264625936,-0.05895551844576097,1.280199221789868
0,11.335567585319598,12.927777578032133,15.522559936557444,7.162165869623321,1.2851999999999855
0,10.637307221642239,9.289220426095804,9.575428065816947,7.0432833056122455,1.290200778210103
0,-1.1609548285577618,-1.3093395739985259,-0.18170724815764427,1.064396784255999,1.2952015564202135
0,-6.39921856821786,-16.277902426902664,-12.6888460154821,-11.03449370009896,1.300202334630331
0,-1.4274840003953289,-2.6664681371125782,-4.365988246258027,2.88661184689023,1.3052031128404487
0,-4.415751127889616,-10.815036708423534,-9.313133950013645,0.4777134198277091,1.3102038910505662
0,-7.06401995313414,-8.38360814381481,-7.520283135535171,-2.981188986519498,1.3152046692606838
0,-14.22229047806913,-7.282182445457947,-10.917435810836304,-6.980095377289223,1.3202054474708014
0,-9.930562703852798,-6.5807596147213046,-7.224591983092086,-4.969005757339657,1.325206225680919
0,-6.778836630643095,5.240660347691308,-3.041751658644145,-2.8279201310665854,1.3302070038910365
0,-6.317112257641059,4.922077441386891,-8.588914843133427,-5.6668385023916805,1.335207782101147
0,0.7246104166767978,0.013491665866088465,-1.3860815416280883,0.10423912516642059,1.3402085603112646
0,-1.5236686057175977,-0.9750969796325465,-2.6932517587156406,-4.194687251581296,1.3452093385213821
0,-0.3519493226445728,-4.243688495972884,0.5295745013576468,-3.523617635548445,1.3502101167314997
0,0.4897682681574881,-2.86228288389297,-1.287602765475545,0.8774479706166087,1.3552108949416173
0,16.961484168880546,7.729119856070711,16.58521643670333,14.598509564385044,1.3602116731517349
0,10.1531983812417,6.810519723365648,8.498032103406821,7.039567142909993,1.3652124513618524
0,0.21491090608040037,2.2819167170729786,3.820844229339926,5.340620702606241,1.37021322957197
0,13.286621743362849,6.423310835759473,13.013652808329,6.69167023910031,1.3752140077820805
0,1.8383308923617687,-2.2852979224469525,1.6264578334260233,-4.447284252571495,1.380214785992198
0,3.900038351729638,0.476090440302938,4.739259296994517,0.3437572223143115,1.3852155642023156
0,0.4817441196288702,-8.14252407819065,-0.8079428091127026,-0.7352053415550134,1.3902163424124332
0,8.973448193886655,4.958858520039782,9.87485150662552,5.16582805054973,1.3952171206225508
0,15.555150571894236,13.890238233056092,19.45764223527532,14.716857393186963,1.4002178988326683
0,19.436851250182272,12.541615058519929,13.280429366978598,7.6478826803380775,1.405218677042786
0,12.788550223939525,5.542988993175038,10.283212890543746,9.43890390508123,1.4102194552528964
0,-6.649752513058558,-0.5056399671932568,-2.0940072064761575,-0.8000789403990014,1.415220233463014
0,-8.10805696786077,4.725728172591517,-2.511230937279868,-1.0890658645132318,1.4202210116731315
0,-8.136363147455436,-0.6629065925981628,-6.948458315217261,0.20194312410669005,1.425221789883249
0,-2.4246710582386535,5.408455731899437,-2.585689353373966,4.352948016798984,1.4302225680933667
0,-2.622980705995151,11.869815140454154,1.5570759355467096,5.103948804788389,1.4352233463034842
0,-2.101292096097828,5.391171626903821,6.309837539043775,10.184945478957031,1.4402241245136018
0,-3.999605233639346,3.0925251843749693,-1.0574045554833873,7.015938029601749,1.4452249027237194
0,-3.8779201234358855,2.7938758053827635,1.1453496391321596,-2.673073553657324,1.4502256809338299
0,-2.1862367699825125,-5.964776517905825,-8.931899890041805,-4.012089281646875,1.4552264591439474
0,-8.034555177420671,-6.503431793349137,-9.059153155719203,-9.101109165174396,1.460227237354065
0,-5.092875349466261,0.657909971479884,-1.2664101700806751,0.8898667853362972,1.4652280155641826
0,-7.381197289295947,-0.14075123064116277,-3.983670944710035,-1.7091614401025803,1.4702287937743002
0,-0.36952099950918943,-1.6894154067501568,0.12906450922637294,2.8318061487594393,1.4752295719844177
0,-0.04784648225406166,-6.80808256377376,-1.8882038191987989,-0.12723045780001846,1.4802303501945353
0,-11.84617373938057,-4.746752708382818,-5.4354759407328785,-1.9262712695552473,1.4852311284046529
0,3.755497227582177,10.55457415309388,5.007248134068503,3.4046837036914943,1.4902319066147633
0,4.297166417423702,-1.0641019855735954,-0.06003160522832934,-2.6943655478719952,1.495232684824881
0,9.168833828924766,0.9672188691764404,2.162684830892518,0.9265809659255312,1.5002334630349985
0,-5.719500539498344,0.26853671069110857,-3.504602568171367,-3.282476764721244,1.505234241245116
0,-6.177836689715807,-4.86014846773294,-9.941893812983833,-2.271538749511357,1.5102350194552336
0,1.4738253765042275,-1.548836672698251,1.6408110861977538,-4.410604997948669,1.5152357976653512
0,-2.234514342320801,-0.5775279106010478,0.01351211951264119,-4.419675519245601,1.5202365758754688
0,-8.192855847436329,-6.526222187610514,-7.10379072265403,-10.188750322208564,1.5252373540855864
0,-4.581199139778252,1.8450804903405613,-3.9410974497000852,-7.147829415068442,1.5302381322956968
0,-7.719544219777579,-5.0436198824333,-4.438408070651019,-11.526912805306855,1.5352389105058144
0,-12.477891087222833,-10.35232331133655,-12.685722594030242,-6.976000499544969,1.540239688715932
0,-1.636239741144358,-4.721029801313663,0.1869589722482548,11.654907496351644,1.5452404669260495
0,2.8654098201220055,-5.099739356673538,-1.0303633791331666,8.275811176762403,1.5502412451361671
0,-2.8129424014029127,-7.938451981097141,-3.1076896551178557,-2.20328946430707,1.5552420233462847
0,0.4087035963805328,-3.5971676776860004,-3.0950198624452656,-0.8523944333360493,1.5602428015564023
0,7.060347815560903,4.594113550960838,3.747645992335838,2.9084962630069615,1.5652435797665198
0,-3.178009741889794,-0.06460829751128824,-0.8196920972152928,-1.9506173819707822,1.5702443579766303
0,11.313630925758924,5.246666774480739,5.552965862404649,3.6602646249915822,1.5752451361867479
0,4.995269819873116,3.1279387642854353,6.795619864480358,1.9111422770590054,1.5802459143968655
0,-5.923093058646226,-1.960792331030758,1.8682699019128868,3.062015567227442,1.585246692606983
0,2.6285422907919576,-0.42952651459277025,-0.4690840328174922,6.992884488228986,1.5902474708171006
0,6.40017586870167,-0.21826378955032877,3.113558052495446,6.8337490324030234,1.5952482490272182
0,3.211807675439388,3.042995840978123,3.746196149887994,0.3046091915788671,1.6002490272373358
0,2.673437711005006,-1.845747626158273,1.1988302511850013,-7.374535042814439,1.6052498054474533
0,-1.7549340249451073,0.4455058058284799,-0.09853965202668834,-8.363683679339202,1.6102505836575638
0,0.1766924670728598,-2.1632438662765616,-3.295913568292332,-5.332836726099615,1.6152513618676814
0,-3.571682813461563,8.618003354321983,-1.1832915061184361,-2.751994190570763,1.620252140077799
0,-4.160059866935253,1.3692474642807821,4.769326526104832,-1.5611560797073798,1.6252529182879165
0,5.77156130646688,11.100488459890748,14.46194051990672,5.909677599819022,1.630253696498034
0,6.853180706615878,10.601726336860912,11.054550466271113,9.550506841290895,1.6352544747081517
0,3.204798333108839,6.902961090109189,-2.4828436447086633,8.101331637548327,1.6402552529182692
0,-2.133585814888038,1.6841927137089525,0.6497581763318936,8.742151980697034,1.6452560311283797
0,-1.6019717384658012,-6.4045787988461935,-0.7976440815205408,0.9229678620602366,1.6502568093384973
0,-5.250359438686502,6.2066465457613225,2.094949570797125,-2.566220727620794,1.6552575875486149
0,0.3012510836051051,9.227868740792568,3.6175391223039948,2.87458620214444,1.6602583657587324
0,3.7428598277777394,13.039087779123602,0.7101245618646621,1.5753886417848382,1.66525914396885
0,3.9144667932116377,8.970303652809118,7.022705878105379,3.8361865816196477,1.6702599221789676
0,10.346071979016992,8.601516352894071,6.065283059318433,0.7869800117578628,1.6752607003890851
0,10.857675383748836,14.642725869423499,15.567856093257458,12.467768922017076,1.6802614785992027
0,3.729277005180846,-0.16606780852506653,1.7004249668893476,-1.7314466982094356,1.6852622568093132
0,4.6408768402942275,1.7551353073199873,-0.43701033361638164,-2.9206668599666936,1.6902630350194308
0,-5.807525114471579,-8.623664795162425,-12.414449822482046,-12.239891574399223,1.6952638132295483
0,1.8640711371278873,-8.442468127981552,-3.3018935137281886,-13.019120852201171,1.700264591439666
0,0.4456655913639059,-7.101274702624356,-3.019341420822863,-6.4883547031815825,1.7052653696497835
0,-2.3827417554422694,-8.930084529842787,-7.096793556691569,-7.75759313615263,1.710266147859901
0,0.5688490930578758,1.6711023803358906,0.32575006617783153,4.533163840863238,1.7152669260700186
0,-3.3395618667153912,-1.8177139815946268,1.5282894356318144,3.0639162202353023,1.7202677042801362
0,-5.157974638194439,-9.976533624836005,1.2508245396524105,-2.925336005660991,1.7252684824902467
0,1.3836107754278975,0.8746434417279456,-0.8066446338244219,-6.624592844513768,1.7302692607003642
0,-6.874805628766549,-3.5641827903878616,-7.914118096880608,-7.923854303797372,1.7352700389104818
0,-13.163223853353156,-19.033012329243746,-9.241595861358379,-11.643120390426779,1.7402708171205994
0,-3.4616439003168455,-8.001845182218002,-6.179077938537091,-5.502391110533159,1.745271595330717
0,3.64993422906016,-9.900681355657266,-5.216564338977957,-6.171666469415209,1.7502723735408345
0,1.7515105338835422,-3.6195208548676225,-5.054055072585894,-4.390946471663382,1.755273151750952
0,-3.656914986728706,-1.3283636843862265,-6.161550148708267,-3.810231121307605,1.7602739299610697
0,0.054657666296592355,-12.067209848222616,-0.669049576187673,-3.6295204219181305,1.7652747081711802
0,-2.093771507885795,-9.906059349835086,-1.0665533634655138,-6.058814376656374,1.7702754863812977
0,5.3377974899733385,-3.1049121919266534,0.2759384812473314,-3.6481129882622274,1.7752762645914153
0,0.4293646590872582,-4.393768376434184,0.25842594982370615,0.5825837409434399,1.7802770428015329
0,-5.579070001450372,-2.8726279047419414,-7.319090965804947,-7.546724191026797,1.7852778210116504
0,-2.3375064925297413,-6.001490777831169,-4.606612273509949,-2.556036785855574,1.790278599221768
0,0.4840551851739172,-7.78035699625899,-2.6541379807760923,1.4746459551108133,1.7952793774318856
0,11.455615031123424,5.860773439887523,6.428331905283289,11.395324030694798,1.8002801556420032
0,8.6971730445219,6.811900530784531,8.100797377602095,13.625997439412291,1.8052809338521136
0,13.678729223861906,11.683024276383494,6.8932584287329615,8.626666178958269,1.8102817120622312
0,7.380283566657887,7.974144675958311,2.2957150506104416,-1.8826697539547137,1.8152824902723488
0,9.361836069407094,2.3252617279465793,7.0581672345821245,1.0879896367081596,1.8202832684824664
0,17.15338672761753,7.306375430067207,9.380614971465437,10.34864434666911,1.825284046692584
0,13.134935535695906,6.957485779468576,10.903058251426978,12.259294371276427,1.8302848249027015
0,14.476482486740602,15.998592772660336,14.77549706375037,13.949939705101627,1.835285603112819
0,13.068027572463285,4.609696405288088,13.147931396607893,10.49058034160658,1.8402863813229366
0,22.9795707831652,22.0607966719528,18.49036123687905,14.26121627303987,1.8452871595330471
0,16.241112107578132,5.091893566086462,8.572786570032234,3.241847490485448,1.8502879377431647
0,11.742651532722034,2.522987079966516,8.265207380192622,4.302473984060296,1.8552887159532823
0,5.144189044067018,-4.185922794916863,1.3576236504314048,4.0530957432230945,1.8602894941633998
0,-2.5042753739925225,-5.564836067288494,-4.949964636805159,-3.8362872429663626,1.8652902723735174
0,-11.012741737505273,-10.083752745615252,-6.997557499212215,-0.14567498562658263,1.870291050583635
0,-4.171210062331814,-6.022672837792473,-6.485154954176499,2.1549325041306626,1.8752918287937526
0,-11.059680363732234,-8.131596350989538,-8.602757018506987,-2.9244647847682734,1.8802926070038701
0,-9.58815265620373,-10.510523291614764,-10.590363708301,-4.943866863347014,1.8852933852139806
0,-5.096626953405028,-7.309453665270646,-5.527975038850218,-7.623273742406712,1.8902941634240982
0,-9.74510326816764,-8.348387476712293,-13.905591024590152,-7.792685432277618,1.8952949416342157
0,-10.143581612536332,-3.6573247298969367,-13.643211679023242,-9.122101942627362,1.9002957198443333
0,-4.562061997742871,-1.0162654281393801,-2.4808370145975616,-5.951523282365142,1.905296498054451
0,1.3794555657224334,7.294790425607185,-0.888467042824288,1.319050540306218,1.9102972762645685
0,1.850971067797963,3.1458428283698163,3.123898225295276,-3.3103804823404834,1.915298054474686
0,-2.1475155014881473,2.3768917768649995,0.15625877885926887,-9.29981635774442,1.9202988326847965
0,0.41399584786911625,2.1179372674521804,-0.44138539311341796,-7.159257092948115,1.925299610894914
0,-9.094494894055169,-1.5810207037590132,-10.849034301602885,-16.608702694306626,1.9303003891050317
0,-8.602987736886394,-6.269982140736787,-7.646687957285165,-17.46815316715735,1.9353011673151492
0,-0.15148268970427725,-4.578947047277097,0.37565362975315414,-12.077608515499286,1.9403019455252668
0,-2.5899797610353974,1.15208457318341,0.5479904499593892,-9.427068741895244,1.9453027237353844
0,4.901521040896907,6.143112717472008,3.050322493988084,1.063466152283711,1.950303501945502
0,-3.0669802920807103,-7.195862617582111,-4.007350247539848,-11.076003833547729,1.9553042801556195
0,-6.485483768142333,0.9651585647951189,-2.0550277840193623,-7.895478699392366,1.96030505836573
0,-1.943989395283948,-2.393823738525188,-3.312710124706755,-10.114958444563117,1.9653058365758476
0,2.1575028188144705,-4.222809530484984,-3.1403972786045387,-4.054443067550787,1.9703066147859651
0,-0.7210071333276734,-9.87179881375586,-10.488089254379853,-9.573932566059211,1.9753073929960827
0,-2.4895192591501343,-8.120791590512718,-6.025786060198657,-6.633426937077357,1.9803081712062003
0,5.201966433921874,0.330212137743249,-2.953487703583631,-2.9329261769030963,1.9853089494163179
0,1.0134499384258229,-5.678787629899842,-1.3311941914825711,-2.222430281250851,1.9903097276264354
0,-6.295068753212391,-8.90779089391562,-6.68890553045136,-9.3919392453957,1.995310505836553
0,-1.1835896485552333,-9.676797654252981,-4.046621726701131,-5.671453064156374,2.0003112840466635
0,-5.982112754925464,-6.885807910121434,-5.074342786018619,-6.560971731759359,2.005312062256781
0,-4.1506380792852475,1.3151783400338346,-10.052068713687204,-8.500495241769856,2.0103128404668986
0,-3.4291656281887675,0.6761610982731696,-7.67979951437446,-13.490023587028354,2.015313618677016
0,-1.5676954077925591,-3.882859633157498,-0.4475351920424008,-8.619556759490404,2.0203143968871338
0,-9.766227423893513,-0.731883851927857,-5.605275750051974,-2.569094750145715,2.0253151750972513
0,-3.91476168186036,-1.4009115555639315,-6.293021191324591,0.40136245077059196,2.030315953307369
0,-4.833298186520678,-0.6899427414365753,1.659228481623782,0.16181485339924562,2.0353167315174865
0,-9.441836942137394,-7.358977406761953,-4.5385267333666555,-13.507737531941098,2.040317509727597
0,-4.390377952384919,-2.448015548498515,-1.1362868382110043,-5.047294694571207,2.0453182879377145
0,3.751078779633178,12.45294283667316,7.205948165322652,-0.8468566231975747,2.050319066147832
0,3.8125332511174554,2.8738977520247166,9.048178275377897,-1.286423305985383,2.0553198443579497
0,-4.08601454077107,-6.945150799550633,-5.86959651029431,-5.075994730801543,2.0603206225680673
0,-2.0945645989637454,-1.6042028153738608,-3.267376194279792,0.6144291147046443,2.065321400778185
0,-0.9031169263015719,1.1267417073741568,-1.2951607791257498,-5.105151756877001,2.0703221789883024
0,3.2683284745298504,2.797682771678055,1.3070497328504584,-2.2947373327108926,2.07532295719842
0,5.079771600842315,0.49862038049178803,1.0892553394563294,-5.014327599671308,2.0803237354085304
0,3.1312124497205183,-1.990445463350731,-1.7585439615130398,-4.0439225442815125,2.085324513618648
0,-4.017348982061606,-3.219514757040704,-1.5463481722741323,-5.303522152664418,2.0903252918287656
0,-1.5259126978820816,-9.528587497589324,-6.994157294933232,-4.013126410505473,2.095326070038883
0,0.7355212989542631,-3.2476636815929663,2.3880286686516436,5.497264696897167,2.1003268482490007
0,-5.123046994710281,-9.316743305073754,0.7602097168635622,2.7476511843951488,2.1053276264591183
0,0.7283824181225425,1.9641736365315943,0.4623858481572045,8.548033066649555,2.110328404669236
0,6.069809534573433,10.815087148150107,9.92455706087134,10.128410357843409,2.1153291828793535
0,5.201234351678725,4.975997234589838,7.41672335300884,3.9887830714747867,2.120329961089464
0,-0.7073431338570133,7.43690390010661,5.818884721977426,4.539151220322445,2.1253307392995815
0,7.934077074298283,11.887807148245205,9.391041164471693,6.909514816568306,2.130331517509699
0,-0.374505027852581,2.428706981787802,0.173192676501227,-2.890126128080932,2.1353322957198166
0,-11.093089444533737,-8.48039659713691,-7.26466074641328,-9.57977160217695,2.140333073929934
0,-10.121676179813486,-6.809503586575393,-13.69251910876129,-7.419421594084079,2.145333852140052
0,-15.61026523705251,-10.228613984168074,-15.91038241439834,-14.74907609151674,2.1503346303501694
0,-15.818856618492173,-10.08772778680414,-8.638250666063666,-8.398735081258053,2.15533540856028
0,-5.797450325070296,1.7331550094532782,-1.99612386531486,0.8716014508863998,2.1603361867703974
0,1.963953643424988,15.994034409060546,9.475997987067025,10.971933519734067,2.165336964980515
0,4.905355287819762,12.434910416253462,7.948114890402483,5.922261140061018,2.1703377431906326
0,7.796754608939622,4.105783034374845,4.650226843544699,5.5325843260951375,2.17533852140075
0,4.458151607199853,5.8766522657778,4.2823338446994725,-2.8470969085418902,2.1803392996108677
0,7.959546282443881,4.6175181120936415,0.6344358915427964,-2.486782550557866,2.1853400778209853
0,5.8209386339026175,1.1883805744439795,-0.29346701858117336,-0.07647258666504864,2.190340856031103
0,5.152328660187216,7.009239653541805,2.238625111509881,10.403832996488543,2.1953416342412133
0,11.153716359281752,7.2700953496936584,5.570712278878269,13.20413421200212,2.200342412451331
0,8.895101728466356,3.060947662697185,6.162794480335914,2.854431072272349,2.2053431906614485
0,1.7364847642257992,-2.418203408153025,-1.835128287702001,-6.675276411067755,2.210343968871566
0,6.6378654623329,6.402642136125713,4.60694397082287,0.29501177328681605,2.2153447470816836
0,8.759243817999682,2.293484294315812,8.47901125168856,5.5452956366935595,2.220345525291801
0,0.42061982588120944,9.034323064895368,7.861073550256622,6.97557519046702,2.2253463035019188
0,7.231993480087976,9.565158445838993,4.633130861258764,8.315850445531883,2.2303470817120363
0,12.58336477420735,8.065990434414624,10.785183178726621,12.176121412144825,2.235347859922147
0,3.5447337011714954,5.086819027079478,9.367230495959376,7.016388099715682,2.2403486381322644
0,-2.5638997467962605,0.4076442195814378,-3.680727194503533,-3.9433494831821783,2.245349416342382
0,-2.292535577875908,-6.081533992744455,-5.1986899006347285,-3.7630913284597556,2.2503501945524995
0,-11.951173800189725,-10.18071561454133,-12.736657630362124,-5.352837428005519,2.255350972762617
0,-3.5598144214211693,-3.0299006500043846,-1.9046303910692606,3.6874122265924836,2.2603517509727347
0,4.101542551315723,5.170910897230627,4.197391810495664,8.147657643915418,2.2653525291828522
0,7.4428971111965465,3.131719023778904,0.9194089678875044,5.97789883233083,2.27035330739297
0,2.4342492512105087,-1.2574762738662741,-1.9485789253786066,-3.371864200275413,2.2753540856030803
0,11.385598963868427,-2.5766749993871296,4.873428124106639,0.11836855362564358,2.280354863813198
0,8.976946241053563,2.554122843519484,4.555430109628371,-0.6614028985083259,2.2853556420233154
0,0.3682910739081041,-8.355082748748902,-3.982572975750087,-0.0011785491620588395,2.290356420233433
0,-9.73036654699546,-15.86429177951767,-12.86058113906448,-1.1909583907711696,2.2953571984435506
0,0.7809733688459262,-0.7135042514626737,0.7614056129639527,6.659257584232764,2.300357976653668
0,-2.4876891877762413,-0.9727201664692978,0.17338727413233196,-2.700530616680657,2.3053587548637857
0,3.8036457741728342,3.5380604740426973,0.4653638385417882,5.269677013778669,2.3103595330739033
0,7.884978245718386,7.058837668673758,6.287335300295665,4.149880482689999,2.3153603112840138
0,4.39630821758363,2.809611415734191,7.4193016532739,6.850079796822965,2.3203610894941313
0,3.1276356800002136,2.690381713111415,-0.9787371090598261,4.460274962490182,2.325361867704249
0,-1.3410393772433307,-2.2088514416552996,-2.346780993631688,0.8904659855055457,2.3303626459143665
0,2.12028303539085,3.3419119487971694,-1.4848300074839982,-5.119347128660924,2.335363424124484
0,-0.3883970926620546,2.852671881731018,1.197115842433559,-1.439164374589808,2.3403642023346016
0,1.112920227972651,-0.8165716457404472,1.1890565492520324,-3.138985746668808,2.345364980544719
0,0.7942349866073487,-0.27581863665465156,2.7109921060651474,1.601188760952641,2.3503657587548368
0,2.8055471724742285,7.8649309058498105,12.562922505758435,5.031359154236805,2.3553665369649472
0,6.906856774641725,10.76567697839003,16.814847740676093,3.9915254390250583,2.360367315175065
0,6.548163781841661,12.206419576970882,10.306767802155974,1.671687620848309,2.3653680933851824
0,12.609468182243209,8.977158696662212,6.758682680308696,0.6918457049141047,2.3703688715953
0,7.070769963241746,-1.62210566843079,3.4605923641961485,4.1219996961994445,2.3753696498054175
0,4.7120691113697895,7.448626475100589,7.452496842149802,2.2321495994769944,2.380370428015535
0,-4.066634387535613,-1.5806448797404238,-5.545603897999602,4.872295419257699,2.3853712062256527
0,-3.405340547939042,-4.639919740171227,-2.2637098686703125,3.9824371597239647,2.390371984435763
0,-0.044049384230548216,-0.8191981134048677,-1.601821082216113,6.702574824662186,2.3953727626458807
0,-7.792760910557686,-10.298480006409179,-7.689937550732106,-10.73729158251661,2.4003735408559983
0,-14.17147514068142,-10.567765425684174,-15.688059285883474,-12.467162058435118,2.405374319066116
0,1.5598079122779167,-4.577054377020546,-0.3761862986173813,-4.237036599181938,2.4103750972762334
0,5.681088235836084,7.8436531344966856,4.135681400873333,1.7530847999226764,2.415375875486351
0,1.0923658176992161,8.374357104027807,2.237543802723965,3.223202144020253,2.4203766536964686
0,2.943640645369482,0.5050575264152531,2.6394008969525284,4.093315438263414,2.425377431906586
0,3.5949127060679467,3.3057543960000895,3.0112526733148846,-1.4865753124198582,2.4303782101166966
0,-0.42381801323805046,-6.683552293186699,-4.716900878654315,-8.906470103250218,2.435378988326814
0,-0.3325515257792382,4.537137452837092,3.814940230483375,1.1936310706965887,2.440379766536932
0,-8.201287844816505,-3.6821763718738434,-5.45322400980978,-1.6562717853381295,2.4453805447470494
0,-0.15002698341093706,-0.14149377319745132,1.0786063900114136,4.6538213340814805,2.450381322957167
0,6.761231045649356,9.24918524300017,8.20043141955023,15.753910434268505,2.4553821011672845
0,3.9824862295946657,2.119860670682079,5.712251068247242,8.723995519960924,2.460382879377402
0,4.633738555336865,-1.8494674965411662,4.0940653250854275,10.89407659494,2.4653836575875197
0,2.4449880093507295,-3.4287992652946953,0.2658741785310068,6.6941536619508675,2.47038443579763
0,-0.14376542225466737,3.321865357818992,-1.2523223832860333,4.014226722843511,2.4753852140077477
0,-5.5025217535606865,-4.52747363369831,-4.110524372325716,-1.315704221183569,2.4803859922178653
0,2.4387190013892472,-0.5868162462576905,1.65126819955784,7.274360830679357,2.485386770427983
0,-1.2600431713112548,-9.63616248609191,0.953055320642574,4.894421878944987,2.4903875486381004
0,-12.128808285418216,-9.755512359028186,-10.155163020707365,-3.28552107623135,2.495388326848218
0,-3.0875763543527732,1.9151341297258946,-2.4733868359154156,6.244531964998963,2.5003891050583356
0,-1.4063473909940172,6.175776975473388,-0.7316161360028516,2.4445810022750343,2.505389883268453
0,-5.22512140773886,3.796416173569752,2.220149068345088,1.784626034987559,2.5103906614785636
0,-6.253898416618967,5.937051719029377,-3.7480912334384873,-2.575332937722139,2.515391439688681
0,-4.332678429242281,0.067683606420745,-6.006337051841507,-5.415295916780048,2.5203922178987987
0,-0.29146145674670865,4.328311829937363,1.4954116028726225,5.794737097021165,2.5253929961089163
0,-5.920247509882962,-0.3910636165003531,1.167154720694134,4.054766102971355,2.530393774319034
0,-5.759036599069815,-1.920442739146628,-3.151107708281201,2.654791100181967,2.5353945525291515
0,-0.25782873433379483,0.4201744556968261,-0.9793756939177544,0.22481208744293202,2.540395330739269
0,-6.866623925296941,3.8407879617480685,-6.477649245938924,-2.495170936678724,2.5453961089493866
0,7.854577818723774,15.421397772571645,10.454071626130842,3.124842026329573,2.550396887159497
0,10.555776488447524,15.31200388112436,8.145786912743882,5.37485097494075,2.5553976653696147
0,5.816972074183245,6.102606279293544,10.037496603874038,3.954855907417736,2.5603984435797322
0,-1.241835434428791,0.7832049578551196,-7.420799311216946,4.644856821641379,2.56539922178985
0,-0.8006460482314041,-7.7062000930770145,-5.319100843682802,-0.5751462849102772,2.5703999999999674
0,-2.4094597781934977,-7.76560888342452,-5.907408004533892,-0.41515341504283043,2.575400778210085
0,-5.508276635167701,-6.805021422652955,-2.915720804306434,1.2248354283256473,2.5804015564202025
0,-5.107096629725912,-7.684437719549281,-6.40403925303525,1.7748202422369643,2.58540233463032
0,-9.255919771995282,-4.01385778220396,-5.322363360284385,1.3248010236504795,2.5904031128404306
0,-8.674746071488839,-4.98328161808557,-7.090693135103506,2.9347777693835075,2.595403891050548
0,-2.0535755370007083,-5.62270923413222,-3.979028585978167,1.6047504760726088,2.6004046692606657
0,-1.592408176690557,-1.532140636809073,0.9826302791248263,5.014719140135279,2.6054054474707833
0,-5.061243998306902,-3.9315758321688627,-3.6757165474120406,0.11468375772673045,2.610406225680901
0,-6.270083009275251,-3.3710148259247337,-1.1040690730068627,-5.145355675208048,2.6154070038910184
0,7.5910747833211465,5.799542376471965,9.997572695023592,9.614600837205993,2.620407782101136
0,10.172229372514181,13.180095769576628,10.339208749180896,10.794553290698703,2.6254085603112465
0,19.313380750876842,20.14064534739545,23.700839081252447,26.05450168035183,2.630409338521364
0,8.474528909941547,7.591191102795433,3.3424636818157647,15.574445999920323,2.6354101167314816
0,5.29567384000431,4.121733027341945,2.9040825401693686,7.814386241460085,2.640410894941599
0,0.15681553038674068,6.212271111614093,3.9056956447560287,0.844322395561439,2.6454116731517168
0,-10.172046030046422,-10.64719465435371,-6.682697016367849,-10.675745547963723,2.6504124513618343
0,-5.920910852334647,-14.356664280553636,-9.47109545515938,-8.555817599306964,2.655413229571952
0,-1.1997789470291769,-14.036137776330397,-6.659499683172925,-7.675893768084087,2.6604140077820695
0,-2.5086503241748583,-4.855615149911365,-1.297909711308339,-5.035974063124527,2.66541478599218
0,-7.167524993460708,-6.515096408438907,-2.8963255499009617,-7.406058492537482,2.6704155642022975
0,-1.4264029642363771,-4.894581558260265,-0.1647472089481478,-8.436147063776533,2.675416342412415
0,-2.5252842454710875,-10.50407060509784,-6.503174698225495,-14.036239783564842,2.6804171206225327
0,-13.464168845748508,-13.613563553968431,-13.811608027180569,-19.75633665764463,2.6854178988326503
0,-15.953056773056705,-18.393060408902734,-14.090047204581412,-14.716437690423536,2.690418677042768
0,-8.591948034380845,-6.322561172662178,-4.388492238161061,1.693457115153,2.6954194552528854
0,-6.20084263553345,-4.792065846757594,-8.956943134601149,-3.8266522427736076,2.700420233463003
0,-8.149740581341728,-6.801574431780112,-6.405399899738144,-3.4967657655311686,2.7054210116731134
0,-8.318641875851139,-13.481086927632195,-11.41386253866382,-9.106883454118371,2.710421789883231
0,-4.547546522376188,-12.990603333405142,-11.302331055643878,-8.247005309051335,2.7154225680933486
0,-5.706454523544997,-6.860123647144905,-8.570805453989314,-5.687131330170191,2.720423346303466
0,-14.095365881343081,-11.579647865815685,-15.4192857359789,-11.72726151655999,2.7254241245135837
0,-12.90428059696438,-18.04917598534059,-14.307771902770563,-16.197395866458386,2.7304249027237013
0,-6.713198670566057,-4.718708000505746,-12.356263954258226,-3.887534377067148,2.735425680933819
0,0.42787989870526577,1.1417560949941041,1.5452381109064715,5.442322955385231,2.7404264591439365
0,-7.491044887617322,-9.587783691822919,-6.193265705035261,0.02217613514478567,2.745427237354047
0,-14.979973027499772,-15.007327353430716,-14.821775399268263,-7.19797483350391,2.7504280155641645
0,-14.358904518152016,-17.776874881478484,-15.560290968259194,-10.768129946145022,2.755428793774282
0,-9.027839355653335,-6.086426266370636,-8.468812407360772,-0.17828919787137,2.7604295719843996
0,-2.636777534910391,-3.1159814972711395,-5.317339710720308,0.20154741679781174,2.765430350194517
0,-2.955719049978707,0.72445943747411,-2.5358728715611707,2.4113799036343364,2.770431128404635
0,3.3253361055429274,10.0148965498107,7.105588117406728,12.941208268335835,2.7754319066147524
0,3.286387938180542,6.125329851489673,3.9170432635498775,6.511032516153653,2.78043268482487
0,3.1174364543292894,2.8357593537311643,-0.01150742602543009,3.950852651623425,2.7854334630349804
0,8.19848166007365,2.176185067200751,1.0699360554801507,7.920668678568453,2.790434241245098
0,5.319523561053212,2.036607002185138,3.041373714682631,2.0804806002248224,2.7954350194552156
0,11.700562162311101,12.727025168657937,9.272805558005485,6.030288419316811,2.800435797665333
0,10.69159746812714,7.777439576091012,5.644231591474368,3.600092138106344,2.8054365758754507
0,5.632629481880253,10.847850233172753,5.355651820526054,-3.81010824152806,2.8104373540855683
0,5.043658206072461,11.348257147652058,7.927066249967712,-4.00031271788208,2.815438132295686
0,9.054683642491906,15.71866032624263,12.138474883950739,5.909478710825695,2.8204389105058034
0,4.575705792290866,6.7890597745079635,9.659877725816555,-2.83073395353448,2.825439688715914
0,5.406724655990333,-0.5905445030668072,5.611274777969344,-0.5009507091139961,2.8304404669260315
0,0.04774023355942936,2.459847497303126,3.732666041956535,-2.3111715540552016,2.835441245136149
0,3.608752524582096,10.320235779040186,4.7740515186915005,4.128603513582044,2.8404420233462666
0,1.3997615283828013,-2.15937965478789,1.4554312086313763,-3.141625504229416,2.845442801556384
0,1.8507672440759708,1.9010011984940083,-0.9031948880973384,-1.1718586055241973,2.8504435797665018
0,1.1617696705836769,-2.99862165865424,-1.3018267715291318,-4.212095788255345,2.8554443579766193
0,0.6227688066730854,1.7417517762099384,1.129535558294093,-4.8123370501492815,2.86044513618673
0,-5.956235348964199,1.7121215055526142,-2.3191078986223905,-12.072582388540244,2.8654459143968474
0,3.7947572024237752,10.022487531734981,5.072242857748583,-3.382831800162709,2.870446692606965
0,0.4857464596882477,7.662849856740841,4.163587827350719,-5.683085281049626,2.8754474708170825
0,-0.18326757832775598,-0.4967915180480921,-0.4550729901075879,-9.083342826593846,2.8804482490272
0,-5.75228491281456,-1.846436591760893,-5.423739595133729,-8.84360443155027,2.8854490272373177
0,-6.931305544809594,-5.056085363680766,-5.3724119881873085,-10.033870089905445,2.8904498054474352
0,-6.740329474928522,-3.085737832915725,-5.691090169378675,-7.964139794775022,2.895450583657553
0,-4.5793567032002125,-4.645393998238016,-8.079774138297726,-6.724413538402256,2.9004513618676633
0,-4.638387229064246,-7.245053858015317,-3.298463893947795,-6.284691312239178,2.905452140077781
0,5.462578948493517,-6.244717410125289,-3.617159434761909,-5.454973107051271,2.9104529182878984
0,-2.556458169308134,-12.954384651818188,-7.115860758690564,-10.125258912967437,2.915453696498016
0,-5.7854985812124085,-16.174055579497413,-11.454567863179774,-9.105548719421439,2.9204544747081336
0,-8.624542285779574,-11.483730188433272,-16.683280744925792,-10.275842515021953,2.925455252918251
0,-10.313589281058011,-9.163408472616194,-17.971999399496468,-8.666140287461829,2.9304560311283687
0,-12.322639564296646,-5.253090424889297,-13.050723821010601,-7.586442023518135,2.9354568093384863
0,-1.491693131814794,-2.182776037241722,-0.4094540021344748,2.5032522908236885,2.9404575875485968
0,3.1792500208400485,7.197534698831723,0.8518100654869953,2.112942670055137,2.9454583657587143
0,-0.47981010153773107,-1.8621582080642134,-3.6269316093477855,0.822629128757496,2.950459143968832
0,1.1011265058471658,0.3181452505408362,1.7343209822952126,3.152311681380744,2.9554599221789495
0,3.202059847693361,1.708445083005074,-3.7444321505546534,7.531990342155038,2.960460700389067
0,-2.3770100714136895,-1.2012587023575279,-2.7431909987407934,2.5816651249641946,2.9654614785991846
0,-3.996083246945518,-1.4709660972539171,-0.601955552919015,3.2413360432523532,2.970462256809302
0,-2.345159674260458,-3.470677093333408,-2.070725803537613,6.1210031100495295,2.9754630350194198
0,-6.224239348437643,-4.180391682063092,-8.409501740831068,-3.099333661969967,2.9804638132295302
0,-5.163322264175331,2.2598901453482405,-1.5182833547131518,-1.5696742603662648,2.985464591439648
0,-8.162408415688175,-5.939831602081103,-6.357070634660841,-4.8300186726873555,2.9904653696497654
0,-3.2414977966173617,-2.3395569151334965,-1.8858635697114403,4.959633113702527,2.995466147859883
0,-1.7905904000522044,-2.859285784329566,1.0353378514570628,3.609281111528965,3.0004669260700005
0,-3.699686218668202,-1.9090181998922973,-3.803466359601722,-0.7510746666187551,3.005467704280118
0,-3.258785244835972,-0.06875415180015088,-1.7022761911852082,-3.091434208338481,3.0104684824902357
0,6.302112529313076,0.7815063701188506,5.878908368540799,2.058202498744699,3.0154692607003533
0,5.393007111681046,0.3217633760820007,1.9300873314038598,1.2378354670574088,3.0204700389104637
0,11.673898509839228,6.742016876242764,10.181260708971987,7.377464708955186,3.0254708171205813
0,15.754786730648904,9.22226688050375,3.6124285123405384,6.257090236500112,3.030471595330699
0,5.085671779959431,6.052513398247105,6.023590752025716,-0.87328793870593,3.0354723735408164
0,7.18655366256118,11.162756438136856,11.564747437934093,0.716330194541263,3.040473151750934
0,7.267432382383214,14.382996007990744,8.335898579270626,-0.42405535273523287,3.0454739299610516
0,0.5783079426935911,5.843232114629505,7.357044184401236,-2.1344445695316816,3.050474708171169
0,-1.9908196537145675,8.373464763846496,-1.351815739102467,1.0851625552044846,3.0554754863812867
0,2.5100495957443236,5.453693960566159,5.3593188157904414,5.634766032548493,3.060476264591397
0,3.3209156935879287,-2.386080290940879,-2.139552144188345,-1.7156341265354014,3.065477042801515
0,1.7717786421966197,3.2141420131956617,-0.7684286124574101,5.033962088708243,3.0704778210116324
0,3.0526384437175476,6.254360876633242,2.0026894175267436,4.363554688804357,3.07547859922175
0,2.5434951000481005,5.134576302753116,3.8838019522831306,8.303143683945683,3.0804793774318675
0,4.234348612822522,9.254788294463063,5.264908998162526,9.67272908379151,3.085480155641985
0,-0.11480101660506353,7.674996854039303,3.3460105611814406,4.062310897300463,3.0904809338521027
0,0.0660462128860893,3.085201983050978,-0.43289335302235477,-0.8081108672440385,3.095481712062213
0,4.466890302274367,-1.0045963175384844,1.8781972609150044,3.8214637980021253,3.1004824902723307
0,6.807731252361526,3.965601952878536,10.129282408151635,8.221034900612993,3.1054832684824483
0,9.97856906356021,1.305796794720107,5.480362093487294,5.050602447785826,3.110484046692566
0,2.669403735664577,-2.9140117917490658,3.801436321151521,3.9601664461832624,3.1154848249026834
0,5.02023526781612,3.5661761936468905,7.412505094778766,0.579726901959365,3.120485603112801
0,3.5010636586307085,4.73636075101871,4.723568417459723,-0.10071617906251318,3.1254863813229186
0,1.0718889063238544,1.946541880282537,7.074626291729976,-0.9811627911995233,3.130487159533036
0,2.3227110088037803,-0.8332804189296487,5.465678719544486,2.458387071206302,3.1354879377431466
0,4.77352996373859,6.1668938527882915,8.366725702253966,9.37793341373018,3.140488715953264
0,9.404345768490664,11.597064694576183,5.077767240575618,3.5974762416316093,3.1454894941633817
0,12.445158419879313,3.7572321050519295,12.998803334540453,3.9670155596624435,3.1504902723734993
0,6.805967913905843,4.657396082144374,5.33983398340834,-0.9134486278919589,3.155491050583617
0,4.646774245665959,5.457556623179001,3.6008591856385257,-0.5639163170094165,3.1604918287937345
0,-0.34242259046611595,-3.682286274961777,-3.798121060917581,-4.164387503714472,3.165492607003852
0,0.22837739947947272,-1.6821326156312033,-2.307106758642625,-2.484862183895338,3.1704933852139696
0,-3.150825790654616,1.408017597823246,-0.04609790984430295,-1.2153403532024292,3.17549416342408
0,-5.190032166946444,-5.291835637830165,-0.9450945166685492,-5.235822007028151,3.1804949416341977
0,2.430758264748779,2.8983076742999563,-0.1940965811558128,-5.32630714047457,3.1854957198443152
0,-3.5084545011965074,-10.351552468733217,-8.513104105240412,-16.146795748180345,3.190496498054433
0,-5.0576704702367605,-1.0314160696037524,-3.532117090597572,-10.777287823995266,3.1954972762645504
0,-4.4668896475763,-3.061283130602223,-0.6511355384914139,-6.9877833607136415,3.200498054474668
0,2.483887961930656,3.2388463463076596,6.959840550126026,-3.938282350115356,3.2054988326847855
0,-3.5953376463015285,-0.7810276407118151,-1.7791888256957453,-8.108784783219349,3.210499610894903
0,12.145433523203309,13.329094906402064,13.77177633283617,13.130709349452689,3.2155003891050136
0,11.706201465653884,16.21921398525679,12.8827360240002,12.680200057416311,3.220501167315131
0,9.396966175544135,10.419329592513977,9.083690245204188,5.059687349589573,3.2255019455252487
0,-1.6322723535519972,5.069441723638172,1.0346389928323496,-0.680828765961338,3.2305027237353663
0,-3.611514128701202,6.469550373074595,-1.544417737475557,1.978651718259179,3.235503501945484
0,-6.110759157085145,3.1696555345538844,-4.623479950352121,-2.071871190463078,3.2405042801556014
0,-14.750007445532646,-9.550242798635711,-11.932547650267741,-11.852397484807273,3.245505058365719
0,-14.13925900010688,-8.660144633224627,-12.521620841126898,-13.812927157047058,3.2505058365758366
0,-14.19851382572931,-14.790049975410252,-20.130699525848286,-8.893460198595479,3.255506614785947
0,-12.167771925989447,-14.319958830412952,-7.889783706035308,-3.3739965998205617,3.2605073929960646
0,-11.317033303158828,-22.129871202160416,-13.428873381906229,-8.334536350226646,3.265508171206182
0,-8.236297958307002,-17.40978709299931,-8.427968552445197,-3.8350794386658964,3.2705089494162998
0,1.8744341084822138,-9.369706503548148,-6.977069215583904,0.3743741465405537,3.2755097276264173
0,0.3451628977275397,-4.099629432910527,2.273824631585504,-2.796175582556904,3.280510505836535
0,10.055888410079186,4.9704441207809555,11.18471299238883,7.923271386242874,3.2855112840466525
0,7.126610645890781,1.6205141597462291,6.655595869977131,4.982715065033402,3.29051206225677
0,7.567329604909403,1.9905806861292992,3.8864732668945656,5.082155465532519,3.2955128404668805
0,6.728045286149484,7.110643701826964,0.6473451850567931,-0.428407401020101,3.300513618676998
0,11.158757687882094,-4.8992967915497,-6.151788373970087,-5.118973523699396,3.3055143968871157
0,7.369466807588776,-1.5692407925787681,1.1290725913631432,-5.099542891563207,3.3105151750972333
0,-1.629827358035808,-10.899188299740226,-4.330071917209289,-11.400115493308899,3.315515953307351
0,-0.12912481283919286,-5.309139311082723,-0.31922189774142556,-9.510691316984198,3.3205167315174684
0,-5.978425560816297,-6.369093824020941,-7.618377348065291,-14.01127034974944,3.325517509727586
0,-5.047729605786987,-4.759051835316457,-8.917538265662479,-10.951852577699864,3.3305182879376964
0,-11.12703695114904,-0.7590133411820319,-13.446704647403275,-11.23243798578296,3.335519066147814
0,-18.066347599587292,-11.858978337378623,-20.29587648919381,-15.543026557779767,3.3405198443579316
0,-7.325661552737594,-8.188946819145785,-13.275053785610181,-6.543618276289577,3.345520622568049
0,-10.564978811031164,-11.638918780972512,-5.674236529748526,-6.094213122807844,3.3505214007781667
0,-5.404299373833434,-7.648894216425054,-8.733424713450756,-1.094811077989113,3.3555221789882843
0,-0.6036232396999932,3.2311268817937266,1.2873816722987919,10.27458787795319,3.360522957198402
0,-4.542950406645122,-1.848855478473921,0.8881826370172781,2.993983764765427,3.3655237354085195
0,-0.7522808723503303,-0.20884128920021683,-2.541021809584205,6.123376601772114,3.37052451361863
0,-3.6316146342430575,-2.5988305423012306,-7.460231657696765,4.1027664077702415,3.3755252918287475
0,-0.04095168951895134,-2.348823229582264,2.620553102715735,6.012153201061748,3.380526070038865
0,3.829707964780687,1.6611806573097545,9.7013324818966,5.671536999450525,3.3855268482489826
0,-0.1496356683819175,-2.4388188731475493,3.1221064899355397,7.670917820198145,3.3905276264591
0,4.081017413817282,2.531178187579884,7.802875136425522,7.590295679955503,3.395528404669218
0,11.291667213946011,10.251171847965004,12.163638430328726,11.61967059466219,3.4005291828793354
0,9.112313734073412,9.641162116129198,8.844396379838138,3.9690425794525694,3.405529961089453
0,7.892956975487564,14.091148999452013,15.515148992183152,11.478411648638119,3.4105307392995634
0,5.143596938620204,7.401132504307718,4.67589627351969,6.777777815735225,3.415531517509681
0,1.4042336231906423,9.50111263602045,6.46663822899484,2.347141093495479,3.4205322957197986
0,-8.285132971501664,0.31108939900882415,-5.242625136972547,-1.0834985059329625,3.425533073929916
0,-7.184502846136366,-4.308937202902924,-0.931893820275368,-4.484140970668157,3.4305338521400337
0,-11.883876000907676,-6.048967166036505,-4.53116781675012,-7.604786288731268,3.4355346303501513
0,-14.313252435178306,-7.899000486426368,-5.040447121969647,-14.655434447694155,3.440535408560269
0,-6.922632147261676,-0.7190371595861219,-5.319731731131825,-9.136085434320979,3.4455361867703864
0,-10.102015134383587,-8.38907718049883,-5.319021638972833,-3.58673923438573,3.450536964980497
0,-5.191401392819035,-4.149120543662634,-3.9383168397300983,3.712604167141016,3.4555377431906145
0,-15.59079091799745,-16.819167242999807,-13.057617327111997,-1.7080552143491348,3.460538521400732
0,-12.98018370441083,-4.94921727163311,-5.3169230941690095,1.5712826365741157,3.4655392996108496
0,-5.119579745447471,-4.1692706217726725,1.903765866769429,6.18061773526022,3.470540077820967
0,-1.3789790334764955,5.010672715058031,-1.815550436123949,7.929950096820113,3.4755408560310848
0,6.031618439728058,3.8606127475651784,1.945128005494805,8.35927973586787,3.4805416342412023
0,-0.9877873174954668,3.140549484290285,-4.034198800000298,1.1486066663568786,3.48554241245132
0,3.1828037030408316,3.900482933437317,-2.4635308441609887,5.367930901644593,3.4905431906614304
0,14.703391509255852,6.670413102835249,6.987131881589802,9.367252454605518,3.495543968871548
0,6.77397610853926,-2.1496600000789305,4.337789385809206,3.3865713375920614,3.5005447470816655
0,1.2145575075004562,-5.6397363681390456,-1.991558323210554,0.7358875623886075,3.505545525291783
0,1.7351357120840976,-2.4398159941345394,0.21908876255683563,0.24520114037647078,3.5105463035019007
0,4.08571072786819,4.550101129394639,-2.670269348926364,-0.5254879172328841,3.5155470817120182
0,4.166282560171798,-2.31998498994858,0.060367350379601725,-4.496179599235106,3.520547859922136
0,2.0068512140020567,-3.7100743445546778,-2.1090011313685553,-7.846873894259501,3.5255486381322534
0,4.707416694025069,-5.9601669266987765,-0.3983747858994121,-8.887570790515216,3.530549416342364
0,4.567979004566143,-4.050262728321651,-0.5277536048373596,-1.4282702755866326,3.5355501945524814
0,7.488538149546688,0.5996382590528384,3.042862420254415,9.881027663460111,3.540550972762599
0,1.7990941324017489,0.9595360441963464,6.3634732977401915,7.910323039585558,3.5455517509727166
0,3.0096469560903985,0.39943063596750616,2.554079035719432,7.109615865242599,3.550552529182834
0,-2.8898033767599407,0.909322043184868,-3.575320358053659,0.818906152185116,3.5555533073929517
0,6.170743136311907,0.029210274602898156,8.075275123947158,7.678193911588702,3.5605540856030693
0,15.47128649754401,7.429095338881401,11.165865489012837,8.187479154139652,3.5655548638131798
0,8.721826708570525,7.918977244425445,4.976450743908609,2.9067618899640206,3.5705556420232973
0,2.4323637701013587,-1.3811440008220586,3.6970308946735972,-2.8339578713570273,3.575556420233415
0,3.4928976820328494,6.25873161060711,3.4876059467326543,2.5153198794594838,3.5805571984435325
0,2.063428443767762,2.628604085825071,1.7681759050906078,7.474595151572521,3.58555797665365
0,-2.4860439455652608,-1.0615265683568376,0.25874077445965504,4.973867953887967,3.5905587548637676
0,-9.315519486896898,-4.531660345313947,-3.3906994406053497,-5.176861705095123,3.595559533073885
0,-7.574998180863943,-7.221797238330309,-5.540144735506924,-8.097593817080497,3.600560311284003
0,-1.864480027520207,-1.4019372403305026,1.850404894582928,0.8216716264421,3.6055610894941132
0,-2.6239650263392393,3.8679196561522855,-0.8090505452651064,2.830934634337683,3.610561867704231
0,-4.0934531763965065,0.5477734587417806,-3.248511049852425,0.5001952155973396,3.6155626459143484
0,-4.562944476452266,-1.3823758250060698,0.852023386111781,-0.4205466208710914,3.620563424124466
0,-17.212438924826877,-9.95252818754696,-9.817447231916312,-6.231290866204261,3.6255642023345835
0,-7.131936519094822,-8.46268362102902,-8.71692289813413,3.4879624885787583,3.630564980544701
0,-18.05143725578257,-14.41284211691264,-18.466403606058368,-6.012786547356026,3.6355657587548187
0,-19.25094113015239,-12.8130036656693,-19.99588934808085,-10.703537964603768,3.6405665369649363
0,-6.420448136021369,-10.39316825660208,-10.275380115096944,1.5357082466651817,3.6455673151750467
0,-4.5199582658355695,-9.533335877832407,-6.174875896481787,-2.915047903223634,3.6505680933851643
0,5.590528488847809,-1.2535065164623573,2.0956233195015663,4.644193596339079,3.655568871595282
0,6.061012136737603,5.826319841080301,0.04611754513722044,5.653432755949399,3.6605696498053995
0,4.1614926863141415,6.856143208525378,10.97660679277648,10.282669585895212,3.665570428015517
0,7.311970145581611,8.705963599258478,8.247091074439185,11.03190409584564,3.6705712062256346
0,8.252444521983058,3.285781026048671,7.127570401485425,13.121136294578593,3.675571984435752
0,6.992915822311945,7.465595501018717,6.648044784492635,6.700366189824296,3.6805727626458697
0,2.9933840526687527,1.7154070357256876,4.828514233319175,0.6095937883354581,3.68557354085598
0,5.433849218547006,2.265215641265296,3.608978757216062,-1.4711809037722743,3.690574319066098
0,3.144311324958887,4.325021328387188,5.319438364933978,-2.0119578806006198,3.6955750972762154
0,2.784770376508988,6.794824107524492,6.609893064763224,-1.3127371361961506,3.700575875486333
0,9.225226377412424,7.024623988678232,8.57034286446883,4.6464813355032,3.7055766536964505
0,4.395679331421522,0.9444209813056326,2.1007877712022798,1.2056975405456691,3.710577431906568
0,-5.4238707582085475,-11.575784905537125,-8.488772208391554,-10.335088515112593,3.7155782101166857
0,-9.373423888436806,-6.505993662719457,-10.088337067724378,-11.84587682534082,3.7205789883268032
0,-2.212980055945116,-4.1962052805694565,-7.117906799713153,-9.606667383341707,3.7255797665369137
0,-8.752539256860372,-11.126419748731648,-9.557481396480702,-19.147460181289855,3.7305805447470313
0,-4.752101486725488,-7.256637056153219,-8.71706084930574,-11.238255210123723,3.735581322957149
0,1.2783332594553605,-0.12685719105558968,-2.1566451486593463,-8.819052459447203,3.7405821011672664
0,-3.1212350129336968,-0.927080141089888,-1.2562342843566363,-2.749851917699552,3.745582879377384
0,-7.220806298266001,5.222694106332712,-7.385828245788211,0.7893464274559636,3.7505836575875016
0,-7.850380590580897,-5.217534436213454,-0.4554270220106714,8.078542588670963,3.755584435797619
0,-5.269957883360741,-5.297765756162086,-4.405030601729367,1.2877365784837536,3.7605852140077367
0,-4.539538169451479,-1.1179998407417897,0.12536102666135918,4.9969284090739805,3.765585992217847
0,-9.619121441101722,-2.8582366768480814,-7.044252124975866,-1.9938819077367493,3.7705867704279648
0,-7.598707689937572,-7.488476251059527,-3.1938700444825976,-0.19469436034051224,3.7755875486380823
0,-4.8882969068769535,3.541281450370084,-2.9434927193236646,0.6544910628142262,3.7805883268482
0,-11.317889082109346,-3.068963558530815,-10.283120136541461,-8.036325626661798,3.7855891050583175
0,0.07251579487223603,5.400788736378556,-2.672752282683682,3.9928555830060377,3.790589883268435
0,-1.5970822648382725,-1.109461650814361,2.707610856216478,1.4220347037653847,3.7955906614785526
0,0.9433167501886788,0.36028529385871866,-2.8320307055554106,-2.628788252409231,3.800591439688663
0,3.663712851463523,-2.959970415697261,-8.131676953567665,-2.439613273564407,3.8055922178987807
0,3.9441060503866616,4.349771234449472,0.8986721268584223,1.4495596523409553,3.8105929961088982
0,6.88449635807421,4.8595102582011895,7.499016550682887,10.438730537393925,3.815593774319016
0,9.744883785176002,3.809246669229757,8.259356332815809,5.7278993934140425,3.8205945525291334
0,10.775268341668623,6.058980480811749,9.60969148766113,5.8370662316448225,3.825595330739251
0,9.585650036660379,12.68871170571516,13.06002202881925,10.626231062650815,3.8305961089493685
0,16.69602887825247,10.758440355989666,21.40034796884478,7.565393896274493,3.835596887159486
0,13.816404873383082,10.718166442723579,14.910669318919098,10.754554741544652,3.8405976653695966
0,17.536778027637695,11.017889975938042,9.800986088642155,11.863713606584712,3.845598443579714
0,16.66714834510448,10.05761096459426,14.23129828614329,12.462870498510814,3.8505992217898317
0,11.047515828319604,11.387329416609829,17.671605918246925,13.152025423315894,3.8555999999999493
0,9.717880478370194,12.21704533884994,20.751908990370655,10.291178385798656,3.860600778210067
0,19.898242295070634,18.05675873704428,16.692207506273995,16.780329389549607,3.8656015564201844
0,12.488601276948343,10.52646961563396,12.212501467959841,13.789478436895262,3.870602334630302
0,5.5789574211617206,3.09617797775833,6.782790875870539,7.598625528834928,3.8756031128404196
0,4.849310723704927,4.705883825554172,1.5530757292942512,6.0477706651722425,3.88060389105053
0,4.00966117979957,5.245587160532486,2.073356026822169,3.0569138448287756,3.8856046692606476
0,1.3900087841722133,2.045287983752491,0.7436317666939447,-5.993944933801782,3.890605447470765
0,-2.009646468770008,0.3149862958966815,-5.446097052989861,-12.714805672406355,3.8956062256808828
0,2.9706954152316127,3.7546820973859214,-0.5358304340809883,-8.715668372203456,3.9006070038910003
0,4.931034430350727,5.054375388425769,2.124431621738225,-4.3565330335797885,3.905607782101118
0,3.261370570550955,4.464066168913933,6.034689112843901,-2.407399656136846,3.9106085603112355
0,2.851703829459238,-2.206245561624922,3.0149420374154476,4.5617317610033625,3.915609338521353
0,-0.5979657996195153,5.3034401960462745,7.08519039324759,4.980861218824412,3.9206101167314635
0,8.162361676370047,4.1831234409511255,13.65543417760847,8.469988718055994,3.925610894941581
0,4.94268625018705,5.472804171810719,7.415673387020262,5.31911425891048,3.9306116731516987
0,-2.4369920858155476,-0.8775176130502093,-3.674091982843484,0.04823784101102327,3.9356124513618163
0,-7.8466733395541,4.412158084353531,-5.213861936834016,-2.062640536437642,3.940613229571934
0,-5.7063575187990105,-6.978168738184529,-6.61363647976531,-7.0435208743201665,3.9456140077820514
0,-6.586044630827142,-4.65849808284575,-12.46341561597901,-12.544403173232736,3.950614785992169
0,-10.215734682276889,-6.728829951504223,-12.323199349047771,-8.875287433103685,3.9556155642022865
0,-8.015427679063489,-9.649164345498223,-8.492987681544344,-6.046173652967083,3.960616342412397
0,-1.6251236263272417,-11.4195012654598,-9.502780614982765,-5.187061831004772,3.9656171206225146
0,-17.964822528478557,-17.409840711092052,-16.10257814986122,-11.407951964690344,3.970617898832632
0,-17.474524389067028,-14.84018268089106,-14.892380285566473,-15.078844050736082,3.9756186770427497
0,-16.72422921037066,-9.840527171958389,-10.192187020189433,-13.829738084823466,3.9806194552528673
0,-8.473936993122118,-10.160874180058789,-9.871998350518226,-15.710634061341123,3.985620233462985
0,-4.693647736674444,-5.63122369984846,-1.2018142722602174,-6.851531973312501,3.9906210116731025
0,-1.8133614394311908,2.028424274842613,1.3183652195977462,-4.692431812561441,3.99562178988322
0,3.1969219007084786,1.6280697506379145,4.288540130356632,2.2066664299047725,4.0006225680933305
0,-2.112797713988167,-3.302287265733585,-5.011289534715077,2.0757627634469893,4.005623346303448
0,0.7574797187493769,1.0773532324563115,-2.3611237703931236,0.3448571974483502,4.010624124513566
0,2.7677542011667033,5.036991251947596,7.129037428630153,3.4139497411621607,4.015624902723683
0,2.418025735431036,1.7866267993777027,3.669194067649312,3.543040403660603,4.020625680933801
0,5.448294323511629,7.246259881106555,8.779346151643642,8.4921291937311,4.025626459143918
0,-5.211440032883964,-2.1441094968640675,-2.880506314897146,0.9512161197356255,4.030627237354036
0,-1.731177332185237,1.325518671173135,-1.030363327860577,1.8103011895829282,4.035628015564146
0,-3.3409175727166045,1.755144390773296,2.129775116747637,-1.17061558911773,4.040628793774264
0,-7.780660752516467,-11.595232332520851,-12.650090976999412,-14.181534208782693,4.045629571984382
0,-4.020406869213151,-5.485611492934174,-5.719961604720904,-3.1124546614717374,4.050630350194499
0,-0.760155919956451,1.7140069158043278,1.700163238510246,-1.123376938626391,4.055631128404617
0,-1.529907901512789,-8.506377099552164,-6.069716441879923,-1.7743010311833523,4.060631906614734
0,4.0603371895389015,-7.516763531855877,-4.12960064013842,-4.885226929803874,4.065632684824852
0,5.460579356585189,6.582847626486173,1.4005106497954762,6.683845375040375,4.070633463034969
0,8.37081860272271,5.102456383346743,7.100617434193284,6.352915892905396,4.07563424124508
0,3.5510549305334003,4.302062746442831,5.650719719205512,6.671984633036425,4.0806350194551975
0,7.621288342002787,6.071666723048661,3.440817510555391,7.151051604108532,4.085635797665315
0,5.111518838533084,14.001268319883868,8.040910813446185,4.53011681415542,4.090636575875433
0,-2.898253578996276,6.940867542927121,0.2609996325764885,-1.7908197293510446,4.09563735408555
0,-5.698028909994411,-1.849535602685964,-2.0089160277600895,1.2482419807173868,4.100638132295668
0,-0.037807153796579784,2.230058887579925,-0.2488361634466103,4.137301951343899,4.105638910505785
0,-1.3675883094809034,0.13965101801863322,4.621239229630156,1.8663601893712274,4.110639688715903
0,0.03262762406512992,3.559240792819928,0.11131015552617118,1.575416701415517,4.115640466926013
0,-3.9771593519373387,-0.681171783956918,-2.7686233818381933,-3.165528506102706,4.120641245136131
0,-3.096949236118716,-0.7715867083783936,-0.8685613785854294,-3.6464754267910937,4.1256420233462485
0,-5.246742026848973,0.7979960234402019,-5.858503830710967,-6.047424054066606,4.130642801556366
0,-10.646537722096094,-11.642423584541623,-13.128450733888835,-14.938374380906234,4.135643579766484
0,-11.34633631920865,-4.302845528061074,-10.048402083160582,-14.289326399508667,4.140644357976601
0,-13.246137814641843,-13.763269802256255,-12.998357872616296,-12.960280100928848,4.145645136186719
0,-4.80594220379443,-5.263696401462012,0.19168190469245538,-7.131235474941806,4.150645914396836
0,2.704250518861368,7.075874680750145,4.92171725647791,-5.1121925102044585,4.155646692606947
0,-10.235559640583464,-6.834556548768375,-11.488251809226242,-19.27315119446887,4.160647470817064
0,-3.6153726756686853,-8.794990082992456,-1.948225284200375,-11.834111514506693,4.165648249027182
0,-8.635188579454113,-9.985425914512849,-12.18820315980459,-15.775073455833502,4.1706490272373
0,-4.125007344401072,-13.445864035150633,-13.598185426698553,-8.216037002597318,4.175649805447417
