labels,F4,F3,Fz,Cz,timestamps
0,-1933.23,-476.05,-1258.87,-1576.26,-2.000028294546201
0,-1951.19,-484.44,-1272.71,-1583.54,-1.995028223809836
0,-1923.13,-480.65,-1258.16,-1574.4,-1.990028153073471
0,-1916.15,-462.01,-1248.05,-1565.29,-1.9850280823371058
0,-1920.44,-473.7,-1245.25,-1571.21,-1.9800280116007407
0,-1929.75,-475.72,-1259.85,-1576.09,-1.975027940864372
0,-1932.75,-484.92,-1259.17,-1574.93,-1.970027870128007
0,-1928.16,-473.7,-1253.53,-1567.93,-1.9650277993916418
0,-1924.37,-471.39,-1247.39,-1558.4,-1.9600277286552767
0,-1921.91,-466.14,-1245.07,-1556.6,-1.9550276579189116
0,-1915.66,-462.24,-1242.78,-1561.37,-1.9500275871825465
0,-1919.95,-464.8,-1255.97,-1566.74,-1.9450275164461814
0,-1928.4,-467.33,-1261.79,-1573.69,-1.9400274457098163
0,-1946.52,-491.7,-1277.26,-1591.34,-1.9350273749734512
0,-1944.87,-492.52,-1280.13,-1593.92,-1.9300273042370826
0,-1931.69,-467.91,-1257.38,-1562.2,-1.9250272335007175
0,-1939.59,-485.61,-1264.71,-1575.45,-1.9200271627643524
0,-1938.75,-482.9,-1260.57,-1570.61,-1.9150270920279873
0,-1937.95,-491.63,-1267.76,-1577.01,-1.9100270212916222
0,-1934.46,-479.91,-1254.58,-1564.18,-1.905026950555257
0,-1919.57,-472.79,-1242.09,-1545.84,-1.900026879818892
0,-1914.19,-463.08,-1235.87,-1540.97,-1.8950268090825269
0,-1913.67,-473.6,-1245.47,-1549.67,-1.8900267383461617
0,-1888.58,-465.27,-1235.82,-1548.24,-1.885026667609793
0,-1907.79,-458.39,-1237.42,-1545.37,-1.880026596873428
0,-1907.07,-447.33,-1221.42,-1538.75,-1.8750265261370629
0,-1912.64,-453.77,-1230.4,-1545.18,-1.8700264554006978
0,-1903.79,-449.72,-1229.84,-1550.26,-1.8650263846643327
0,-1904.32,-457.57,-1229.1,-1550.23,-1.8600263139279676
0,-1899.21,-447.24,-1226.48,-1549.27,-1.8550262431916025
0,-1905.08,-457.84,-1230.22,-1562.54,-1.8500261724552374
0,-1900.13,-454.42,-1229.16,-1560.91,-1.8450261017188723
0,-1888.18,-441.72,-1223.26,-1553.85,-1.8400260309825036
0,-1890.7,-434.92,-1216.28,-1550.41,-1.8350259602461385
0,-1892.25,-434.15,-1218.17,-1552.02,-1.8300258895097734
0,-1892.12,-432.95,-1220.91,-1550.04,-1.8250258187734083
0,-1877.05,-429.64,-1215.78,-1553.73,-1.8200257480370432
0,-1885.97,-434.59,-1222.45,-1556.98,-1.815025677300678
0,-1890.0,-419.56,-1210.61,-1544.17,-1.810025606564313
0,-1884.12,-415.3,-1206.15,-1547.82,-1.805025535827948
0,-1896.97,-428.49,-1219.02,-1556.39,-1.8000254650915828
0,-1907.82,-436.44,-1226.16,-1563.07,-1.7950253943552141
0,-1909.96,-450.2,-1242.11,-1579.04,-1.790025323618849
0,-1903.22,-446.64,-1235.87,-1563.75,-1.785025252882484
0,-1914.01,-458.97,-1237.24,-1563.55,-1.7800251821461188
0,-1912.75,-464.13,-1234.15,-1559.85,-1.7750251114097537
0,-1913.24,-464.71,-1241.89,-1561.25,-1.7700250406733886
0,-1916.01,-480.72,-1250.16,-1567.78,-1.7650249699370235
0,-1908.36,-470.16,-1242.22,-1557.69,-1.7600248992006584
0,-1913.27,-472.55,-1246.56,-1562.77,-1.7550248284642933
0,-1921.04,-483.48,-1253.92,-1563.59,-1.7500247577279247
0,-1929.76,-484.71,-1254.78,-1564.47,-1.7450246869915595
0,-1920.59,-482.55,-1253.16,-1558.58,-1.7400246162551944
0,-1915.34,-479.98,-1255.97,-1564.78,-1.7350245455188293
0,-1937.88,-487.6,-1259.12,-1568.36,-1.7300244747824642
0,-1946.02,-495.79,-1272.27,-1580.29,-1.7250244040460991
0,-1943.25,-499.55,-1275.0,-1586.35,-1.720024333309734
0,-1937.75,-495.27,-1269.23,-1575.44,-1.715024262573369
0,-1937.18,-504.62,-1274.03,-1581.35,-1.7100241918370038
0,-1939.72,-498.11,-1264.54,-1575.1,-1.7050241211006352
0,-1936.34,-496.08,-1268.45,-1573.25,-1.70002405036427
0,-1932.5,-489.86,-1262.03,-1562.85,-1.695023979627905
0,-1931.63,-493.55,-1261.1,-1565.83,-1.6900239088915399
0,-1929.94,-484.24,-1257.57,-1561.11,-1.6850238381551748
0,-1929.05,-484.59,-1248.41,-1558.4,-1.6800237674188097
0,-1929.08,-481.09,-1246.66,-1556.2,-1.6750236966824446
0,-1923.13,-476.49,-1256.48,-1559.79,-1.6700236259460794
0,-1922.19,-478.33,-1253.6,-1560.74,-1.6650235552097143
0,-1935.78,-488.29,-1262.76,-1570.79,-1.6600234844733457
0,-1933.05,-485.53,-1264.45,-1568.79,-1.6550234137369806
0,-1940.02,-482.65,-1263.56,-1565.18,-1.6500233430006155
0,-1919.97,-474.45,-1251.28,-1559.39,-1.6450232722642504
0,-1934.48,-477.44,-1255.58,-1561.32,-1.6400232015278853
0,-1946.78,-485.48,-1258.43,-1563.31,-1.6350231307915202
0,-1944.61,-486.88,-1256.67,-1563.77,-1.630023060055155
0,-1928.49,-475.78,-1255.7,-1559.84,-1.62502298931879
0,-1942.77,-486.08,-1266.86,-1575.39,-1.6200229185824249
0,-1947.17,-493.21,-1271.61,-1581.25,-1.6150228478460562
0,-1943.92,-484.59,-1268.28,-1583.17,-1.610022777109691
0,-1942.94,-480.79,-1266.82,-1579.73,-1.605022706373326
0,-1928.37,-471.58,-1255.9,-1572.65,-1.600022635636961
0,-1919.99,-456.69,-1243.71,-1562.63,-1.5950225649005958
0,-1912.65,-448.6,-1235.9,-1560.95,-1.5900224941642307
0,-1906.38,-437.9,-1230.25,-1557.72,-1.5850224234278656
0,-1875.79,-412.86,-1207.24,-1542.7,-1.5800223526915005
0,-1870.85,-410.37,-1201.7,-1542.48,-1.5750222819551354
0,-1864.19,-397.2,-1192.93,-1534.97,-1.5700222112187667
0,-1865.93,-408.81,-1197.53,-1541.81,-1.5650221404824016
0,-1862.69,-396.88,-1197.22,-1537.59,-1.5600220697460365
0,-1874.45,-402.91,-1207.21,-1544.91,-1.5550219990096714
0,-1863.85,-420.86,-1205.41,-1546.37,-1.5500219282733063
0,-1864.39,-417.81,-1202.34,-1541.84,-1.5450218575369412
0,-1899.49,-436.06,-1218.94,-1549.59,-1.540021786800576
0,-1910.59,-448.28,-1231.58,-1556.63,-1.535021716064211
0,-1915.91,-463.34,-1239.03,-1565.49,-1.530021645327846
0,-1918.31,-462.04,-1239.83,-1562.62,-1.5250215745914772
0,-1928.81,-482.8,-1260.12,-1573.75,-1.5200215038551121
0,-1920.98,-472.41,-1245.24,-1564.47,-1.515021433118747
0,-1940.6,-494.68,-1270.83,-1581.58,-1.510021362382382
0,-1937.26,-488.73,-1267.84,-1580.13,-1.5050212916460168
0,-1938.47,-488.25,-1270.03,-1578.21,-1.5000212209096517
0,-1955.04,-511.12,-1282.95,-1587.37,-1.4950211501732866
0,-1958.93,-521.53,-1288.44,-1596.81,-1.4900210794369215
0,-1959.23,-516.34,-1286.5,-1593.65,-1.4850210087005529
0,-1957.47,-515.28,-1281.75,-1588.11,-1.4800209379641878
0,-1952.39,-512.49,-1288.18,-1590.07,-1.4750208672278227
0,-1945.88,-499.4,-1275.61,-1575.54,-1.4700207964914576
0,-1955.31,-500.01,-1281.26,-1579.42,-1.4650207257550925
0,-1946.33,-496.97,-1272.66,-1576.84,-1.4600206550187274
0,-1943.7,-498.96,-1270.3,-1573.87,-1.4550205842823623
0,-1941.01,-485.2,-1258.58,-1567.84,-1.4500205135459971
0,-1955.96,-495.77,-1277.11,-1575.68,-1.445020442809632
0,-1954.89,-494.76,-1276.01,-1580.08,-1.4400203720732634
0,-1940.29,-477.72,-1258.24,-1560.88,-1.4350203013368983
0,-1934.2,-479.6,-1255.5,-1559.59,-1.4300202306005332
0,-1940.99,-486.97,-1262.37,-1566.46,-1.425020159864168
0,-1940.56,-493.3,-1267.07,-1571.16,-1.420020089127803
0,-1941.65,-490.55,-1264.36,-1573.68,-1.4150200183914379
0,-1939.98,-490.89,-1260.71,-1573.68,-1.4100199476550728
0,-1934.97,-474.75,-1256.45,-1566.94,-1.4050198769187077
0,-1926.2,-477.88,-1248.67,-1564.71,-1.4000198061823426
0,-1941.86,-489.45,-1261.37,-1579.06,-1.395019735445974
0,-1929.53,-480.34,-1259.25,-1574.17,-1.3900196647096088
0,-1951.62,-500.12,-1284.08,-1596.27,-1.3850195939732437
0,-1946.31,-501.9,-1276.8,-1591.94,-1.3800195232368786
0,-1941.36,-496.69,-1272.84,-1585.78,-1.3750194525005135
0,-1952.36,-501.99,-1281.13,-1594.35,-1.3700193817641484
0,-1945.04,-499.35,-1273.13,-1591.34,-1.3650193110277833
0,-1939.02,-493.5,-1269.45,-1589.04,-1.3600192402914182
0,-1934.36,-490.72,-1267.46,-1582.51,-1.355019169555053
0,-1942.82,-500.75,-1274.77,-1592.4,-1.3500190988186844
0,-1956.21,-502.0,-1281.95,-1589.57,-1.3450190280823193
0,-1959.53,-501.59,-1283.29,-1589.18,-1.3400189573459542
0,-1954.09,-499.77,-1277.28,-1585.57,-1.3350188866095891
0,-1937.46,-480.19,-1262.92,-1572.7,-1.330018815873224
0,-1943.54,-491.99,-1270.54,-1578.08,-1.325018745136859
0,-1945.77,-489.51,-1268.13,-1583.52,-1.3200186744004938
0,-1929.11,-474.95,-1254.36,-1562.46,-1.3150186036641287
0,-1934.43,-487.05,-1262.37,-1568.94,-1.3100185329277636
0,-1927.48,-481.21,-1256.6,-1568.22,-1.305018462191395
0,-1940.85,-486.03,-1260.39,-1565.54,-1.3000183914550298
0,-1933.23,-485.4,-1258.35,-1567.45,-1.2950183207186647
0,-1925.39,-484.36,-1261.72,-1571.4,-1.2900182499822996
0,-1919.29,-470.08,-1246.12,-1557.23,-1.2850181792459345
0,-1932.79,-483.8,-1261.99,-1574.17,-1.2800181085095694
0,-1934.21,-488.87,-1263.6,-1582.79,-1.2750180377732043
0,-1913.78,-474.59,-1251.73,-1565.54,-1.2700179670368392
0,-1937.29,-476.26,-1255.18,-1574.24,-1.2650178963004741
0,-1941.38,-481.16,-1260.32,-1574.52,-1.2600178255641055
0,-1926.01,-476.75,-1254.51,-1568.09,-1.2550177548277404
0,-1923.45,-475.18,-1251.5,-1570.89,-1.2500176840913753
0,-1911.42,-465.72,-1242.29,-1559.0,-1.2450176133550102
0,-1902.88,-454.55,-1232.8,-1547.4,-1.240017542618645
0,-1896.68,-451.21,-1226.13,-1548.09,-1.23501747188228
0,-1904.14,-451.55,-1231.7,-1547.31,-1.2300174011459148
0,-1911.14,-469.01,-1244.22,-1559.78,-1.2250173304095497
0,-1916.55,-464.8,-1247.24,-1560.48,-1.2200172596731846
0,-1918.36,-468.21,-1249.08,-1566.92,-1.215017188936816
0,-1914.82,-468.54,-1249.62,-1562.71,-1.2100171182004509
0,-1914.5,-459.74,-1250.83,-1569.19,-1.2050170474640858
0,-1916.48,-465.25,-1247.78,-1571.39,-1.2000169767277207
0,-1919.22,-462.42,-1246.91,-1571.06,-1.1950169059913556
0,-1911.03,-465.14,-1243.45,-1570.93,-1.1900168352549905
0,-1926.81,-472.2,-1252.33,-1575.32,-1.1850167645186254
0,-1938.5,-477.88,-1256.54,-1573.75,-1.1800166937822603
0,-1936.57,-475.15,-1253.65,-1578.04,-1.1750166230458952
0,-1917.71,-468.09,-1248.68,-1569.29,-1.1700165523095265
0,-1928.15,-474.97,-1250.13,-1569.0,-1.1650164815731614
0,-1923.2,-470.71,-1247.97,-1562.45,-1.1600164108367963
0,-1924.36,-465.1,-1248.07,-1566.35,-1.1550163401004312
0,-1928.38,-471.95,-1251.52,-1567.4,-1.150016269364066
0,-1914.18,-457.96,-1234.99,-1550.31,-1.145016198627701
0,-1910.32,-471.94,-1235.22,-1551.66,-1.1400161278913359
0,-1917.42,-466.11,-1238.42,-1551.71,-1.1350160571549708
0,-1939.57,-478.49,-1257.62,-1565.22,-1.1300159864186057
0,-1927.34,-464.3,-1246.0,-1553.22,-1.125015915682237
0,-1921.47,-468.6,-1249.33,-1557.55,-1.120015844945872
0,-1940.44,-486.11,-1265.71,-1566.07,-1.1150157742095068
0,-1939.01,-485.23,-1260.35,-1565.72,-1.1100157034731417
0,-1922.54,-471.57,-1254.25,-1569.15,-1.1050156327367766
0,-1925.02,-463.46,-1250.27,-1561.07,-1.1000155620004115
0,-1934.9,-471.65,-1254.36,-1563.77,-1.0950154912640464
0,-1929.23,-490.64,-1255.16,-1565.03,-1.0900154205276813
0,-1924.73,-477.18,-1248.17,-1559.19,-1.0850153497913162
0,-1929.71,-474.77,-1250.27,-1563.87,-1.0800152790549475
0,-1910.3,-470.25,-1247.07,-1560.01,-1.0750152083185824
0,-1919.22,-473.29,-1249.48,-1566.42,-1.0700151375822173
0,-1924.29,-482.3,-1251.76,-1564.2,-1.0650150668458522
0,-1924.62,-479.59,-1251.34,-1564.96,-1.0600149961094871
0,-1933.38,-475.4,-1256.97,-1568.67,-1.055014925373122
0,-1929.92,-472.27,-1259.54,-1568.55,-1.050014854636757
0,-1919.17,-474.42,-1254.96,-1562.15,-1.0450147839003918
0,-1929.35,-471.99,-1253.81,-1565.8,-1.0400147131640267
0,-1969.83,-503.13,-1288.17,-1586.65,-1.035014642427658
0,-1964.5,-501.51,-1279.49,-1580.51,-1.030014571691293
0,-1943.61,-488.79,-1264.17,-1567.2,-1.0250145009549279
0,-1946.06,-499.12,-1273.82,-1580.38,-1.0200144302185628
0,-1932.03,-486.7,-1271.86,-1584.46,-1.0150143594821976
0,-1940.24,-481.02,-1262.94,-1574.96,-1.0100142887458325
0,-1940.98,-474.17,-1257.44,-1572.67,-1.0050142180094674
0,-1929.75,-469.16,-1254.07,-1572.71,-1.0000141472731023
0,-1937.9,-479.9,-1261.99,-1578.24,-0.9950140765367372
0,-1940.58,-481.57,-1264.88,-1574.97,-0.9900140058003686
0,-1942.27,-474.43,-1261.29,-1572.25,-0.9850139350640035
0,-1936.28,-479.92,-1263.49,-1567.88,-0.9800138643276384
0,-1933.81,-472.91,-1260.3,-1568.34,-0.9750137935912733
0,-1930.78,-467.55,-1253.63,-1563.14,-0.9700137228549082
0,-1922.16,-460.17,-1242.28,-1558.89,-0.9650136521185431
0,-1920.13,-465.91,-1243.03,-1554.57,-0.960013581382178
0,-1925.34,-470.96,-1251.56,-1562.6,-0.9550135106458129
0,-1922.07,-462.31,-1243.99,-1551.3,-0.9500134399094478
0,-1932.32,-468.76,-1252.41,-1556.35,-0.9450133691730791
0,-1925.81,-468.13,-1247.91,-1555.6,-0.940013298436714
0,-1925.06,-464.46,-1251.95,-1560.65,-0.9350132277003489
0,-1925.3,-468.25,-1247.9,-1562.99,-0.9300131569639838
0,-1932.51,-479.82,-1256.37,-1573.47,-0.9250130862276187
0,-1919.49,-467.7,-1246.86,-1561.01,-0.9200130154912536
0,-1924.52,-475.76,-1254.49,-1570.06,-0.9150129447548885
0,-1931.5,-475.43,-1260.94,-1573.92,-0.9100128740185234
0,-1944.2,-492.4,-1275.01,-1588.74,-0.9050128032821583
0,-1936.54,-493.45,-1269.78,-1581.35,-0.9000127325457896
0,-1933.83,-490.93,-1264.72,-1580.77,-0.8950126618094245
0,-1940.87,-492.23,-1267.69,-1584.57,-0.8900125910730594
0,-1944.8,-486.71,-1269.21,-1584.6,-0.8850125203366943
0,-1937.07,-488.23,-1265.98,-1579.61,-0.8800124496003292
0,-1938.66,-486.38,-1270.07,-1583.78,-0.8750123788639641
0,-1947.68,-498.64,-1275.69,-1592.63,-0.870012308127599
0,-1943.7,-491.25,-1272.36,-1587.3,-0.8650122373912339
0,-1935.91,-493.42,-1265.66,-1580.64,-0.8600121666548688
0,-1940.99,-494.85,-1275.15,-1586.94,-0.8550120959185001
0,-1942.49,-505.57,-1275.98,-1589.49,-0.850012025182135
0,-1937.95,-486.77,-1264.11,-1573.19,-0.8450119544457699
0,-1937.83,-486.39,-1265.29,-1569.14,-0.8400118837094048
0,-1936.74,-477.86,-1262.61,-1561.24,-0.8350118129730397
0,-1923.2,-467.78,-1249.46,-1556.34,-0.8300117422366746
0,-1912.03,-460.45,-1242.44,-1553.34,-0.8250116715003095
0,-1926.66,-481.27,-1251.71,-1565.01,-0.8200116007639444
0,-1933.34,-483.91,-1257.81,-1568.76,-0.8150115300275758
0,-1928.84,-470.9,-1251.0,-1560.41,-0.8100114592912107
0,-1919.65,-458.46,-1239.32,-1554.61,-0.8050113885548456
0,-1919.24,-466.03,-1243.38,-1558.95,-0.8000113178184804
0,-1925.09,-470.45,-1245.96,-1559.95,-0.7950112470821153
0,-1931.98,-484.91,-1255.78,-1575.36,-0.7900111763457502
0,-1928.2,-476.13,-1252.22,-1563.78,-0.7850111056093851
0,-1933.19,-476.79,-1254.79,-1570.41,-0.78001103487302
0,-1920.82,-474.96,-1250.62,-1569.78,-0.7750109641366549
0,-1918.95,-461.19,-1241.13,-1562.69,-0.7700108934002863
0,-1922.45,-461.85,-1248.36,-1564.83,-0.7650108226639212
0,-1915.74,-463.51,-1245.31,-1566.26,-0.7600107519275561
0,-1909.75,-456.99,-1236.97,-1555.87,-0.755010681191191
0,-1908.24,-457.9,-1236.73,-1553.84,-0.7500106104548259
0,-1905.58,-455.53,-1241.44,-1557.34,-0.7450105397184608
0,-1908.55,-451.62,-1239.83,-1555.86,-0.7400104689820957
0,-1936.72,-474.28,-1257.35,-1575.62,-0.7350103982457306
0,-1937.65,-489.82,-1265.03,-1587.19,-0.7300103275093655
0,-1913.13,-481.81,-1256.0,-1570.17,-0.7250102567729968
0,-1932.84,-479.13,-1258.64,-1576.62,-0.7200101860366317
0,-1941.3,-477.29,-1262.91,-1577.16,-0.7150101153002666
0,-1924.22,-473.79,-1262.38,-1580.77,-0.7100100445639015
0,-1923.56,-476.7,-1258.24,-1584.82,-0.7050099738275364
0,-1928.28,-466.79,-1252.54,-1582.57,-0.7000099030911713
0,-1906.13,-461.75,-1245.7,-1569.74,-0.6950098323548062
0,-1900.53,-446.22,-1230.52,-1551.32,-0.6900097616184411
0,-1885.64,-434.67,-1219.44,-1546.09,-0.685009690882076
0,-1857.26,-419.46,-1198.34,-1537.6,-0.6800096201457073
0,-1876.98,-415.92,-1199.28,-1544.88,-0.6750095494093422
0,-1879.28,-409.45,-1200.31,-1540.67,-0.6700094786729771
0,-1868.87,-398.01,-1192.46,-1536.35,-0.665009407936612
0,-1867.55,-408.96,-1195.66,-1530.48,-0.6600093372002469
0,-1874.15,-420.89,-1204.6,-1538.92,-0.6550092664638818
0,-1874.56,-419.21,-1196.58,-1529.41,-0.6500091957275167
0,-1863.98,-422.57,-1203.94,-1530.95,-0.6450091249911516
0,-1893.09,-419.03,-1214.39,-1547.27,-0.6400090542547865
0,-1895.26,-423.31,-1210.47,-1545.41,-0.6350089835184178
0,-1881.88,-435.42,-1211.18,-1531.85,-0.6300089127820527
0,-1917.89,-452.84,-1236.44,-1553.12,-0.6250088420456876
0,-1930.36,-462.19,-1248.45,-1560.56,-0.6200087713093225
0,-1933.76,-475.37,-1262.04,-1574.11,-0.6150087005729574
0,-1931.11,-473.04,-1262.81,-1572.62,-0.6100086298365923
0,-1924.73,-482.15,-1264.72,-1575.82,-0.6050085591002272
0,-1935.79,-480.14,-1262.85,-1569.17,-0.6000084883638621
0,-1933.06,-472.53,-1249.83,-1557.33,-0.595008417627497
0,-1931.36,-488.46,-1259.88,-1567.15,-0.5900083468911284
0,-1966.02,-492.72,-1277.9,-1585.77,-0.5850082761547633
0,-1954.81,-490.56,-1270.68,-1576.32,-0.5800082054183981
0,-1923.45,-473.92,-1254.29,-1561.99,-0.575008134682033
0,-1922.17,-480.36,-1250.99,-1570.41,-0.5700080639456679
0,-1944.81,-490.25,-1270.17,-1581.1,-0.5650079932093028
0,-1940.49,-484.91,-1260.91,-1574.18,-0.5600079224729377
0,-1941.05,-492.58,-1273.8,-1579.36,-0.5550078517365726
0,-1958.2,-503.73,-1286.45,-1589.06,-0.5500077810002075
0,-1924.05,-496.79,-1268.83,-1576.17,-0.5450077102638389
0,-1920.63,-493.09,-1264.45,-1572.05,-0.5400076395274738
0,-1909.63,-475.79,-1265.83,-1573.45,-0.5350075687911087
0,-1958.84,-492.78,-1265.85,-1570.44,-0.5300074980547436
0,-1969.81,-503.04,-1275.45,-1574.12,-0.5250074273183785
0,-1956.95,-490.11,-1270.38,-1570.03,-0.5200073565820134
0,-1944.66,-505.91,-1270.36,-1566.95,-0.5150072858456483
0,-1960.95,-517.91,-1283.33,-1573.1,-0.5100072151092832
0,-1958.82,-512.66,-1285.85,-1576.71,-0.505007144372918
0,-1962.17,-508.43,-1284.84,-1577.91,-0.5000070736365494
0,-1967.64,-516.19,-1292.85,-1572.82,-0.4950070029001843
0,-1957.97,-506.85,-1281.86,-1566.8,-0.4900069321638192
0,-1951.09,-497.37,-1276.94,-1565.14,-0.4850068614274541
0,-1961.14,-503.15,-1279.21,-1572.4,-0.480006790691089
0,-1955.93,-494.77,-1273.39,-1573.05,-0.4750067199547239
0,-1960.99,-502.35,-1279.63,-1583.42,-0.4700066492183588
0,-1939.65,-489.86,-1263.88,-1570.03,-0.46500657848199367
0,-1951.99,-495.53,-1272.14,-1575.87,-0.46000650774562857
0,-1945.66,-488.89,-1269.8,-1573.84,-0.4550064370092599
0,-1941.88,-487.54,-1262.38,-1570.75,-0.4500063662728948
0,-1941.81,-482.81,-1264.43,-1573.71,-0.4450062955365297
0,-1936.54,-475.2,-1257.42,-1563.95,-0.4400062248001646
0,-1935.63,-479.15,-1257.09,-1565.61,-0.4350061540637995
0,-1925.63,-468.88,-1252.77,-1556.68,-0.4300060833274344
0,-1935.91,-487.31,-1256.74,-1573.68,-0.4250060125910693
0,-1939.44,-483.78,-1259.61,-1572.25,-0.4200059418547042
0,-1935.33,-482.52,-1266.0,-1576.56,-0.4150058711183391
0,-1943.72,-494.44,-1268.87,-1574.98,-0.41000580038197043
0,-1939.44,-490.27,-1265.54,-1574.85,-0.40500572964560533
0,-1932.85,-483.92,-1259.78,-1563.36,-0.4000056589092402
0,-1930.74,-482.72,-1258.76,-1567.66,-0.3950055881728751
0,-1928.01,-481.79,-1255.5,-1568.39,-0.39000551743651
0,-1923.06,-482.23,-1258.64,-1568.96,-0.3850054467001449
0,-1930.14,-483.64,-1264.47,-1575.25,-0.3800053759637798
0,-1925.32,-485.04,-1261.89,-1579.52,-0.3750053052274147
0,-1925.96,-484.17,-1260.39,-1577.9,-0.3700052344910496
0,-1944.76,-492.61,-1273.48,-1584.05,-0.36500516375468095
0,-1944.66,-486.85,-1271.06,-1582.06,-0.36000509301831585
0,-1928.49,-479.87,-1256.31,-1577.77,-0.35500502228195074
0,-1927.3,-486.96,-1257.28,-1583.6,-0.35000495154558564
0,-1931.03,-481.71,-1262.73,-1579.09,-0.34500488080922054
0,-1934.55,-479.13,-1266.67,-1580.84,-0.34000481007285543
0,-1925.52,-470.56,-1261.69,-1575.75,-0.33500473933649033
0,-1935.21,-485.82,-1258.05,-1583.87,-0.33000466860012523
0,-1943.12,-490.51,-1267.01,-1584.36,-0.3250045978637601
0,-1936.57,-483.73,-1272.21,-1591.25,-0.32000452712739147
0,-1940.99,-499.37,-1281.79,-1602.1,-0.31500445639102637
0,-1950.25,-495.69,-1268.2,-1588.51,-0.31000438565466126
0,-1948.17,-497.95,-1268.03,-1592.8,-0.30500431491829616
0,-1941.25,-488.23,-1267.56,-1585.56,-0.30000424418193106
0,-1928.09,-479.97,-1263.3,-1583.06,-0.29500417344556595
0,-1937.43,-489.21,-1274.67,-1592.77,-0.29000410270920085
0,-1943.57,-491.92,-1271.8,-1587.07,-0.28500403197283575
0,-1942.93,-489.3,-1275.48,-1587.46,-0.28000396123647064
0,-1926.94,-478.76,-1251.18,-1570.46,-0.275003890500102
0,-1929.48,-473.81,-1255.81,-1572.79,-0.2700038197637369
0,-1930.54,-470.65,-1254.17,-1569.34,-0.2650037490273718
0,-1930.18,-474.0,-1257.98,-1570.35,-0.2600036782910067
0,-1925.2,-479.19,-1258.77,-1572.78,-0.2550036075546416
0,-1932.26,-486.25,-1261.75,-1576.63,-0.2500035368182765
0,-1933.77,-482.48,-1260.36,-1577.16,-0.24500346608191137
0,-1923.44,-474.6,-1256.19,-1567.39,-0.24000339534554627
0,-1918.42,-468.16,-1251.22,-1562.08,-0.23500332460918116
0,-1933.55,-468.18,-1252.03,-1565.65,-0.2300032538728125
0,-1937.7,-470.82,-1255.81,-1566.4,-0.2250031831364474
0,-1920.97,-468.51,-1245.26,-1560.89,-0.2200031124000823
0,-1914.51,-455.8,-1239.87,-1551.15,-0.2150030416637172
0,-1909.99,-458.85,-1238.1,-1555.78,-0.2100029709273521
0,-1916.58,-464.04,-1244.57,-1565.94,-0.205002900190987
0,-1919.02,-467.57,-1258.24,-1566.35,-0.2000028294546219
0,-1930.86,-478.58,-1265.88,-1578.34,-0.19500275871825679
0,-1946.56,-490.86,-1276.2,-1587.64,-0.19000268798189168
0,-1936.12,-477.49,-1266.26,-1575.48,-0.18500261724552303
0,-1935.13,-478.02,-1263.45,-1575.48,-0.18000254650915792
0,-1933.62,-479.8,-1259.46,-1565.16,-0.17500247577279282
0,-1931.01,-482.51,-1264.25,-1568.13,-0.17000240503642772
0,-1936.1,-481.6,-1266.93,-1575.1,-0.16500233430006261
0,-1945.8,-492.82,-1269.37,-1587.41,-0.1600022635636975
0,-1935.18,-489.88,-1266.53,-1577.93,-0.1550021928273324
0,-1927.29,-478.69,-1260.42,-1576.54,-0.1500021220909673
0,-1933.57,-486.2,-1256.17,-1571.85,-0.1450020513546022
0,-1929.19,-481.04,-1258.73,-1571.82,-0.14000198061823355
0,-1918.91,-463.75,-1238.7,-1553.44,-0.13500190988186844
0,-1930.31,-462.9,-1249.74,-1560.92,-0.13000183914550334
0,-1931.27,-467.55,-1251.75,-1570.47,-0.12500176840913824
0,-1930.28,-473.13,-1258.62,-1581.56,-0.12000169767277313
0,-1934.28,-480.57,-1263.43,-1593.51,-0.11500162693640803
0,-1929.86,-475.28,-1258.27,-1590.2,-0.11000155620004293
0,-1930.66,-483.2,-1262.2,-1586.58,-0.10500148546367782
0,-1943.55,-500.49,-1269.34,-1591.27,-0.10000141472730917
0,-1927.58,-484.8,-1255.21,-1572.06,-0.09500134399094406
0,-1931.09,-474.79,-1254.11,-1569.91,-0.09000127325457896
0,-1933.22,-473.65,-1253.32,-1570.69,-0.08500120251821386
0,-1920.14,-465.97,-1243.75,-1567.74,-0.08000113178184876
0,-1917.23,-459.38,-1244.53,-1561.76,-0.07500106104548365
0,-1914.98,-464.01,-1242.98,-1564.06,-0.07000099030911855
0,-1905.96,-476.98,-1242.19,-1557.65,-0.06500091957275345
0,-1919.29,-477.01,-1243.66,-1558.01,-0.06000084883638834
0,-1922.11,-476.01,-1248.23,-1555.63,-0.05500077810001969
0,-1910.69,-466.33,-1244.17,-1549.6,-0.050000707363654584
0,-1914.0,-461.81,-1238.38,-1547.37,-0.04500063662728948
0,-1908.0,-465.08,-1238.85,-1549.25,-0.04000056589092438
0,-1906.92,-461.47,-1245.32,-1556.91,-0.035000495154559275
0,-1921.18,-462.91,-1249.09,-1554.34,-0.03000042441819417
0,-1927.71,-480.6,-1258.72,-1569.08,-0.02500035368182907
0,-1927.57,-473.36,-1248.61,-1561.57,-0.020000282945463965
0,-1925.16,-471.44,-1252.55,-1567.12,-0.015000212209098862
0,-1898.33,-468.26,-1246.29,-1566.64,-0.010000141472730206
0,-1914.65,-458.81,-1248.04,-1569.3,-0.005000070736365103
0,-1936.16,-473.34,-1252.42,-1563.98,0.0
0,-1941.59,-483.16,-1260.39,-1567.63,0.005000070736365103
0,-1938.74,-481.58,-1259.21,-1564.22,0.010000141472730206
0,-1937.75,-477.55,-1256.74,-1564.84,0.01500021220909531
0,-1930.5,-477.82,-1254.61,-1564.72,0.020000282945460413
0,-1932.6,-475.88,-1263.91,-1569.97,0.025000353681825516
0,-1947.56,-489.95,-1273.57,-1583.64,0.03000042441819062
0,-1923.62,-483.94,-1260.68,-1568.79,0.035000495154559275
0,-1921.86,-482.74,-1259.03,-1574.58,0.04000056589092438
0,-1932.46,-471.17,-1253.07,-1568.57,0.04500063662728948
0,-1934.84,-477.1,-1256.55,-1563.35,0.050000707363654584
0,-1923.64,-472.92,-1253.96,-1561.16,0.05500077810001969
0,-1934.21,-475.35,-1254.07,-1566.82,0.06000084883638479
0,-1936.03,-475.57,-1255.4,-1572.34,0.0650009195727499
0,-1922.17,-464.22,-1249.53,-1567.36,0.070000990309115
0,-1920.08,-464.59,-1249.88,-1570.9,0.0750010610454801
0,-1928.13,-484.74,-1255.92,-1571.83,0.08000113178184876
0,-1927.92,-485.63,-1258.9,-1571.55,0.08500120251821386
0,-1919.3,-477.66,-1257.65,-1575.55,0.09000127325457896
0,-1908.4,-480.86,-1262.58,-1580.97,0.09500134399094406
0,-1939.84,-474.12,-1261.07,-1578.42,0.10000141472730917
0,-1948.87,-482.34,-1269.57,-1584.42,0.10500148546367427
0,-1952.02,-500.93,-1273.02,-1585.11,0.11000155620003937
0,-1941.37,-498.87,-1270.09,-1576.55,0.11500162693640448
0,-1929.61,-483.97,-1258.31,-1565.36,0.12000169767276958
0,-1934.14,-484.89,-1262.24,-1572.97,0.12500176840913824
0,-1932.54,-476.81,-1257.26,-1573.37,0.13000183914550334
0,-1933.39,-473.87,-1256.79,-1573.44,0.13500190988186844
0,-1932.55,-476.92,-1261.0,-1573.34,0.14000198061823355
0,-1925.62,-473.2,-1257.47,-1572.67,0.14500205135459865
0,-1916.46,-469.31,-1247.53,-1560.95,0.15000212209096375
0,-1913.1,-464.64,-1245.37,-1552.8,0.15500219282732886
0,-1931.33,-477.68,-1254.06,-1562.47,0.16000226356369396
0,-1939.02,-486.11,-1261.25,-1570.23,0.16500233430005906
0,-1939.3,-486.23,-1270.23,-1576.53,0.17000240503642772
0,-1944.02,-478.14,-1267.91,-1576.0,0.17500247577279282
0,-1948.42,-471.78,-1264.61,-1573.16,0.18000254650915792
0,-1951.44,-492.93,-1273.62,-1578.71,0.18500261724552303
0,-1948.36,-492.13,-1267.36,-1573.92,0.19000268798188813
0,-1936.98,-492.63,-1268.31,-1578.57,0.19500275871825323
0,-1930.31,-475.88,-1259.9,-1579.88,0.20000282945461834
0,-1933.59,-485.2,-1267.12,-1581.01,0.20500290019098344
0,-1918.56,-468.31,-1255.27,-1573.62,0.21000297092734854
0,-1947.12,-476.31,-1259.57,-1573.93,0.2150030416637172
0,-1939.22,-477.19,-1262.97,-1566.24,0.2200031124000823
0,-1924.28,-468.82,-1250.63,-1559.59,0.2250031831364474
0,-1922.88,-467.01,-1249.29,-1552.36,0.2300032538728125
0,-1915.11,-473.85,-1246.01,-1563.47,0.2350033246091776
0,-1920.37,-472.29,-1248.02,-1560.17,0.2400033953455427
0,-1929.02,-477.21,-1254.96,-1574.97,0.24500346608190782
0,-1934.15,-483.71,-1265.17,-1581.88,0.2500035368182729
0,-1931.87,-485.8,-1267.28,-1586.41,0.255003607554638
0,-1912.06,-456.68,-1244.64,-1565.34,0.2600036782910067
0,-1928.09,-469.09,-1255.68,-1575.78,0.2650037490273718
0,-1917.63,-466.52,-1240.79,-1569.06,0.2700038197637369
0,-1918.26,-473.18,-1246.78,-1568.92,0.275003890500102
0,-1921.78,-474.12,-1253.59,-1569.3,0.2800039612364671
0,-1928.38,-474.97,-1253.84,-1571.75,0.2850040319728322
0,-1927.84,-479.2,-1258.51,-1572.74,0.2900041027091973
0,-1928.06,-480.27,-1250.86,-1565.83,0.2950041734455624
0,-1913.82,-466.53,-1247.94,-1548.54,0.3000042441819275
0,-1925.83,-475.12,-1256.08,-1558.97,0.30500431491829616
0,-1913.71,-473.56,-1242.03,-1556.88,0.31000438565466126
0,-1920.95,-474.86,-1252.33,-1562.4,0.31500445639102637
0,-1915.27,-472.44,-1251.49,-1561.73,0.32000452712739147
0,-1920.41,-474.48,-1246.94,-1562.42,0.3250045978637566
0,-1931.77,-475.83,-1264.17,-1578.32,0.3300046686001217
0,-1941.05,-485.33,-1269.6,-1586.33,0.3350047393364868
0,-1940.8,-488.53,-1272.37,-1584.69,0.3400048100728519
0,-1945.29,-494.61,-1273.08,-1584.52,0.345004880809217
0,-1951.79,-504.06,-1279.62,-1587.83,0.35000495154558564
0,-1942.61,-492.33,-1268.41,-1587.54,0.35500502228195074
0,-1937.03,-490.35,-1265.92,-1581.04,0.36000509301831585
0,-1931.43,-484.77,-1261.77,-1569.31,0.36500516375468095
0,-1935.62,-485.66,-1262.72,-1576.07,0.37000523449104605
0,-1929.9,-478.57,-1258.85,-1574.59,0.37500530522741116
0,-1921.99,-471.3,-1250.25,-1564.47,0.38000537596377626
0,-1925.98,-474.98,-1255.97,-1566.03,0.38500544670014136
0,-1927.29,-463.0,-1249.78,-1571.03,0.39000551743650647
0,-1918.14,-464.82,-1243.14,-1567.26,0.3950055881728751
0,-1917.59,-468.49,-1245.45,-1561.4,0.4000056589092402
0,-1910.75,-463.37,-1241.66,-1561.45,0.40500572964560533
0,-1927.77,-475.04,-1252.02,-1563.94,0.41000580038197043
0,-1930.79,-465.43,-1251.09,-1563.01,0.41500587111833553
0,-1922.88,-470.87,-1243.48,-1560.85,0.42000594185470064
0,-1910.29,-466.07,-1243.42,-1555.59,0.42500601259106574
0,-1917.49,-459.2,-1233.42,-1550.34,0.43000608332743084
0,-1936.22,-473.33,-1262.02,-1577.02,0.43500615406379595
0,-1930.39,-474.29,-1259.83,-1575.14,0.4400062248001646
0,-1924.81,-468.77,-1251.92,-1562.95,0.4450062955365297
0,-1931.91,-476.85,-1259.78,-1575.72,0.4500063662728948
0,-1936.94,-481.22,-1267.38,-1584.85,0.4550064370092599
0,-1939.84,-492.77,-1271.78,-1581.31,0.460006507745625
0,-1940.7,-489.21,-1262.74,-1574.27,0.4650065784819901
0,-1945.46,-479.45,-1266.18,-1575.55,0.4700066492183552
0,-1947.79,-493.17,-1271.87,-1584.34,0.4750067199547203
0,-1944.0,-487.2,-1268.8,-1582.78,0.4800067906910854
0,-1931.16,-478.34,-1259.27,-1575.27,0.48500686142745053
0,-1939.77,-477.64,-1265.27,-1585.49,0.49000693216381563
0,-1942.71,-477.01,-1275.94,-1600.53,0.49500700290018074
0,-1944.27,-485.62,-1271.15,-1596.52,0.5000070736365458
0,-1944.37,-487.33,-1272.88,-1589.67,0.505007144372918
0,-1944.55,-488.05,-1266.45,-1582.81,0.5100072151092832
0,-1932.53,-483.91,-1266.95,-1581.0,0.5150072858456483
0,-1937.65,-490.48,-1268.63,-1581.01,0.5200073565820134
0,-1941.26,-495.6,-1264.13,-1579.89,0.5250074273183785
0,-1940.97,-497.09,-1272.97,-1584.43,0.5300074980547436
0,-1950.63,-494.17,-1273.02,-1586.46,0.5350075687911087
0,-1956.11,-503.78,-1285.85,-1595.31,0.5400076395274738
0,-1955.98,-495.42,-1283.73,-1594.15,0.5450077102638389
0,-1952.09,-488.57,-1279.77,-1590.91,0.550007781000204
0,-1942.04,-485.56,-1269.86,-1581.74,0.5550078517365691
0,-1927.83,-475.61,-1249.86,-1558.88,0.5600079224729342
0,-1925.45,-474.88,-1248.53,-1556.75,0.5650079932092993
0,-1919.12,-473.44,-1242.56,-1554.82,0.5700080639456644
0,-1905.27,-457.75,-1238.76,-1541.42,0.5750081346820295
0,-1900.16,-457.88,-1230.32,-1548.16,0.5800082054183946
0,-1908.6,-467.19,-1242.24,-1557.08,0.5850082761547597
0,-1930.38,-477.24,-1256.48,-1567.61,0.5900083468911248
0,-1938.63,-478.65,-1258.77,-1563.18,0.595008417627497
0,-1931.05,-464.61,-1261.0,-1563.9,0.6000084883638621
0,-1933.41,-467.45,-1255.81,-1558.42,0.6050085591002272
0,-1915.0,-470.89,-1243.75,-1554.57,0.6100086298365923
0,-1920.24,-473.24,-1246.93,-1556.08,0.6150087005729574
0,-1912.37,-463.85,-1241.84,-1554.54,0.6200087713093225
0,-1911.09,-465.36,-1241.91,-1556.36,0.6250088420456876
0,-1912.16,-466.92,-1244.36,-1563.11,0.6300089127820527
0,-1918.01,-461.71,-1244.41,-1560.57,0.6350089835184178
0,-1914.39,-459.84,-1239.21,-1553.45,0.6400090542547829
0,-1908.87,-459.86,-1239.0,-1550.14,0.645009124991148
0,-1915.01,-460.99,-1240.7,-1550.45,0.6500091957275131
0,-1916.23,-470.11,-1241.13,-1556.45,0.6550092664638782
0,-1914.37,-470.93,-1247.23,-1558.91,0.6600093372002434
0,-1914.41,-467.7,-1244.48,-1559.52,0.6650094079366085
0,-1916.08,-468.84,-1246.63,-1563.13,0.6700094786729736
0,-1923.08,-477.16,-1250.41,-1568.17,0.6750095494093387
0,-1924.66,-475.5,-1253.73,-1575.33,0.6800096201457038
0,-1933.44,-482.07,-1260.53,-1584.15,0.685009690882076
0,-1936.94,-477.26,-1268.18,-1580.19,0.6900097616184411
0,-1932.23,-484.86,-1265.37,-1580.23,0.6950098323548062
0,-1935.67,-489.78,-1269.7,-1578.81,0.7000099030911713
0,-1934.12,-490.65,-1265.92,-1578.39,0.7050099738275364
0,-1940.82,-488.74,-1274.61,-1583.92,0.7100100445639015
0,-1946.3,-493.38,-1275.71,-1591.67,0.7150101153002666
0,-1949.65,-492.65,-1274.99,-1590.74,0.7200101860366317
0,-1942.8,-484.11,-1274.58,-1585.73,0.7250102567729968
0,-1938.68,-488.79,-1269.65,-1583.52,0.7300103275093619
0,-1937.45,-480.75,-1264.47,-1580.13,0.735010398245727
0,-1928.56,-482.81,-1259.28,-1574.98,0.7400104689820921
0,-1930.79,-480.8,-1257.57,-1569.17,0.7450105397184572
0,-1924.99,-472.76,-1255.22,-1570.52,0.7500106104548223
0,-1923.15,-473.7,-1250.09,-1565.36,0.7550106811911874
0,-1923.27,-476.92,-1255.08,-1568.22,0.7600107519275525
0,-1938.78,-486.64,-1261.06,-1572.35,0.7650108226639176
0,-1936.06,-480.61,-1261.78,-1578.62,0.7700108934002827
0,-1930.8,-478.9,-1256.5,-1573.34,0.7750109641366549
0,-1926.94,-477.83,-1258.71,-1574.68,0.78001103487302
0,-1925.06,-473.21,-1252.63,-1568.3,0.7850111056093851
0,-1920.97,-467.46,-1249.81,-1564.21,0.7900111763457502
0,-1927.42,-477.71,-1256.9,-1566.69,0.7950112470821153
0,-1932.14,-483.89,-1259.72,-1567.22,0.8000113178184804
0,-1932.68,-484.26,-1261.49,-1571.54,0.8050113885548456
0,-1927.54,-483.33,-1260.42,-1570.1,0.8100114592912107
0,-1916.84,-474.19,-1248.69,-1572.33,0.8150115300275758
0,-1936.61,-482.98,-1254.9,-1574.26,0.8200116007639409
0,-1930.21,-470.74,-1240.93,-1561.53,0.825011671500306
0,-1930.29,-477.9,-1252.84,-1570.04,0.8300117422366711
0,-1931.39,-474.03,-1252.09,-1562.0,0.8350118129730362
0,-1916.51,-466.32,-1244.25,-1558.56,0.8400118837094013
0,-1900.96,-456.48,-1236.9,-1558.75,0.8450119544457664
0,-1914.24,-457.79,-1241.64,-1566.22,0.8500120251821315
0,-1906.32,-448.29,-1232.43,-1571.31,0.8550120959184966
0,-1889.01,-430.67,-1218.64,-1561.34,0.8600121666548617
0,-1875.4,-420.17,-1203.68,-1551.51,0.8650122373912339
0,-1875.2,-420.96,-1209.65,-1555.82,0.870012308127599
0,-1870.83,-416.12,-1202.24,-1551.7,0.8750123788639641
0,-1856.7,-406.96,-1191.8,-1544.69,0.8800124496003292
0,-1863.86,-404.89,-1194.29,-1548.49,0.8850125203366943
0,-1874.34,-405.72,-1200.41,-1545.94,0.8900125910730594
0,-1869.68,-397.12,-1195.27,-1541.08,0.8950126618094245
0,-1867.08,-412.35,-1205.06,-1546.94,0.9000127325457896
0,-1875.0,-419.92,-1217.49,-1559.1,0.9050128032821547
0,-1888.05,-424.33,-1213.46,-1553.54,0.9100128740185198
0,-1899.43,-433.6,-1220.34,-1556.02,0.9150129447548849
0,-1884.7,-424.67,-1211.34,-1540.43,0.92001301549125
0,-1875.74,-435.36,-1218.12,-1547.58,0.9250130862276151
0,-1896.91,-443.67,-1229.71,-1559.36,0.9300131569639802
0,-1921.26,-462.61,-1247.27,-1569.64,0.9350132277003453
0,-1918.28,-459.37,-1242.13,-1568.42,0.9400132984367104
0,-1931.53,-468.74,-1255.37,-1570.29,0.9450133691730755
0,-1945.07,-477.13,-1262.52,-1573.08,0.9500134399094478
0,-1941.07,-484.0,-1264.17,-1569.12,0.9550135106458129
0,-1930.31,-479.77,-1252.04,-1554.68,0.960013581382178
0,-1935.19,-479.29,-1258.18,-1563.7,0.9650136521185431
0,-1938.35,-476.91,-1261.25,-1571.08,0.9700137228549082
0,-1925.22,-472.71,-1250.96,-1566.52,0.9750137935912733
0,-1933.25,-479.93,-1261.22,-1570.44,0.9800138643276384
0,-1932.23,-478.65,-1257.99,-1566.37,0.9850139350640035
0,-1935.73,-483.35,-1263.71,-1572.62,0.9900140058003686
0,-1944.3,-497.69,-1273.27,-1576.14,0.9950140765367337
0,-1947.99,-498.64,-1271.54,-1574.69,1.0000141472730988
0,-1949.97,-503.76,-1273.23,-1574.76,1.0050142180094639
0,-1955.4,-503.97,-1278.74,-1580.6,1.010014288745829
0,-1953.43,-502.35,-1276.75,-1575.62,1.015014359482194
0,-1945.65,-491.01,-1268.23,-1565.45,1.0200144302185592
0,-1953.06,-491.96,-1267.51,-1564.16,1.0250145009549243
0,-1964.63,-506.92,-1285.78,-1576.0,1.0300145716912894
0,-1968.5,-510.01,-1294.13,-1587.49,1.0350146424276545
0,-1959.32,-498.6,-1287.01,-1583.18,1.0400147131640267
0,-1952.78,-487.73,-1277.27,-1580.92,1.0450147839003918
0,-1944.14,-504.08,-1278.33,-1577.98,1.050014854636757
0,-1947.03,-505.56,-1276.72,-1577.01,1.055014925373122
0,-1948.43,-506.59,-1276.62,-1573.7,1.0600149961094871
0,-1961.38,-503.9,-1282.51,-1579.76,1.0650150668458522
0,-1947.35,-495.57,-1278.12,-1576.26,1.0700151375822173
0,-1947.33,-496.14,-1274.71,-1576.64,1.0750152083185824
0,-1943.37,-492.6,-1266.95,-1574.72,1.0800152790549475
0,-1949.62,-496.85,-1274.51,-1581.02,1.0850153497913126
0,-1939.61,-497.22,-1273.32,-1582.24,1.0900154205276777
0,-1943.32,-493.86,-1272.29,-1575.11,1.0950154912640429
0,-1949.58,-502.19,-1277.91,-1582.2,1.100015562000408
0,-1947.49,-502.64,-1274.97,-1577.05,1.105015632736773
0,-1936.65,-491.46,-1265.3,-1570.91,1.1100157034731382
0,-1942.41,-491.93,-1272.05,-1579.51,1.1150157742095033
0,-1941.08,-489.24,-1270.11,-1581.15,1.1200158449458684
0,-1945.32,-489.38,-1276.2,-1584.17,1.1250159156822335
0,-1942.98,-490.92,-1272.97,-1585.07,1.1300159864186057
0,-1942.63,-491.69,-1276.98,-1584.72,1.1350160571549708
0,-1938.66,-492.82,-1266.52,-1573.39,1.1400161278913359
0,-1940.48,-498.94,-1271.09,-1574.37,1.145016198627701
0,-1946.86,-502.05,-1278.64,-1576.65,1.150016269364066
0,-1943.49,-486.9,-1269.81,-1583.41,1.1550163401004312
0,-1937.53,-491.52,-1269.08,-1581.72,1.1600164108367963
0,-1936.06,-488.75,-1266.61,-1579.18,1.1650164815731614
0,-1932.85,-487.23,-1262.71,-1572.79,1.1700165523095265
0,-1938.4,-490.41,-1261.08,-1574.14,1.1750166230458916
0,-1939.61,-483.82,-1261.73,-1569.91,1.1800166937822567
0,-1942.02,-485.4,-1263.64,-1572.35,1.1850167645186218
0,-1939.15,-479.95,-1261.96,-1577.13,1.190016835254987
0,-1932.55,-479.28,-1265.28,-1579.88,1.195016905991352
0,-1935.45,-488.25,-1265.99,-1585.85,1.2000169767277171
0,-1939.31,-478.39,-1261.72,-1580.06,1.2050170474640822
0,-1936.41,-484.59,-1261.96,-1577.35,1.2100171182004473
0,-1938.08,-484.12,-1257.87,-1564.92,1.2150171889368124
0,-1937.99,-485.85,-1259.73,-1571.15,1.2200172596731846
0,-1941.7,-483.36,-1263.43,-1579.21,1.2250173304095497
0,-1938.27,-482.07,-1266.42,-1576.24,1.2300174011459148
0,-1931.39,-487.34,-1258.04,-1567.08,1.23501747188228
0,-1934.3,-487.88,-1263.24,-1571.38,1.240017542618645
0,-1931.68,-484.03,-1264.39,-1565.5,1.2450176133550102
0,-1923.53,-479.22,-1256.83,-1567.0,1.2500176840913753
0,-1920.22,-463.24,-1256.85,-1554.84,1.2550177548277404
0,-1929.12,-472.32,-1255.62,-1564.52,1.2600178255641055
0,-1929.38,-479.42,-1253.37,-1572.24,1.2650178963004706
0,-1934.83,-482.55,-1264.98,-1577.04,1.2700179670368357
0,-1925.72,-476.14,-1257.62,-1570.2,1.2750180377732008
0,-1917.93,-463.83,-1241.53,-1562.98,1.2800181085095659
0,-1918.63,-467.47,-1247.48,-1563.1,1.285018179245931
0,-1930.43,-478.07,-1257.24,-1569.08,1.290018249982296
0,-1935.67,-493.04,-1269.75,-1581.18,1.2950183207186612
0,-1930.7,-479.43,-1261.43,-1567.26,1.3000183914550263
0,-1933.69,-487.58,-1266.38,-1569.67,1.3050184621913914
0,-1936.34,-485.15,-1264.59,-1573.13,1.3100185329277636
0,-1943.5,-484.05,-1267.99,-1577.13,1.3150186036641287
0,-1939.21,-483.35,-1264.3,-1575.12,1.3200186744004938
0,-1936.06,-471.53,-1260.12,-1572.98,1.325018745136859
0,-1935.6,-471.85,-1265.67,-1575.82,1.330018815873224
0,-1928.56,-476.76,-1258.47,-1570.05,1.3350188866095891
0,-1930.81,-477.75,-1259.78,-1574.35,1.3400189573459542
0,-1929.64,-481.02,-1256.56,-1573.68,1.3450190280823193
0,-1928.8,-479.64,-1258.38,-1569.28,1.3500190988186844
0,-1912.33,-469.05,-1240.51,-1555.56,1.3550191695550495
0,-1919.14,-469.97,-1248.6,-1563.12,1.3600192402914146
0,-1929.08,-474.5,-1253.28,-1564.82,1.3650193110277797
0,-1916.01,-470.36,-1244.09,-1563.47,1.3700193817641448
0,-1927.46,-479.07,-1255.48,-1574.61,1.37501945250051
0,-1925.4,-476.31,-1252.37,-1569.82,1.380019523236875
0,-1928.82,-484.93,-1257.92,-1570.9,1.3850195939732401
0,-1920.33,-471.83,-1247.24,-1565.0,1.3900196647096053
0,-1913.75,-462.9,-1237.66,-1555.45,1.3950197354459704
0,-1909.87,-464.25,-1243.84,-1562.52,1.4000198061823426
0,-1916.52,-471.25,-1246.84,-1560.73,1.4050198769187077
0,-1935.96,-477.3,-1259.22,-1570.97,1.4100199476550728
0,-1937.42,-472.07,-1259.64,-1571.26,1.4150200183914379
0,-1937.45,-477.46,-1264.08,-1569.97,1.420020089127803
0,-1931.74,-471.39,-1259.72,-1565.82,1.425020159864168
0,-1931.94,-464.93,-1255.58,-1565.07,1.4300202306005332
0,-1931.42,-471.41,-1250.83,-1559.99,1.4350203013368983
0,-1933.32,-473.71,-1258.2,-1563.16,1.4400203720732634
0,-1933.2,-474.01,-1256.0,-1572.85,1.4450204428096285
0,-1931.51,-482.77,-1266.08,-1574.19,1.4500205135459936
0,-1937.36,-483.31,-1266.21,-1579.28,1.4550205842823587
0,-1934.42,-476.15,-1258.42,-1569.29,1.4600206550187238
0,-1936.71,-476.95,-1261.14,-1571.89,1.465020725755089
0,-1929.7,-478.5,-1257.03,-1567.35,1.470020796491454
0,-1929.38,-483.62,-1259.05,-1570.31,1.475020867227819
0,-1941.18,-481.56,-1262.6,-1572.11,1.4800209379641842
0,-1925.58,-466.26,-1252.16,-1566.78,1.4850210087005493
0,-1925.04,-477.88,-1257.23,-1572.88,1.4900210794369215
0,-1920.17,-475.85,-1255.01,-1569.26,1.4950211501732866
0,-1935.06,-476.55,-1260.68,-1573.47,1.5000212209096517
0,-1935.52,-481.68,-1267.12,-1572.46,1.5050212916460168
0,-1927.87,-478.37,-1255.54,-1574.6,1.510021362382382
0,-1931.58,-477.4,-1257.17,-1574.61,1.515021433118747
0,-1937.54,-483.35,-1264.29,-1580.38,1.5200215038551121
0,-1933.93,-474.98,-1261.13,-1577.34,1.5250215745914772
0,-1937.07,-481.87,-1261.63,-1581.72,1.5300216453278424
0,-1941.83,-487.18,-1269.88,-1577.17,1.5350217160642075
0,-1930.99,-481.55,-1257.01,-1558.54,1.5400217868005726
0,-1926.49,-481.93,-1258.23,-1561.92,1.5450218575369377
0,-1932.17,-484.77,-1260.31,-1572.4,1.5500219282733028
0,-1928.95,-480.43,-1260.3,-1571.05,1.5550219990096679
0,-1922.3,-472.24,-1253.46,-1567.29,1.560022069746033
0,-1932.54,-476.9,-1258.03,-1572.15,1.565022140482398
0,-1918.05,-471.59,-1251.66,-1566.54,1.5700222112187632
0,-1924.37,-473.71,-1250.42,-1568.29,1.5750222819551354
0,-1935.29,-478.8,-1255.35,-1567.14,1.5800223526915005
0,-1926.74,-477.27,-1257.69,-1563.21,1.5850224234278656
0,-1922.97,-477.06,-1254.11,-1563.37,1.5900224941642307
0,-1926.16,-473.8,-1253.48,-1569.9,1.5950225649005958
0,-1926.7,-478.69,-1256.03,-1577.58,1.600022635636961
0,-1931.13,-476.4,-1257.33,-1578.57,1.605022706373326
0,-1929.2,-479.01,-1260.53,-1575.54,1.610022777109691
0,-1932.95,-468.23,-1258.42,-1572.96,1.6150228478460562
0,-1933.54,-475.48,-1252.47,-1571.77,1.6200229185824213
0,-1923.61,-465.75,-1242.78,-1564.3,1.6250229893187864
0,-1922.53,-466.25,-1246.19,-1560.66,1.6300230600551515
0,-1926.18,-469.95,-1259.73,-1562.11,1.6350231307915166
0,-1931.52,-475.17,-1256.6,-1561.47,1.6400232015278817
0,-1930.99,-483.26,-1258.05,-1569.29,1.6450232722642468
0,-1934.64,-470.65,-1255.16,-1572.78,1.650023343000612
0,-1929.09,-467.63,-1253.64,-1567.34,1.655023413736977
0,-1925.65,-463.82,-1256.55,-1568.64,1.6600234844733421
0,-1925.48,-467.89,-1250.24,-1566.38,1.6650235552097143
0,-1919.05,-468.26,-1251.2,-1569.43,1.6700236259460794
0,-1918.54,-462.22,-1241.7,-1557.75,1.6750236966824446
0,-1925.67,-477.03,-1255.57,-1571.95,1.6800237674188097
0,-1924.76,-475.11,-1257.71,-1573.14,1.6850238381551748
0,-1935.21,-485.49,-1269.69,-1582.46,1.6900239088915399
0,-1927.54,-485.31,-1260.58,-1583.24,1.695023979627905
0,-1928.96,-483.97,-1260.3,-1576.71,1.70002405036427
0,-1931.79,-485.8,-1264.38,-1577.98,1.7050241211006352
0,-1928.84,-475.2,-1256.96,-1565.69,1.7100241918370003
0,-1932.75,-478.69,-1255.76,-1567.16,1.7150242625733654
0,-1934.57,-486.85,-1256.04,-1573.15,1.7200243333097305
0,-1928.03,-476.0,-1258.1,-1576.85,1.7250244040460956
0,-1936.29,-480.44,-1265.21,-1578.15,1.7300244747824607
0,-1942.58,-495.91,-1266.54,-1581.87,1.7350245455188258
0,-1932.88,-484.88,-1263.48,-1575.73,1.740024616255191
0,-1925.77,-486.78,-1262.52,-1576.4,1.745024686991556
0,-1927.67,-480.5,-1262.36,-1574.62,1.750024757727921
0,-1933.08,-478.21,-1263.47,-1574.04,1.7550248284642933
0,-1929.37,-488.95,-1257.98,-1573.86,1.7600248992006584
0,-1931.52,-486.79,-1258.38,-1576.29,1.7650249699370235
0,-1924.09,-479.99,-1257.04,-1573.88,1.7700250406733886
0,-1929.0,-481.28,-1257.06,-1569.65,1.7750251114097537
0,-1935.01,-479.76,-1264.64,-1577.78,1.7800251821461188
0,-1931.77,-482.89,-1261.93,-1572.79,1.785025252882484
0,-1928.95,-484.67,-1259.98,-1568.76,1.790025323618849
0,-1917.98,-471.03,-1250.9,-1558.84,1.7950253943552141
0,-1920.74,-470.08,-1249.23,-1556.61,1.8000254650915792
0,-1915.76,-465.21,-1250.44,-1561.61,1.8050255358279443
0,-1922.06,-468.92,-1255.04,-1572.12,1.8100256065643094
0,-1920.08,-474.57,-1250.28,-1569.15,1.8150256773006745
0,-1912.29,-469.59,-1247.96,-1559.89,1.8200257480370396
0,-1916.31,-469.94,-1246.44,-1557.98,1.8250258187734048
0,-1914.97,-460.9,-1242.57,-1556.29,1.8300258895097699
0,-1916.38,-472.29,-1244.2,-1559.75,1.835025960246135
0,-1906.47,-454.84,-1238.86,-1555.98,1.8400260309825
0,-1913.21,-471.81,-1248.78,-1567.0,1.8450261017188723
0,-1917.71,-474.38,-1249.09,-1565.94,1.8500261724552374
0,-1924.31,-481.09,-1256.0,-1566.19,1.8550262431916025
0,-1931.96,-482.47,-1262.31,-1574.08,1.8600263139279676
0,-1940.47,-486.99,-1264.36,-1570.39,1.8650263846643327
0,-1933.63,-482.93,-1263.85,-1568.09,1.8700264554006978
0,-1940.52,-485.04,-1265.97,-1573.17,1.8750265261370629
0,-1939.05,-487.42,-1267.96,-1575.19,1.880026596873428
0,-1934.56,-484.22,-1262.9,-1577.87,1.885026667609793
0,-1939.21,-485.26,-1271.28,-1578.04,1.8900267383461582
0,-1939.61,-480.57,-1271.02,-1579.37,1.8950268090825233
0,-1934.03,-477.93,-1259.86,-1576.2,1.9000268798188884
0,-1928.09,-469.62,-1258.27,-1568.93,1.9050269505552535
0,-1927.62,-473.77,-1254.26,-1573.56,1.9100270212916186
0,-1931.62,-474.54,-1257.23,-1579.55,1.9150270920279837
0,-1929.06,-474.8,-1257.83,-1577.41,1.9200271627643488
0,-1938.57,-478.5,-1268.24,-1586.86,1.925027233500714
0,-1938.08,-483.19,-1265.04,-1587.72,1.930027304237079
0,-1929.63,-481.5,-1257.02,-1582.33,1.9350273749734512
0,-1932.07,-475.77,-1256.85,-1579.68,1.9400274457098163
0,-1924.58,-470.78,-1254.35,-1569.19,1.9450275164461814
0,-1932.55,-484.12,-1261.41,-1581.33,1.9500275871825465
0,-1935.97,-475.96,-1259.46,-1578.15,1.9550276579189116
0,-1931.43,-479.32,-1260.72,-1580.37,1.9600277286552767
0,-1927.33,-481.15,-1260.55,-1574.31,1.9650277993916418
0,-1930.21,-486.8,-1267.9,-1579.83,1.970027870128007
0,-1931.98,-485.05,-1263.44,-1576.89,1.975027940864372
0,-1924.29,-476.6,-1260.37,-1573.19,1.9800280116007372
0,-1928.48,-482.61,-1258.75,-1572.48,1.9850280823371023
0,-1935.79,-485.84,-1264.11,-1579.65,1.9900281530734674
0,-1930.68,-486.61,-1261.47,-1575.93,1.9950282238098325
0,-1935.48,-483.82,-1262.5,-1576.82,2.0000282945461976
0,-1933.65,-475.62,-1267.48,-1578.76,2.0050283652825627
0,-1932.93,-476.26,-1265.11,-1583.75,2.0100284360189278
0,-1931.07,-480.82,-1257.88,-1578.88,2.015028506755293
0,-1939.27,-477.67,-1263.04,-1572.83,2.020028577491658
0,-1933.42,-478.34,-1263.73,-1569.86,2.02502864822803
0,-1934.34,-477.63,-1255.78,-1570.1,2.0300287189643953
0,-1938.95,-484.3,-1261.98,-1583.77,2.0350287897007604
0,-1933.9,-479.39,-1258.58,-1575.31,2.0400288604371255
0,-1925.76,-464.49,-1250.24,-1571.11,2.0450289311734906
0,-1925.7,-474.07,-1248.4,-1571.55,2.0500290019098557
0,-1933.6,-483.89,-1263.32,-1575.34,2.055029072646221
0,-1931.61,-478.55,-1260.72,-1569.65,2.060029143382586
0,-1930.42,-475.82,-1258.75,-1575.37,2.065029214118951
0,-1926.25,-474.15,-1256.15,-1572.56,2.070029284855316
0,-1924.44,-476.45,-1256.37,-1575.28,2.0750293555916812
0,-1926.39,-478.94,-1259.22,-1574.31,2.0800294263280463
0,-1933.54,-480.17,-1259.01,-1575.57,2.0850294970644114
0,-1931.05,-486.48,-1264.46,-1574.28,2.0900295678007765
0,-1928.79,-480.2,-1255.08,-1564.77,2.0950296385371416
0,-1934.65,-486.27,-1256.71,-1567.52,2.1000297092735067
0,-1928.8,-474.99,-1257.01,-1561.72,2.105029780009872
0,-1923.46,-466.14,-1247.55,-1560.14,2.110029850746237
0,-1924.33,-471.98,-1250.06,-1566.28,2.115029921482609
0,-1930.24,-469.52,-1251.66,-1565.73,2.1200299922189743
0,-1921.6,-465.07,-1248.09,-1563.36,2.1250300629553394
0,-1929.91,-474.53,-1257.31,-1573.16,2.1300301336917045
0,-1940.63,-485.44,-1264.75,-1579.85,2.1350302044280696
0,-1939.66,-483.77,-1271.18,-1577.69,2.1400302751644347
0,-1945.15,-487.19,-1273.4,-1585.02,2.1450303459007998
0,-1945.36,-487.05,-1266.13,-1578.67,2.150030416637165
0,-1935.34,-475.23,-1259.49,-1569.4,2.15503048737353
0,-1927.58,-460.97,-1248.02,-1559.3,2.160030558109895
0,-1924.64,-464.53,-1249.55,-1564.35,2.16503062884626
0,-1921.75,-472.86,-1252.85,-1564.74,2.1700306995826253
0,-1925.09,-471.09,-1253.22,-1573.12,2.1750307703189904
0,-1921.59,-472.35,-1256.87,-1572.76,2.1800308410553555
0,-1923.73,-475.78,-1257.8,-1570.35,2.1850309117917206
0,-1924.4,-469.96,-1255.27,-1559.87,2.1900309825280857
0,-1918.4,-469.7,-1251.94,-1557.07,2.195031053264451
0,-1920.66,-473.91,-1251.35,-1567.42,2.200031124000816
0,-1927.82,-479.39,-1259.35,-1576.95,2.205031194737188
0,-1922.92,-470.57,-1252.91,-1569.98,2.210031265473553
0,-1920.8,-474.68,-1249.04,-1564.73,2.2150313362099183
0,-1929.14,-467.94,-1249.66,-1563.3,2.2200314069462834
0,-1922.33,-467.41,-1252.89,-1561.96,2.2250314776826485
0,-1916.98,-468.91,-1246.74,-1558.1,2.2300315484190136
0,-1926.02,-471.89,-1248.16,-1563.26,2.2350316191553787
0,-1932.13,-476.57,-1261.21,-1574.22,2.240031689891744
0,-1931.86,-483.06,-1262.73,-1574.04,2.245031760628109
0,-1941.52,-487.16,-1270.27,-1575.63,2.250031831364474
0,-1933.13,-480.01,-1259.44,-1566.59,2.255031902100839
0,-1925.47,-471.81,-1253.34,-1562.13,2.2600319728372043
0,-1922.13,-473.85,-1256.62,-1564.3,2.2650320435735694
0,-1927.14,-478.24,-1259.49,-1573.65,2.2700321143099345
0,-1918.19,-479.56,-1252.67,-1570.16,2.2750321850462996
0,-1920.6,-474.43,-1252.99,-1570.94,2.2800322557826647
0,-1929.21,-485.34,-1261.53,-1570.28,2.2850323265190298
0,-1939.31,-492.85,-1270.41,-1571.47,2.290032397255402
0,-1928.8,-477.7,-1256.79,-1563.62,2.295032467991767
0,-1932.07,-477.96,-1257.38,-1572.98,2.300032538728132
0,-1925.78,-473.45,-1257.09,-1565.01,2.3050326094644973
0,-1921.7,-469.93,-1251.27,-1566.13,2.3100326802008624
0,-1925.19,-474.18,-1250.14,-1563.43,2.3150327509372275
0,-1926.46,-474.3,-1258.54,-1565.82,2.3200328216735926
0,-1930.93,-479.2,-1259.91,-1569.39,2.3250328924099577
0,-1927.47,-473.65,-1259.05,-1575.4,2.330032963146323
0,-1929.98,-474.14,-1256.37,-1571.72,2.335033033882688
0,-1928.48,-477.81,-1256.38,-1573.42,2.340033104619053
0,-1928.8,-477.27,-1254.86,-1568.68,2.345033175355418
0,-1926.79,-469.13,-1245.01,-1565.25,2.350033246091783
0,-1922.69,-466.23,-1240.76,-1566.29,2.3550333168281483
0,-1923.05,-464.79,-1247.27,-1568.61,2.3600333875645134
0,-1916.99,-468.02,-1250.82,-1569.59,2.3650334583008785
0,-1922.53,-478.62,-1254.12,-1566.16,2.3700335290372436
0,-1924.89,-469.55,-1250.13,-1568.05,2.3750335997736087
0,-1933.67,-478.58,-1263.13,-1565.41,2.380033670509981
0,-1933.01,-481.64,-1259.85,-1566.3,2.385033741246346
0,-1929.65,-477.82,-1259.19,-1563.58,2.390033811982711
0,-1937.4,-487.3,-1265.28,-1581.02,2.3950338827190762
0,-1943.78,-487.57,-1273.28,-1582.75,2.4000339534554413
0,-1928.05,-481.58,-1257.97,-1574.52,2.4050340241918065
0,-1923.93,-469.16,-1253.46,-1568.53,2.4100340949281716
0,-1928.52,-468.63,-1255.36,-1567.06,2.4150341656645367
0,-1926.67,-476.5,-1254.96,-1566.19,2.4200342364009018
0,-1926.02,-473.7,-1254.59,-1571.77,2.425034307137267
0,-1930.04,-483.69,-1262.32,-1579.19,2.430034377873632
0,-1929.95,-472.47,-1253.79,-1569.09,2.435034448609997
0,-1937.82,-480.69,-1263.06,-1571.94,2.440034519346362
0,-1929.77,-477.15,-1256.53,-1565.63,2.4450345900827273
0,-1922.86,-467.76,-1249.41,-1554.53,2.4500346608190924
0,-1925.64,-474.89,-1251.9,-1561.56,2.4550347315554575
0,-1924.99,-478.86,-1253.52,-1559.39,2.4600348022918226
0,-1927.18,-480.44,-1257.35,-1563.59,2.4650348730281877
0,-1929.77,-473.69,-1258.87,-1566.27,2.47003494376456
0,-1935.13,-481.54,-1261.73,-1571.6,2.475035014500925
0,-1927.19,-477.6,-1255.97,-1563.01,2.48003508523729
0,-1930.89,-486.65,-1256.67,-1565.39,2.485035155973655
0,-1941.76,-486.77,-1267.78,-1573.57,2.4900352267100203
0,-1932.72,-475.1,-1260.1,-1564.04,2.4950352974463854
0,-1931.04,-470.84,-1258.36,-1567.84,2.5000353681827505
0,-1934.86,-473.22,-1255.41,-1568.5,2.5050354389191156
0,-1935.89,-471.08,-1261.38,-1572.86,2.5100355096554807
0,-1933.97,-476.95,-1263.64,-1575.7,2.515035580391846
0,-1929.93,-472.69,-1256.14,-1564.49,2.520035651128211
0,-1935.56,-477.41,-1256.47,-1566.23,2.525035721864576
0,-1935.4,-478.94,-1260.79,-1567.63,2.530035792600941
0,-1929.9,-476.6,-1258.62,-1570.06,2.5350358633373062
0,-1936.51,-473.18,-1264.12,-1572.78,2.5400359340736713
0,-1921.79,-461.6,-1247.19,-1567.16,2.5450360048100364
0,-1919.09,-461.71,-1249.5,-1564.91,2.5500360755464015
0,-1923.83,-470.92,-1247.61,-1566.33,2.5550361462827667
0,-1930.89,-476.24,-1265.07,-1565.64,2.560036217019139
0,-1930.45,-484.73,-1262.97,-1570.86,2.565036287755504
0,-1932.06,-484.79,-1263.56,-1570.7,2.570036358491869
0,-1935.16,-483.83,-1260.57,-1569.06,2.575036429228234
0,-1934.76,-484.71,-1264.06,-1568.51,2.5800364999645993
0,-1938.91,-481.04,-1262.98,-1568.96,2.5850365707009644
0,-1938.33,-482.01,-1264.75,-1567.35,2.5900366414373295
0,-1931.71,-482.65,-1261.64,-1568.68,2.5950367121736946
0,-1931.25,-478.56,-1256.68,-1565.27,2.6000367829100597
0,-1934.72,-480.96,-1261.34,-1570.17,2.605036853646425
0,-1935.93,-480.4,-1258.77,-1575.43,2.61003692438279
0,-1922.07,-471.23,-1247.67,-1560.67,2.615036995119155
0,-1919.49,-463.85,-1247.33,-1559.49,2.62003706585552
0,-1910.35,-456.89,-1233.97,-1544.23,2.625037136591885
0,-1921.19,-469.44,-1254.33,-1554.71,2.6300372073282503
0,-1924.37,-472.91,-1254.77,-1562.47,2.6350372780646154
0,-1929.51,-470.82,-1253.77,-1569.44,2.6400373488009805
0,-1939.84,-487.68,-1264.36,-1580.96,2.6450374195373456
0,-1935.59,-491.39,-1267.15,-1578.84,2.650037490273718
0,-1930.87,-491.07,-1264.34,-1577.96,2.655037561010083
0,-1932.18,-481.89,-1258.98,-1575.32,2.660037631746448
0,-1936.84,-483.55,-1260.58,-1577.69,2.665037702482813
0,-1931.1,-481.93,-1257.85,-1578.72,2.6700377732191782
0,-1932.2,-487.54,-1264.19,-1584.32,2.6750378439555433
0,-1943.14,-490.65,-1271.5,-1590.04,2.6800379146919084
0,-1945.63,-495.43,-1271.78,-1585.0,2.6850379854282735
0,-1938.27,-483.36,-1262.08,-1568.59,2.6900380561646386
0,-1935.88,-481.83,-1266.65,-1574.11,2.6950381269010037
0,-1937.83,-483.84,-1264.1,-1573.78,2.700038197637369
0,-1938.0,-490.52,-1269.11,-1579.39,2.705038268373734
0,-1934.23,-490.03,-1269.0,-1578.53,2.710038339110099
0,-1935.39,-483.9,-1266.27,-1575.97,2.715038409846464
0,-1943.78,-488.62,-1273.12,-1582.01,2.7200384805828293
0,-1942.59,-495.09,-1272.01,-1586.48,2.7250385513191944
0,-1936.4,-481.76,-1270.06,-1574.17,2.7300386220555595
0,-1929.26,-475.9,-1256.16,-1564.84,2.7350386927919246
0,-1937.18,-486.63,-1263.9,-1570.26,2.740038763528297
0,-1944.67,-492.05,-1272.53,-1577.48,2.745038834264662
0,-1944.05,-494.82,-1273.27,-1581.05,2.750038905001027
0,-1938.72,-483.13,-1266.18,-1570.46,2.755038975737392
0,-1932.33,-480.16,-1263.03,-1570.08,2.760039046473757
0,-1932.65,-476.32,-1260.25,-1567.87,2.7650391172101223
0,-1926.37,-467.03,-1250.61,-1557.34,2.7700391879464874
0,-1926.41,-470.92,-1253.8,-1563.77,2.7750392586828525
0,-1926.58,-474.21,-1257.73,-1566.33,2.7800393294192176
0,-1921.5,-474.87,-1256.65,-1562.36,2.7850394001555827
0,-1924.38,-475.01,-1254.68,-1568.2,2.790039470891948
0,-1918.0,-464.32,-1248.45,-1564.25,2.795039541628313
0,-1919.01,-469.27,-1252.08,-1566.68,2.800039612364678
0,-1924.07,-466.2,-1252.37,-1574.09,2.805039683101043
0,-1924.66,-465.7,-1249.8,-1574.28,2.8100397538374082
0,-1920.65,-461.33,-1245.59,-1564.37,2.8150398245737733
0,-1925.13,-470.26,-1248.07,-1573.11,2.8200398953101384
0,-1924.3,-477.64,-1252.12,-1570.78,2.8250399660465035
0,-1929.66,-474.59,-1254.0,-1572.59,2.8300400367828757
0,-1926.1,-466.73,-1252.96,-1566.15,2.835040107519241
0,-1928.31,-479.21,-1256.28,-1573.42,2.840040178255606
0,-1927.86,-475.15,-1258.64,-1571.45,2.845040248991971
0,-1928.55,-480.05,-1259.04,-1574.49,2.850040319728336
0,-1929.09,-475.31,-1256.61,-1575.09,2.8550403904647013
0,-1935.67,-475.34,-1260.06,-1582.35,2.8600404612010664
0,-1925.92,-467.03,-1252.67,-1573.66,2.8650405319374315
0,-1929.23,-469.39,-1253.58,-1575.96,2.8700406026737966
0,-1929.9,-477.55,-1258.2,-1579.36,2.8750406734101617
0,-1935.47,-478.9,-1263.17,-1579.12,2.8800407441465268
0,-1936.65,-482.11,-1263.12,-1580.31,2.885040814882892
0,-1936.46,-480.14,-1263.44,-1578.24,2.890040885619257
0,-1934.3,-481.7,-1265.83,-1577.0,2.895040956355622
0,-1934.36,-484.3,-1261.05,-1576.56,2.900041027091987
0,-1924.26,-483.3,-1261.37,-1575.73,2.9050410978283523
0,-1932.28,-490.01,-1264.87,-1580.4,2.9100411685647174
0,-1935.51,-493.23,-1269.21,-1579.38,2.9150412393010896
0,-1938.35,-488.54,-1274.44,-1580.55,2.9200413100374547
0,-1940.04,-486.22,-1275.73,-1578.94,2.92504138077382
0,-1942.05,-482.31,-1270.81,-1577.86,2.930041451510185
0,-1931.22,-479.24,-1258.17,-1567.77,2.93504152224655
0,-1926.55,-469.86,-1256.91,-1568.16,2.940041592982915
0,-1930.21,-478.92,-1261.39,-1569.45,2.9450416637192802
0,-1928.63,-476.74,-1256.03,-1567.12,2.9500417344556453
0,-1926.53,-475.35,-1261.51,-1562.74,2.9550418051920104
0,-1932.11,-478.26,-1260.51,-1567.69,2.9600418759283755
0,-1933.73,-478.53,-1258.37,-1567.03,2.9650419466647406
0,-1932.08,-480.53,-1259.84,-1564.15,2.9700420174011057
0,-1935.96,-481.24,-1266.18,-1573.37,2.975042088137471
0,-1934.9,-474.8,-1259.29,-1571.84,2.980042158873836
0,-1937.9,-483.0,-1264.13,-1575.1,2.985042229610201
0,-1932.98,-479.4,-1259.66,-1565.31,2.990042300346566
0,-1931.53,-479.92,-1256.74,-1566.66,2.9950423710829313
0,-1933.44,-478.97,-1261.58,-1571.02,3.0000424418192964
0,-1933.0,-477.13,-1259.48,-1573.36,3.0050425125556686
0,-1923.44,-476.28,-1251.9,-1568.21,3.0100425832920337
0,-1924.35,-476.74,-1255.85,-1569.03,3.0150426540283988
0,-1918.07,-470.32,-1247.6,-1562.89,3.020042724764764
0,-1913.99,-467.84,-1254.17,-1564.01,3.025042795501129
0,-1924.66,-471.01,-1251.76,-1571.14,3.030042866237494
0,-1922.56,-465.9,-1246.22,-1569.55,3.035042936973859
0,-1922.48,-462.68,-1249.45,-1570.69,3.0400430077102243
0,-1929.17,-471.22,-1250.43,-1572.4,3.0450430784465894
0,-1931.74,-468.69,-1259.14,-1569.18,3.0500431491829545
0,-1927.24,-471.61,-1252.43,-1564.63,3.0550432199193196
0,-1926.43,-479.45,-1259.93,-1571.98,3.0600432906556847
0,-1927.98,-473.85,-1258.56,-1565.23,3.06504336139205
0,-1926.7,-470.81,-1255.79,-1565.9,3.070043432128415
0,-1927.21,-471.93,-1253.91,-1561.96,3.07504350286478
0,-1925.52,-467.81,-1252.53,-1560.59,3.080043573601145
0,-1929.87,-469.39,-1254.45,-1566.2,3.08504364433751
0,-1929.69,-473.98,-1258.23,-1571.07,3.0900437150738753
0,-1925.29,-478.07,-1255.92,-1566.44,3.0950437858102475
0,-1922.95,-473.1,-1247.67,-1562.04,3.1000438565466126
0,-1919.78,-475.76,-1252.32,-1565.21,3.1050439272829777
0,-1927.09,-479.98,-1254.0,-1566.3,3.110043998019343
0,-1924.74,-473.5,-1250.39,-1569.68,3.115044068755708
0,-1926.26,-472.33,-1253.08,-1570.36,3.120044139492073
0,-1928.69,-475.12,-1250.73,-1571.24,3.125044210228438
0,-1927.44,-477.9,-1252.34,-1567.8,3.1300442809648032
0,-1924.99,-470.9,-1249.44,-1560.88,3.1350443517011684
0,-1920.36,-465.47,-1252.73,-1566.66,3.1400444224375335
0,-1917.32,-473.31,-1244.81,-1566.29,3.1450444931738986
0,-1922.96,-472.41,-1252.47,-1571.17,3.1500445639102637
0,-1925.12,-471.61,-1254.21,-1570.82,3.1550446346466288
0,-1930.11,-480.75,-1261.61,-1574.42,3.160044705382994
0,-1929.54,-478.75,-1260.12,-1572.74,3.165044776119359
0,-1932.92,-475.66,-1257.86,-1571.47,3.170044846855724
0,-1934.96,-482.36,-1258.76,-1575.49,3.175044917592089
0,-1927.34,-474.17,-1258.01,-1575.58,3.1800449883284543
0,-1933.28,-487.42,-1266.33,-1586.4,3.1850450590648265
0,-1934.83,-478.1,-1261.35,-1581.03,3.1900451298011916
0,-1934.24,-480.13,-1258.47,-1577.24,3.1950452005375567
0,-1927.29,-473.83,-1250.86,-1574.19,3.200045271273922
0,-1933.37,-477.85,-1259.6,-1578.36,3.205045342010287
0,-1917.63,-463.74,-1244.05,-1557.12,3.210045412746652
0,-1918.07,-460.85,-1244.94,-1557.57,3.215045483483017
0,-1920.38,-466.65,-1248.74,-1565.19,3.220045554219382
0,-1931.41,-472.0,-1256.79,-1570.93,3.2250456249557473
0,-1933.39,-470.6,-1259.37,-1568.27,3.2300456956921124
0,-1935.89,-473.9,-1262.45,-1572.32,3.2350457664284775
0,-1944.53,-486.62,-1269.76,-1582.1,3.2400458371648426
0,-1943.92,-485.73,-1270.35,-1584.06,3.2450459079012077
0,-1943.98,-491.86,-1277.96,-1579.14,3.250045978637573
0,-1941.95,-491.39,-1265.72,-1573.62,3.255046049373938
0,-1941.1,-499.2,-1271.26,-1578.58,3.260046120110303
0,-1938.02,-494.48,-1266.26,-1574.08,3.265046190846668
0,-1927.91,-486.44,-1264.81,-1569.87,3.2700462615830332
0,-1929.44,-481.17,-1255.56,-1573.04,3.2750463323194055
0,-1919.73,-472.1,-1246.65,-1562.32,3.2800464030557706
0,-1922.66,-475.45,-1251.18,-1565.26,3.2850464737921357
0,-1922.22,-475.08,-1253.95,-1565.16,3.2900465445285008
0,-1923.06,-469.96,-1257.19,-1570.67,3.295046615264866
0,-1918.63,-481.97,-1263.99,-1575.36,3.300046686001231
0,-1922.42,-478.64,-1256.71,-1575.34,3.305046756737596
0,-1931.42,-487.97,-1262.17,-1581.64,3.310046827473961
0,-1929.92,-482.38,-1258.16,-1579.75,3.3150468982103263
0,-1935.77,-483.44,-1265.46,-1584.25,3.3200469689466914
0,-1934.84,-481.83,-1266.76,-1581.19,3.3250470396830565
0,-1940.92,-477.83,-1271.29,-1581.47,3.3300471104194216
0,-1947.86,-488.93,-1278.14,-1585.78,3.3350471811557867
0,-1937.12,-485.26,-1271.12,-1576.78,3.340047251892152
0,-1940.36,-488.71,-1263.52,-1576.33,3.345047322628517
0,-1935.2,-484.72,-1266.58,-1571.33,3.350047393364882
0,-1930.4,-473.84,-1256.56,-1559.96,3.355047464101247
0,-1934.34,-478.92,-1256.96,-1567.24,3.360047534837612
0,-1930.55,-477.28,-1260.39,-1564.11,3.3650476055739844
0,-1933.43,-479.67,-1265.31,-1566.13,3.3700476763103495
0,-1929.84,-479.42,-1255.23,-1564.22,3.3750477470467146
0,-1925.97,-475.41,-1248.15,-1564.56,3.3800478177830797
0,-1929.95,-479.51,-1254.73,-1562.56,3.385047888519445
0,-1925.72,-474.54,-1250.05,-1562.64,3.39004795925581
0,-1918.51,-466.82,-1245.69,-1558.61,3.395048029992175
0,-1920.69,-467.43,-1249.01,-1566.26,3.40004810072854
0,-1921.91,-462.98,-1242.34,-1558.75,3.4050481714649052
0,-1924.66,-469.67,-1253.18,-1563.45,3.4100482422012703
0,-1928.4,-467.57,-1251.39,-1567.88,3.4150483129376354
0,-1938.09,-476.76,-1263.1,-1571.31,3.4200483836740005
0,-1936.99,-481.38,-1258.79,-1574.71,3.4250484544103657
0,-1941.69,-483.12,-1262.39,-1577.83,3.4300485251467308
0,-1944.12,-484.97,-1262.9,-1584.88,3.435048595883096
0,-1936.73,-477.79,-1263.18,-1579.36,3.440048666619461
0,-1939.91,-485.46,-1263.18,-1573.81,3.445048737355826
0,-1935.0,-481.22,-1261.8,-1566.51,3.450048808092191
0,-1945.4,-493.89,-1270.92,-1571.93,3.4550488788285634
0,-1942.79,-482.02,-1263.18,-1568.65,3.4600489495649285
0,-1934.93,-481.24,-1255.96,-1564.04,3.4650490203012936
0,-1931.19,-472.06,-1259.68,-1562.29,3.4700490910376587
0,-1923.78,-473.21,-1255.92,-1561.86,3.475049161774024
0,-1930.8,-473.93,-1261.9,-1569.07,3.480049232510389
0,-1926.63,-473.17,-1260.33,-1564.85,3.485049303246754
0,-1915.11,-470.4,-1250.88,-1560.85,3.490049373983119
0,-1923.04,-479.22,-1253.53,-1566.83,3.495049444719484
0,-1928.6,-482.71,-1259.86,-1569.48,3.5000495154558493
0,-1928.08,-479.51,-1257.65,-1569.97,3.5050495861922144
0,-1925.73,-472.52,-1260.54,-1570.74,3.5100496569285795
0,-1925.65,-479.39,-1257.81,-1574.71,3.5150497276649446
0,-1927.81,-480.78,-1259.98,-1578.06,3.5200497984013097
0,-1925.11,-483.03,-1258.27,-1579.1,3.525049869137675
0,-1925.25,-481.12,-1258.4,-1571.64,3.53004993987404
0,-1922.33,-476.47,-1254.83,-1560.33,3.535050010610405
0,-1928.02,-476.11,-1251.51,-1562.3,3.54005008134677
0,-1926.81,-476.67,-1255.32,-1563.1,3.5450501520831423
0,-1932.71,-476.16,-1261.45,-1569.39,3.5500502228195074
0,-1923.65,-477.04,-1249.8,-1562.53,3.5550502935558725
0,-1914.35,-469.64,-1246.71,-1562.02,3.5600503642922376
0,-1921.1,-469.15,-1252.9,-1567.3,3.5650504350286027
0,-1927.39,-478.45,-1254.18,-1573.04,3.570050505764968
0,-1926.33,-470.81,-1254.39,-1567.69,3.575050576501333
0,-1927.76,-474.44,-1256.11,-1562.73,3.580050647237698
0,-1932.31,-478.13,-1257.62,-1565.23,3.585050717974063
0,-1939.14,-481.6,-1261.27,-1575.38,3.5900507887104283
0,-1937.4,-484.29,-1263.42,-1578.3,3.5950508594467934
0,-1931.69,-478.47,-1256.03,-1569.38,3.6000509301831585
0,-1932.45,-473.2,-1258.69,-1567.37,3.6050510009195236
0,-1933.92,-476.52,-1261.13,-1569.7,3.6100510716558887
0,-1934.39,-478.45,-1257.03,-1570.62,3.615051142392254
0,-1947.04,-487.02,-1267.7,-1576.43,3.620051213128619
0,-1936.96,-485.53,-1266.6,-1566.71,3.625051283864984
0,-1947.88,-491.48,-1276.35,-1576.21,3.630051354601356
0,-1949.08,-489.88,-1277.88,-1580.9,3.6350514253377213
0,-1936.25,-487.46,-1268.16,-1568.66,3.6400514960740864
0,-1934.35,-486.6,-1264.06,-1573.11,3.6450515668104515
0,-1924.24,-478.32,-1255.79,-1565.55,3.6500516375468166
0,-1923.77,-471.24,-1257.84,-1564.54,3.6550517082831817
0,-1925.67,-470.21,-1246.91,-1559.91,3.660051779019547
0,-1922.52,-468.36,-1249.64,-1559.16,3.665051849755912
0,-1921.58,-473.78,-1250.76,-1557.07,3.670051920492277
0,-1922.84,-469.6,-1251.24,-1563.49,3.675051991228642
0,-1926.84,-475.35,-1253.06,-1569.58,3.6800520619650072
0,-1924.4,-474.8,-1254.28,-1571.66,3.6850521327013723
0,-1926.69,-472.74,-1252.57,-1572.2,3.6900522034377374
0,-1927.05,-470.27,-1251.28,-1571.5,3.6950522741741025
0,-1920.61,-470.04,-1249.32,-1565.54,3.7000523449104676
0,-1925.44,-476.12,-1255.79,-1568.98,3.7050524156468327
0,-1935.26,-488.64,-1266.38,-1580.52,3.710052486383198
0,-1939.21,-483.57,-1267.98,-1582.03,3.715052557119563
0,-1932.05,-481.26,-1265.01,-1579.79,3.720052627855935
0,-1938.59,-488.19,-1267.45,-1589.33,3.7250526985923003
0,-1934.59,-484.32,-1266.61,-1581.42,3.7300527693286654
0,-1928.56,-477.19,-1260.05,-1579.0,3.7350528400650305
0,-1932.96,-477.99,-1259.15,-1572.93,3.7400529108013956
0,-1937.06,-471.84,-1265.28,-1569.39,3.7450529815377607
0,-1937.69,-482.28,-1258.35,-1562.1,3.7500530522741258
0,-1935.11,-482.36,-1262.3,-1568.89,3.755053123010491
0,-1934.38,-478.18,-1257.77,-1565.18,3.760053193746856
0,-1939.46,-479.92,-1264.94,-1572.17,3.765053264483221
0,-1937.44,-484.55,-1261.09,-1570.37,3.770053335219586
0,-1934.73,-473.52,-1260.84,-1569.52,3.7750534059559513
0,-1941.16,-480.13,-1268.18,-1578.21,3.7800534766923164
0,-1929.77,-471.66,-1260.57,-1566.18,3.7850535474286815
0,-1931.44,-478.17,-1255.19,-1568.75,3.7900536181650466
0,-1928.9,-476.7,-1260.73,-1572.8,3.7950536889014117
0,-1926.18,-480.02,-1266.03,-1572.61,3.800053759637777
0,-1925.9,-472.71,-1257.0,-1568.72,3.805053830374142
0,-1922.96,-472.2,-1250.4,-1559.73,3.810053901110514
0,-1920.1,-473.25,-1249.64,-1564.44,3.815053971846879
0,-1919.07,-471.0,-1248.29,-1564.33,3.8200540425832443
0,-1920.26,-464.37,-1244.84,-1559.54,3.8250541133196094
0,-1913.15,-466.3,-1236.5,-1562.6,3.8300541840559745
0,-1916.03,-466.34,-1242.99,-1559.41,3.8350542547923396
0,-1912.31,-466.04,-1248.1,-1558.3,3.8400543255287047
0,-1913.18,-467.0,-1243.67,-1557.7,3.84505439626507
0,-1918.8,-465.67,-1240.23,-1557.01,3.850054467001435
0,-1920.13,-464.84,-1237.15,-1559.87,3.8550545377378
0,-1909.95,-459.0,-1241.21,-1553.38,3.860054608474165
0,-1917.36,-466.53,-1245.69,-1556.37,3.8650546792105303
0,-1924.27,-473.96,-1251.12,-1562.56,3.8700547499468954
0,-1925.0,-472.35,-1256.35,-1564.11,3.8750548206832605
0,-1925.84,-471.81,-1255.83,-1567.1,3.8800548914196256
0,-1928.46,-475.01,-1257.16,-1576.15,3.8850549621559907
0,-1931.86,-476.74,-1263.35,-1582.87,3.8900550328923558
0,-1926.88,-473.3,-1258.44,-1578.87,3.895055103628721
0,-1924.92,-472.0,-1255.78,-1574.51,3.900055174365093
0,-1926.59,-472.59,-1251.87,-1572.56,3.905055245101458
0,-1927.0,-479.26,-1254.89,-1565.59,3.9100553158378233
0,-1930.45,-471.75,-1250.82,-1565.17,3.9150553865741884
0,-1921.69,-472.87,-1244.25,-1561.68,3.9200554573105535
0,-1924.91,-471.58,-1250.49,-1564.83,3.9250555280469186
0,-1932.29,-477.93,-1261.58,-1570.1,3.9300555987832837
0,-1937.7,-472.64,-1263.12,-1572.21,3.935055669519649
0,-1935.56,-484.03,-1264.52,-1577.19,3.940055740256014
0,-1936.44,-481.71,-1270.37,-1582.69,3.945055810992379
0,-1940.07,-483.78,-1270.23,-1579.02,3.950055881728744
0,-1937.87,-486.7,-1266.4,-1576.19,3.955055952465109
0,-1931.48,-488.47,-1267.41,-1575.33,3.9600560232014743
0,-1947.82,-494.46,-1274.01,-1581.55,3.9650560939378394
0,-1947.33,-491.89,-1272.8,-1585.22,3.9700561646742045
0,-1946.58,-486.89,-1268.1,-1583.97,3.9750562354105696
0,-1938.33,-487.21,-1267.78,-1585.85,3.9800563061469347
0,-1934.55,-482.68,-1259.11,-1576.99,3.9850563768833
0,-1931.67,-475.02,-1256.59,-1574.83,3.990056447619672
0,-1926.66,-475.42,-1253.62,-1567.93,3.995056518356037
0,-1931.97,-480.35,-1262.92,-1568.06,4.000056589092402
0,-1929.1,-475.97,-1260.27,-1569.79,4.005056659828767
0,-1927.09,-472.01,-1250.78,-1566.72,4.0100567305651325
0,-1927.44,-475.26,-1254.24,-1566.59,4.015056801301498
0,-1924.41,-469.8,-1249.13,-1561.64,4.020056872037863
0,-1935.07,-479.19,-1260.79,-1569.18,4.025056942774228
0,-1931.59,-475.72,-1258.94,-1568.32,4.030057013510593
0,-1933.2,-475.29,-1255.78,-1571.3,4.035057084246958
0,-1937.64,-488.64,-1270.56,-1584.31,4.040057154983323
0,-1933.88,-482.53,-1263.63,-1573.24,4.045057225719688
0,-1930.62,-475.33,-1256.21,-1571.25,4.050057296456053
0,-1931.39,-485.55,-1263.98,-1571.9,4.055057367192418
0,-1925.8,-484.56,-1262.04,-1575.01,4.0600574379287835
0,-1924.4,-470.46,-1256.51,-1563.44,4.065057508665149
0,-1921.49,-471.94,-1250.81,-1563.77,4.070057579401514
0,-1926.31,-472.74,-1252.26,-1563.45,4.075057650137879
0,-1922.24,-470.97,-1254.47,-1562.97,4.080057720874251
0,-1924.75,-463.04,-1249.87,-1565.59,4.085057791610616
0,-1932.76,-470.1,-1257.65,-1571.91,4.090057862346981
0,-1935.56,-478.89,-1259.92,-1568.87,4.095057933083346
0,-1929.9,-474.81,-1258.16,-1565.98,4.100058003819711
0,-1931.23,-476.9,-1253.29,-1568.25,4.1050580745560765
0,-1929.83,-473.48,-1257.8,-1568.54,4.110058145292442
0,-1933.84,-477.72,-1260.68,-1573.28,4.115058216028807
0,-1932.96,-477.81,-1258.78,-1573.76,4.120058286765172
0,-1935.11,-476.24,-1263.77,-1576.16,4.125058357501537
0,-1940.51,-488.68,-1271.04,-1585.05,4.130058428237902
0,-1941.21,-481.34,-1267.96,-1584.4,4.135058498974267
0,-1943.11,-490.8,-1270.91,-1583.07,4.140058569710632
0,-1934.67,-482.3,-1257.72,-1577.24,4.145058640446997
0,-1927.16,-469.96,-1252.99,-1575.22,4.1500587111833624
0,-1940.1,-483.87,-1269.4,-1589.38,4.1550587819197276
0,-1933.48,-485.83,-1259.86,-1581.94,4.160058852656093
0,-1938.5,-487.02,-1270.1,-1585.88,4.165058923392458
0,-1933.99,-490.48,-1271.51,-1578.32,4.17005899412883
0,-1939.54,-486.9,-1269.21,-1577.15,4.175059064865195
0,-1932.49,-481.93,-1265.28,-1572.71,4.18005913560156
0,-1925.91,-472.66,-1253.51,-1562.69,4.185059206337925
0,-1923.35,-475.17,-1250.39,-1566.91,4.19005927707429
0,-1918.15,-472.34,-1255.21,-1559.07,4.1950593478106555
0,-1926.33,-478.11,-1255.22,-1566.77,4.200059418547021
0,-1916.84,-469.06,-1246.24,-1557.84,4.205059489283386
0,-1930.39,-478.97,-1255.69,-1568.9,4.210059560019751
0,-1918.99,-468.28,-1250.42,-1558.16,4.215059630756116
0,-1923.64,-469.15,-1252.31,-1556.58,4.220059701492481
0,-1929.56,-474.15,-1252.92,-1561.05,4.225059772228846
0,-1918.91,-465.17,-1245.43,-1556.03,4.230059842965211
0,-1917.19,-464.48,-1240.18,-1555.38,4.235059913701576
0,-1911.67,-464.73,-1239.46,-1551.61,4.240059984437941
0,-1897.29,-448.5,-1224.68,-1544.21,4.2450600551743065
0,-1912.93,-456.96,-1235.05,-1564.62,4.250060125910672
0,-1919.81,-458.63,-1247.22,-1564.16,4.255060196647044
0,-1916.3,-465.05,-1244.17,-1563.86,4.260060267383409
0,-1924.25,-465.27,-1253.94,-1572.81,4.265060338119774
0,-1917.13,-471.95,-1249.49,-1565.53,4.270060408856139
0,-1916.81,-475.61,-1248.19,-1569.55,4.275060479592504
0,-1917.76,-471.51,-1244.58,-1574.3,4.280060550328869
0,-1925.12,-472.13,-1256.61,-1573.05,4.285060621065234
0,-1929.94,-471.25,-1254.82,-1572.93,4.2900606918015995
0,-1926.2,-468.7,-1252.5,-1569.47,4.295060762537965
0,-1933.49,-480.65,-1265.16,-1577.77,4.30006083327433
0,-1928.3,-469.58,-1256.46,-1567.13,4.305060904010695
0,-1932.59,-476.56,-1260.97,-1572.43,4.31006097474706
0,-1937.3,-488.46,-1263.7,-1572.02,4.315061045483425
0,-1938.97,-483.2,-1263.35,-1569.93,4.32006111621979
0,-1938.33,-482.33,-1263.03,-1572.12,4.325061186956155
0,-1937.02,-473.17,-1260.34,-1569.31,4.33006125769252
0,-1935.23,-478.25,-1263.26,-1569.63,4.3350613284288855
0,-1938.15,-481.99,-1263.94,-1574.73,4.340061399165251
0,-1937.0,-475.16,-1261.78,-1572.85,4.345061469901623
0,-1938.97,-477.79,-1265.49,-1577.25,4.350061540637988
0,-1938.42,-484.41,-1270.81,-1579.91,4.355061611374353
0,-1941.75,-486.38,-1269.84,-1576.24,4.360061682110718
0,-1945.15,-493.62,-1275.25,-1580.12,4.365061752847083
0,-1931.52,-475.14,-1255.87,-1564.67,4.370061823583448
0,-1934.75,-480.86,-1263.7,-1570.78,4.375061894319813
0,-1936.96,-481.75,-1267.1,-1574.21,4.3800619650561785
0,-1937.52,-481.58,-1263.46,-1573.73,4.385062035792544
0,-1928.26,-475.9,-1256.13,-1569.85,4.390062106528909
0,-1924.7,-473.93,-1252.4,-1565.94,4.395062177265274
0,-1931.03,-481.58,-1259.32,-1571.82,4.400062248001639
0,-1926.03,-479.38,-1257.14,-1573.08,4.405062318738004
0,-1930.6,-485.63,-1260.29,-1570.89,4.410062389474369
0,-1929.98,-481.53,-1259.02,-1571.23,4.415062460210734
0,-1922.47,-475.67,-1254.82,-1565.45,4.420062530947099
0,-1924.23,-479.74,-1255.32,-1568.18,4.425062601683464
0,-1919.28,-475.17,-1255.93,-1563.76,4.4300626724198295
0,-1927.26,-473.18,-1251.51,-1560.36,4.435062743156202
0,-1924.65,-478.41,-1255.98,-1566.95,4.440062813892567
0,-1929.88,-479.11,-1256.4,-1565.76,4.445062884628932
0,-1930.85,-479.42,-1263.93,-1566.42,4.450062955365297
0,-1938.27,-487.34,-1269.98,-1566.62,4.455063026101662
0,-1933.19,-479.26,-1257.89,-1563.58,4.460063096838027
0,-1935.03,-478.9,-1260.76,-1561.54,4.465063167574392
0,-1943.19,-488.55,-1276.29,-1571.15,4.4700632383107575
0,-1942.09,-480.63,-1267.74,-1571.77,4.475063309047123
0,-1944.74,-488.49,-1268.64,-1572.84,4.480063379783488
0,-1943.21,-486.28,-1265.9,-1577.05,4.485063450519853
0,-1943.49,-488.37,-1264.55,-1578.32,4.490063521256218
0,-1943.39,-482.94,-1272.73,-1579.76,4.495063591992583
0,-1937.16,-482.52,-1267.75,-1574.3,4.500063662728948
0,-1930.35,-474.43,-1254.79,-1566.86,4.505063733465313
0,-1936.51,-472.97,-1259.42,-1568.95,4.510063804201678
0,-1938.71,-482.3,-1264.17,-1575.43,4.515063874938043
0,-1927.45,-471.62,-1259.36,-1569.51,4.5200639456744085
0,-1924.91,-466.34,-1252.08,-1561.46,4.525064016410781
0,-1925.97,-476.79,-1255.14,-1561.97,4.530064087147146
0,-1936.41,-473.08,-1255.23,-1558.59,4.535064157883511
0,-1930.28,-463.5,-1251.75,-1556.83,4.540064228619876
0,-1920.14,-462.72,-1249.36,-1565.06,4.545064299356241
0,-1927.94,-468.98,-1246.34,-1562.23,4.550064370092606
0,-1921.98,-470.86,-1248.26,-1567.17,4.555064440828971
0,-1923.22,-476.25,-1254.34,-1565.69,4.560064511565336
0,-1927.24,-473.73,-1254.26,-1568.17,4.5650645823017015
0,-1931.87,-483.29,-1262.09,-1573.82,4.570064653038067
0,-1923.76,-482.7,-1253.07,-1572.38,4.575064723774432
0,-1933.56,-481.53,-1266.39,-1582.6,4.580064794510797
0,-1928.74,-479.97,-1259.83,-1577.49,4.585064865247162
0,-1929.41,-480.84,-1261.44,-1573.74,4.590064935983527
0,-1924.52,-476.6,-1252.19,-1566.09,4.595065006719892
0,-1918.71,-461.67,-1246.23,-1557.82,4.600065077456257
0,-1931.02,-477.62,-1261.6,-1572.56,4.605065148192622
0,-1934.31,-483.5,-1261.03,-1573.34,4.6100652189289875
0,-1936.11,-483.22,-1259.55,-1569.75,4.61506528966536
0,-1930.92,-483.95,-1263.35,-1567.9,4.620065360401725
0,-1930.54,-480.05,-1259.82,-1570.22,4.62506543113809
0,-1934.85,-489.99,-1267.74,-1570.08,4.630065501874455
0,-1931.64,-480.86,-1261.28,-1570.53,4.63506557261082
0,-1921.57,-472.45,-1256.27,-1568.5,4.640065643347185
0,-1925.2,-472.9,-1252.28,-1564.81,4.64506571408355
0,-1933.35,-468.53,-1262.79,-1573.2,4.650065784819915
0,-1940.68,-478.97,-1265.05,-1578.85,4.6550658555562805
0,-1943.27,-485.58,-1267.68,-1582.62,4.660065926292646
0,-1938.98,-482.46,-1270.41,-1582.96,4.665065997029011
0,-1935.88,-481.3,-1264.64,-1578.54,4.670066067765376
0,-1931.6,-473.69,-1259.49,-1571.84,4.675066138501741
0,-1928.9,-478.03,-1254.96,-1571.09,4.680066209238106
0,-1926.12,-474.1,-1254.5,-1565.63,4.685066279974471
0,-1925.48,-475.61,-1253.61,-1568.43,4.690066350710836
0,-1929.49,-470.38,-1256.46,-1570.39,4.695066421447201
0,-1932.9,-475.47,-1259.71,-1574.89,4.700066492183566
0,-1936.22,-480.29,-1260.97,-1576.45,4.705066562919939
0,-1939.6,-469.63,-1262.5,-1574.96,4.710066633656304
0,-1939.73,-476.26,-1263.43,-1575.07,4.715066704392669
0,-1926.53,-477.7,-1258.19,-1562.89,4.720066775129034
0,-1924.91,-475.65,-1253.73,-1562.11,4.725066845865399
0,-1927.02,-470.18,-1245.0,-1561.8,4.730066916601764
0,-1927.28,-475.55,-1249.43,-1567.17,4.735066987338129
0,-1925.43,-474.65,-1256.67,-1567.27,4.740067058074494
0,-1924.83,-476.27,-1252.16,-1567.24,4.7450671288108595
0,-1929.75,-474.5,-1256.26,-1564.61,4.750067199547225
0,-1930.18,-474.66,-1258.42,-1563.86,4.75506727028359
0,-1932.22,-471.9,-1257.51,-1566.21,4.760067341019955
0,-1929.41,-479.29,-1260.51,-1573.94,4.76506741175632
0,-1927.74,-467.55,-1250.61,-1563.67,4.770067482492685
0,-1928.69,-470.06,-1253.97,-1567.41,4.77506755322905
0,-1930.71,-480.42,-1259.26,-1574.01,4.780067623965415
0,-1930.07,-476.24,-1255.37,-1567.77,4.78506769470178
0,-1924.45,-478.47,-1254.01,-1563.41,4.790067765438145
0,-1922.22,-473.66,-1246.68,-1558.0,4.795067836174518
0,-1917.23,-476.13,-1254.18,-1564.67,4.800067906910883
0,-1919.69,-475.12,-1252.26,-1564.25,4.805067977647248
0,-1921.46,-476.15,-1251.02,-1567.61,4.810068048383613
0,-1930.21,-484.24,-1266.67,-1575.69,4.815068119119978
0,-1929.39,-473.94,-1264.07,-1573.73,4.820068189856343
0,-1927.79,-476.07,-1256.8,-1570.62,4.825068260592708
0,-1920.8,-469.78,-1247.55,-1562.9,4.830068331329073
0,-1929.03,-473.6,-1256.33,-1568.32,4.835068402065438
0,-1928.83,-464.93,-1258.5,-1572.07,4.8400684728018035
0,-1929.35,-471.58,-1255.35,-1576.17,4.845068543538169
0,-1931.44,-481.57,-1262.39,-1584.35,4.850068614274534
0,-1934.1,-484.35,-1262.51,-1581.27,4.855068685010899
0,-1934.0,-480.89,-1270.55,-1578.45,4.860068755747264
0,-1921.37,-472.88,-1254.3,-1565.33,4.865068826483629
0,-1923.02,-474.59,-1251.96,-1569.36,4.870068897219994
0,-1922.13,-470.83,-1247.47,-1567.16,4.875068967956359
0,-1915.43,-466.49,-1247.72,-1568.78,4.880069038692724
0,-1923.74,-473.48,-1250.5,-1566.68,4.885069109429097
0,-1918.25,-471.82,-1242.12,-1558.44,4.890069180165462
0,-1916.28,-474.95,-1244.88,-1556.44,4.895069250901827
0,-1922.46,-469.58,-1249.32,-1561.36,4.900069321638192
0,-1925.48,-474.88,-1254.1,-1557.51,4.905069392374557
0,-1925.65,-479.0,-1258.01,-1561.84,4.910069463110922
0,-1934.31,-480.58,-1262.76,-1565.84,4.915069533847287
0,-1929.58,-476.67,-1259.33,-1561.66,4.920069604583652
0,-1925.88,-476.12,-1259.13,-1560.26,4.925069675320017
0,-1922.73,-472.75,-1245.37,-1555.41,4.9300697460563825
0,-1923.08,-477.23,-1250.07,-1559.3,4.935069816792748
0,-1929.55,-484.58,-1260.8,-1567.49,4.940069887529113
0,-1927.47,-476.78,-1263.89,-1568.49,4.945069958265478
0,-1934.3,-481.51,-1265.39,-1572.81,4.950070029001843
0,-1935.82,-480.15,-1261.25,-1574.56,4.955070099738208
0,-1931.37,-474.07,-1258.73,-1568.5,4.960070170474573
0,-1928.39,-477.97,-1250.19,-1566.1,4.965070241210938
0,-1937.05,-482.66,-1266.49,-1572.88,4.97007031194731
0,-1931.69,-478.4,-1260.48,-1571.95,4.9750703826836755
0,-1933.66,-478.73,-1261.17,-1574.12,4.980070453420041
0,-1931.72,-473.98,-1258.33,-1564.26,4.985070524156406
0,-1929.12,-480.82,-1262.52,-1572.04,4.990070594892771
0,-1924.09,-473.78,-1257.01,-1572.8,4.995070665629136
0,-1923.41,-469.88,-1253.21,-1571.37,5.000070736365501
0,-1936.1,-474.15,-1261.61,-1572.86,5.005070807101866
0,-1936.18,-479.69,-1266.77,-1578.13,5.010070877838231
0,-1942.53,-482.3,-1269.09,-1576.56,5.015070948574596
0,-1943.25,-486.89,-1267.97,-1578.93,5.0200710193109614
0,-1945.8,-485.31,-1268.46,-1578.18,5.0250710900473265
0,-1940.91,-483.56,-1268.73,-1568.25,5.030071160783692
0,-1941.25,-486.15,-1268.75,-1569.66,5.035071231520057
0,-1935.18,-483.22,-1267.72,-1572.22,5.040071302256422
0,-1922.79,-474.41,-1252.09,-1566.36,5.045071372992787
0,-1919.88,-473.41,-1248.99,-1562.8,5.050071443729152
0,-1920.37,-470.86,-1250.24,-1567.18,5.055071514465517
0,-1926.49,-477.81,-1260.92,-1570.87,5.060071585201889
0,-1936.31,-484.99,-1258.07,-1575.33,5.0650716559382545
0,-1945.95,-485.71,-1267.32,-1572.64,5.07007172667462
0,-1945.8,-485.33,-1272.21,-1578.49,5.075071797410985
0,-1940.66,-486.06,-1269.67,-1573.25,5.08007186814735
0,-1937.51,-479.42,-1263.64,-1568.74,5.085071938883715
0,-1934.15,-479.15,-1260.95,-1569.31,5.09007200962008
0,-1929.42,-476.93,-1256.68,-1568.16,5.095072080356445
0,-1935.07,-479.51,-1264.69,-1577.29,5.10007215109281
0,-1930.78,-471.95,-1262.68,-1578.18,5.105072221829175
0,-1927.26,-478.76,-1253.91,-1577.62,5.11007229256554
0,-1931.39,-477.2,-1258.48,-1569.54,5.1150723633019055
0,-1929.58,-473.89,-1251.08,-1572.14,5.120072434038271
0,-1924.2,-468.41,-1251.78,-1568.04,5.125072504774636
0,-1918.42,-466.9,-1242.9,-1558.42,5.130072575511001
0,-1931.52,-468.65,-1253.98,-1561.82,5.135072646247366
0,-1934.41,-470.99,-1254.99,-1571.45,5.140072716983731
0,-1938.44,-481.38,-1263.56,-1575.97,5.145072787720096
0,-1933.89,-479.67,-1266.23,-1573.91,5.150072858456468
0,-1937.95,-491.3,-1266.31,-1579.42,5.155072929192833
0,-1930.35,-483.12,-1255.08,-1570.41,5.1600729999291985
0,-1929.16,-482.15,-1255.92,-1566.29,5.165073070665564
0,-1928.96,-481.32,-1260.95,-1566.95,5.170073141401929
0,-1929.17,-481.14,-1260.73,-1574.37,5.175073212138294
0,-1930.87,-478.08,-1252.9,-1570.08,5.180073282874659
0,-1936.18,-478.05,-1263.18,-1567.61,5.185073353611024
0,-1928.97,-473.83,-1258.02,-1565.28,5.190073424347389
0,-1932.66,-475.55,-1256.87,-1568.96,5.195073495083754
0,-1926.75,-468.93,-1255.43,-1562.61,5.200073565820119
0,-1916.28,-465.11,-1243.01,-1556.88,5.2050736365564845
0,-1910.23,-460.79,-1245.38,-1554.72,5.21007370729285
0,-1920.8,-474.59,-1252.54,-1564.45,5.215073778029215
0,-1926.01,-477.53,-1257.3,-1562.53,5.22007384876558
0,-1928.49,-480.33,-1259.43,-1563.12,5.225073919501945
0,-1936.84,-481.36,-1262.27,-1570.2,5.23007399023831
0,-1932.79,-484.28,-1265.91,-1572.34,5.235074060974675
0,-1939.64,-486.65,-1270.05,-1574.2,5.240074131711047
0,-1932.31,-483.2,-1271.09,-1574.58,5.245074202447412
0,-1928.83,-477.72,-1262.14,-1574.02,5.2500742731837775
0,-1926.06,-475.25,-1255.41,-1574.54,5.255074343920143
0,-1921.15,-475.29,-1249.09,-1569.79,5.260074414656508
0,-1924.61,-476.17,-1249.21,-1566.52,5.265074485392873
0,-1922.1,-463.67,-1250.54,-1561.35,5.270074556129238
0,-1919.03,-474.46,-1250.92,-1561.87,5.275074626865603
0,-1919.81,-474.9,-1253.17,-1564.81,5.280074697601968
0,-1919.17,-472.62,-1247.6,-1564.78,5.285074768338333
0,-1930.7,-474.29,-1264.18,-1566.92,5.290074839074698
0,-1932.37,-473.64,-1260.15,-1573.17,5.295074909811063
0,-1925.12,-478.04,-1258.07,-1578.72,5.3000749805474285
0,-1929.25,-480.84,-1255.77,-1573.87,5.305075051283794
0,-1935.37,-480.74,-1262.67,-1577.65,5.310075122020159
0,-1929.7,-482.25,-1257.64,-1572.99,5.315075192756524
0,-1929.84,-487.05,-1262.06,-1577.34,5.320075263492889
0,-1938.21,-490.94,-1269.78,-1583.42,5.325075334229254
0,-1933.72,-479.75,-1266.58,-1578.74,5.330075404965626
0,-1945.75,-487.34,-1270.02,-1585.52,5.335075475701991
0,-1936.08,-486.87,-1261.57,-1583.66,5.3400755464383565
0,-1937.71,-481.9,-1263.53,-1582.51,5.345075617174722
0,-1938.05,-480.82,-1265.85,-1583.86,5.350075687911087
0,-1932.69,-475.71,-1256.54,-1578.15,5.355075758647452
0,-1927.05,-477.65,-1263.65,-1572.45,5.360075829383817
0,-1933.55,-480.36,-1258.06,-1576.82,5.365075900120182
0,-1930.22,-473.3,-1261.77,-1571.5,5.370075970856547
0,-1920.92,-471.68,-1253.73,-1564.9,5.375076041592912
0,-1930.24,-473.4,-1261.05,-1564.76,5.380076112329277
0,-1934.94,-479.63,-1259.67,-1569.46,5.385076183065642
0,-1922.16,-464.96,-1251.62,-1563.28,5.3900762538020075
0,-1924.22,-470.1,-1250.8,-1559.27,5.395076324538373
0,-1925.45,-469.58,-1251.59,-1562.79,5.400076395274738
0,-1925.62,-469.76,-1250.56,-1568.93,5.405076466011103
0,-1929.85,-476.96,-1260.03,-1578.88,5.410076536747468
0,-1928.11,-475.31,-1253.62,-1575.53,5.415076607483833
0,-1930.76,-477.34,-1258.55,-1568.72,5.420076678220205
0,-1925.2,-471.89,-1255.45,-1565.53,5.42507674895657
0,-1931.02,-475.76,-1261.52,-1566.96,5.430076819692935
0,-1931.58,-474.05,-1251.87,-1566.58,5.4350768904293005
0,-1927.64,-471.6,-1252.81,-1562.86,5.440076961165666
0,-1935.58,-481.3,-1261.05,-1579.01,5.445077031902031
0,-1938.03,-483.8,-1264.63,-1582.39,5.450077102638396
0,-1938.66,-493.64,-1274.44,-1589.23,5.455077173374761
0,-1930.84,-478.35,-1262.67,-1575.25,5.460077244111126
0,-1934.76,-474.84,-1261.77,-1575.44,5.465077314847491
0,-1935.29,-481.45,-1260.66,-1578.16,5.470077385583856
0,-1935.67,-483.98,-1262.86,-1578.09,5.475077456320221
0,-1932.76,-483.34,-1261.38,-1573.35,5.4800775270565865
0,-1932.14,-489.76,-1265.23,-1576.82,5.485077597792952
0,-1936.03,-490.65,-1269.7,-1577.88,5.490077668529317
0,-1938.84,-487.43,-1276.0,-1585.03,5.495077739265682
0,-1940.28,-486.91,-1273.12,-1580.08,5.500077810002047
0,-1938.61,-488.12,-1264.26,-1576.53,5.505077880738412
0,-1935.62,-478.32,-1261.22,-1570.55,5.510077951474784
0,-1929.28,-467.65,-1252.8,-1558.0,5.515078022211149
0,-1918.86,-463.05,-1247.6,-1554.47,5.520078092947514
0,-1913.47,-458.85,-1241.24,-1555.38,5.5250781636838795
0,-1923.5,-464.79,-1239.77,-1556.21,5.530078234420245
0,-1917.5,-465.25,-1238.37,-1550.27,5.53507830515661
0,-1915.35,-465.99,-1239.89,-1551.59,5.540078375892975
0,-1911.09,-458.22,-1233.29,-1540.66,5.54507844662934
0,-1912.78,-464.75,-1235.37,-1544.91,5.550078517365705
0,-1927.51,-477.15,-1245.13,-1558.5,5.55507858810207
0,-1922.37,-474.8,-1248.55,-1551.95,5.560078658838435
0,-1927.4,-476.02,-1252.57,-1559.58,5.5650787295748
0,-1924.76,-476.55,-1253.04,-1563.27,5.570078800311165
0,-1922.77,-470.01,-1256.88,-1565.08,5.5750788710475305
0,-1911.57,-463.93,-1242.77,-1555.25,5.580078941783896
0,-1899.06,-463.68,-1242.39,-1550.21,5.585079012520261
0,-1913.47,-464.72,-1247.02,-1547.3,5.590079083256626
0,-1943.56,-474.47,-1258.38,-1562.38,5.595079153992991
0,-1945.54,-474.43,-1261.83,-1568.06,5.600079224729363
0,-1950.23,-486.82,-1268.62,-1579.3,5.605079295465728
0,-1941.17,-483.87,-1268.27,-1578.51,5.610079366202093
0,-1936.31,-482.53,-1264.56,-1570.82,5.6150794369384585
0,-1942.67,-483.83,-1268.71,-1577.6,5.620079507674824
0,-1934.44,-481.89,-1261.89,-1571.37,5.625079578411189
0,-1940.91,-485.9,-1266.13,-1574.74,5.630079649147554
0,-1944.25,-485.96,-1272.01,-1581.32,5.635079719883919
0,-1940.81,-485.76,-1268.17,-1581.31,5.640079790620284
0,-1947.39,-491.26,-1272.71,-1585.39,5.645079861356649
0,-1947.65,-488.18,-1274.34,-1583.55,5.650079932093014
0,-1933.48,-480.53,-1260.53,-1574.56,5.655080002829379
0,-1941.37,-486.57,-1265.56,-1568.49,5.660080073565744
0,-1943.37,-482.79,-1264.16,-1567.74,5.6650801443021095
0,-1935.65,-474.83,-1257.41,-1565.73,5.670080215038475
0,-1927.2,-463.89,-1254.75,-1563.9,5.67508028577484
0,-1925.88,-466.38,-1250.61,-1568.67,5.680080356511205
0,-1923.44,-467.21,-1248.76,-1567.7,5.685080427247577
0,-1920.45,-468.7,-1255.29,-1568.77,5.690080497983942
0,-1924.22,-476.84,-1256.34,-1565.39,5.695080568720307
0,-1931.06,-482.04,-1262.58,-1572.04,5.700080639456672
0,-1925.48,-469.74,-1252.37,-1561.87,5.705080710193037
0,-1923.02,-465.22,-1246.02,-1567.65,5.7100807809294025
0,-1940.56,-474.75,-1265.81,-1578.68,5.715080851665768
0,-1942.55,-476.84,-1269.46,-1586.7,5.720080922402133
0,-1942.59,-477.82,-1260.37,-1584.16,5.725080993138498
0,-1938.51,-476.46,-1260.97,-1582.79,5.730081063874863
0,-1943.33,-487.97,-1274.41,-1584.36,5.735081134611228
0,-1943.64,-479.69,-1270.85,-1585.29,5.740081205347593
0,-1944.16,-487.69,-1269.68,-1582.01,5.745081276083958
0,-1945.93,-492.54,-1277.81,-1588.64,5.750081346820323
0,-1946.91,-495.42,-1278.51,-1588.02,5.7550814175566885
0,-1944.99,-491.63,-1274.83,-1586.6,5.7600814882930536
0,-1939.36,-487.66,-1273.92,-1576.01,5.765081559029419
0,-1934.05,-489.02,-1267.3,-1571.65,5.770081629765784
0,-1936.43,-491.44,-1267.14,-1571.36,5.775081700502156
0,-1931.72,-482.64,-1255.19,-1565.8,5.780081771238521
0,-1924.57,-475.48,-1255.47,-1562.23,5.785081841974886
0,-1923.1,-477.78,-1256.73,-1560.87,5.790081912711251
0,-1938.84,-491.86,-1270.91,-1573.27,5.795081983447616
0,-1941.72,-494.53,-1267.11,-1576.49,5.8000820541839815
0,-1932.05,-486.03,-1260.55,-1562.61,5.805082124920347
0,-1933.46,-482.61,-1265.41,-1563.81,5.810082195656712
0,-1942.88,-490.35,-1261.82,-1571.32,5.815082266393077
0,-1941.65,-478.97,-1263.0,-1574.49,5.820082337129442
0,-1930.56,-478.95,-1256.01,-1572.44,5.825082407865807
0,-1929.68,-461.99,-1250.7,-1573.87,5.830082478602172
0,-1937.62,-485.14,-1258.67,-1576.21,5.835082549338537
0,-1939.39,-486.16,-1267.15,-1572.18,5.840082620074902
0,-1922.3,-469.96,-1250.09,-1557.91,5.845082690811267
0,-1938.27,-488.74,-1266.78,-1574.39,5.8500827615476325
0,-1918.15,-469.81,-1251.36,-1556.46,5.855082832283998
0,-1924.22,-480.84,-1255.91,-1559.43,5.860082903020363
0,-1917.26,-465.37,-1244.81,-1561.28,5.865082973756735
0,-1927.11,-472.85,-1252.32,-1565.28,5.8700830444931
0,-1934.84,-489.25,-1263.9,-1571.42,5.875083115229465
0,-1911.78,-469.63,-1239.75,-1552.47,5.88008318596583
0,-1915.55,-468.05,-1249.86,-1558.52,5.885083256702195
0,-1927.54,-466.33,-1257.29,-1567.91,5.8900833274385604
0,-1935.12,-472.1,-1257.55,-1573.4,5.8950833981749255
0,-1934.35,-476.44,-1261.38,-1570.78,5.900083468911291
0,-1930.19,-474.68,-1265.42,-1576.73,5.905083539647656
0,-1927.82,-474.74,-1261.17,-1570.34,5.910083610384021
0,-1922.5,-477.63,-1253.71,-1569.87,5.915083681120386
0,-1930.52,-485.37,-1266.99,-1571.19,5.920083751856751
0,-1925.03,-470.63,-1253.03,-1563.36,5.925083822593116
0,-1918.01,-473.4,-1248.85,-1561.35,5.930083893329481
0,-1930.83,-478.72,-1254.73,-1566.72,5.935083964065846
0,-1918.95,-460.77,-1251.06,-1560.04,5.9400840348022115
0,-1917.08,-464.3,-1246.05,-1559.08,5.945084105538577
0,-1918.82,-466.03,-1239.27,-1552.32,5.950084176274942
0,-1912.32,-455.59,-1233.58,-1548.5,5.955084247011314
0,-1929.79,-466.43,-1257.34,-1573.58,5.960084317747679
0,-1932.86,-476.16,-1259.21,-1577.45,5.965084388484044
0,-1914.14,-472.64,-1247.72,-1566.84,5.970084459220409
0,-1923.03,-469.8,-1256.06,-1578.41,5.975084529956774
0,-1936.15,-483.69,-1267.05,-1582.46,5.980084600693139
0,-1933.8,-479.75,-1265.0,-1580.27,5.9850846714295045
0,-1932.47,-474.41,-1261.02,-1576.6,5.99008474216587
0,-1903.88,-459.52,-1241.58,-1558.1,5.995084812902235
0,-1914.89,-461.84,-1244.37,-1563.35,6.0000848836386
0,-1919.76,-475.02,-1247.19,-1565.22,6.005084954374965
0,-1913.72,-461.4,-1235.97,-1546.9,6.01008502511133
0,-1917.48,-464.89,-1247.74,-1551.15,6.015085095847695
0,-1916.44,-460.34,-1240.93,-1549.83,6.02008516658406
0,-1921.52,-465.52,-1247.63,-1556.62,6.025085237320425
0,-1917.78,-460.7,-1238.74,-1549.32,6.03008530805679
0,-1939.29,-475.21,-1260.74,-1581.57,6.0350853787931555
0,-1941.45,-482.99,-1264.53,-1586.36,6.040085449529521
0,-1916.91,-463.98,-1249.07,-1561.85,6.045085520265893
0,-1918.46,-471.55,-1250.85,-1559.61,6.050085591002258
0,-1954.33,-499.52,-1281.91,-1594.06,6.055085661738623
0,-1933.28,-477.22,-1265.01,-1575.65,6.060085732474988
0,-1926.21,-477.66,-1259.12,-1567.69,6.065085803211353
0,-1925.43,-472.63,-1250.69,-1566.81,6.070085873947718
0,-1927.31,-474.58,-1254.92,-1569.19,6.0750859446840835
0,-1926.66,-473.1,-1257.26,-1568.07,6.080086015420449
0,-1931.25,-470.94,-1253.43,-1566.1,6.085086086156814
0,-1918.99,-455.43,-1244.51,-1563.54,6.090086156893179
0,-1923.57,-463.44,-1245.4,-1561.79,6.095086227629544
0,-1930.62,-471.41,-1251.85,-1576.04,6.100086298365909
0,-1936.71,-475.68,-1257.22,-1576.23,6.105086369102274
0,-1928.03,-471.81,-1255.28,-1567.87,6.110086439838639
0,-1922.01,-465.5,-1250.58,-1565.76,6.115086510575004
0,-1931.6,-472.87,-1260.44,-1566.28,6.120086581311369
0,-1910.71,-460.95,-1237.68,-1547.52,6.1250866520477345
0,-1941.0,-482.31,-1262.31,-1577.88,6.1300867227841
0,-1938.63,-477.24,-1257.8,-1569.16,6.135086793520472
0,-1948.74,-488.62,-1274.71,-1579.54,6.140086864256837
0,-1943.44,-485.88,-1267.78,-1573.94,6.145086934993202
0,-1930.88,-481.71,-1262.9,-1569.51,6.150087005729567
0,-1926.88,-479.65,-1257.39,-1563.82,6.155087076465932
0,-1920.16,-474.53,-1258.42,-1563.35,6.160087147202297
0,-1924.98,-479.78,-1250.79,-1564.55,6.165087217938662
0,-1920.69,-476.96,-1250.87,-1573.06,6.1700872886750275
0,-1925.56,-474.82,-1254.42,-1572.96,6.175087359411393
0,-1923.99,-474.7,-1252.69,-1573.08,6.180087430147758
0,-1934.76,-485.78,-1257.92,-1581.01,6.185087500884123
0,-1940.79,-486.45,-1268.13,-1584.6,6.190087571620488
0,-1939.88,-481.45,-1262.31,-1581.7,6.195087642356853
0,-1934.86,-476.65,-1263.29,-1571.9,6.200087713093218
0,-1916.43,-470.4,-1249.86,-1558.06,6.205087783829583
0,-1931.87,-485.16,-1261.54,-1574.75,6.210087854565948
0,-1938.44,-492.01,-1269.26,-1588.05,6.2150879253023135
0,-1936.25,-493.64,-1264.3,-1588.18,6.220087996038679
0,-1941.43,-481.65,-1272.37,-1587.94,6.225088066775051
0,-1939.7,-486.94,-1266.77,-1586.3,6.230088137511416
0,-1930.44,-487.16,-1264.71,-1577.91,6.235088208247781
0,-1932.85,-485.16,-1262.13,-1581.16,6.240088278984146
0,-1935.01,-486.79,-1261.42,-1577.08,6.245088349720511
0,-1925.54,-478.82,-1255.14,-1567.86,6.250088420456876
0,-1911.73,-468.8,-1246.98,-1558.43,6.255088491193241
0,-1931.17,-479.56,-1260.62,-1573.86,6.2600885619296065
0,-1937.41,-485.88,-1263.05,-1576.9,6.265088632665972
0,-1926.22,-477.5,-1254.57,-1566.35,6.270088703402337
0,-1941.55,-488.31,-1262.5,-1584.43,6.275088774138702
0,-1935.35,-485.64,-1264.95,-1582.18,6.280088844875067
0,-1916.8,-470.05,-1249.77,-1565.59,6.285088915611432
0,-1931.45,-484.86,-1265.93,-1579.15,6.290088986347797
0,-1940.63,-493.85,-1272.73,-1591.0,6.295089057084162
0,-1935.69,-486.97,-1267.45,-1584.1,6.300089127820527
0,-1929.46,-474.28,-1259.24,-1576.61,6.305089198556892
0,-1940.24,-483.44,-1261.67,-1577.0,6.310089269293265
0,-1929.98,-479.64,-1261.14,-1563.4,6.31508934002963
0,-1926.76,-469.05,-1253.83,-1558.36,6.320089410765995
0,-1922.97,-471.13,-1253.29,-1558.71,6.32508948150236
0,-1922.58,-473.4,-1251.79,-1558.84,6.330089552238725
0,-1942.03,-485.84,-1260.15,-1569.55,6.33508962297509
0,-1923.59,-468.1,-1246.77,-1560.19,6.340089693711455
0,-1916.84,-467.21,-1246.18,-1561.25,6.34508976444782
0,-1921.56,-469.06,-1247.63,-1564.66,6.3500898351841855
0,-1930.31,-477.17,-1256.45,-1569.94,6.355089905920551
0,-1915.37,-457.48,-1246.52,-1552.0,6.360089976656916
0,-1941.82,-476.78,-1271.59,-1572.52,6.365090047393281
0,-1938.64,-482.39,-1268.53,-1574.71,6.370090118129646
0,-1921.95,-479.77,-1258.68,-1562.84,6.375090188866011
0,-1915.11,-467.45,-1242.42,-1553.46,6.380090259602376
0,-1942.98,-489.99,-1268.51,-1578.44,6.385090330338741
0,-1939.86,-484.95,-1260.87,-1579.31,6.390090401075106
0,-1929.38,-474.4,-1255.5,-1569.25,6.395090471811471
0,-1926.99,-481.13,-1262.62,-1568.67,6.400090542547844
0,-1920.67,-467.05,-1249.77,-1560.21,6.405090613284209
0,-1918.75,-471.51,-1250.5,-1563.18,6.410090684020574
0,-1920.31,-476.25,-1249.15,-1561.49,6.415090754756939
0,-1929.84,-479.25,-1253.94,-1562.06,6.420090825493304
0,-1933.37,-478.07,-1257.41,-1567.26,6.425090896229669
0,-1925.88,-467.27,-1254.69,-1564.15,6.430090966966034
0,-1918.56,-465.38,-1247.1,-1560.08,6.435091037702399
0,-1941.29,-484.57,-1263.48,-1577.36,6.440091108438764
0,-1945.34,-481.03,-1261.06,-1572.28,6.4450911791751295
0,-1930.05,-473.34,-1254.94,-1570.08,6.450091249911495
0,-1935.98,-478.45,-1264.4,-1574.69,6.45509132064786
0,-1932.86,-473.81,-1253.02,-1570.6,6.460091391384225
0,-1928.72,-471.49,-1248.03,-1564.58,6.46509146212059
0,-1917.6,-458.42,-1245.03,-1564.5,6.470091532856955
0,-1920.77,-452.81,-1246.09,-1562.97,6.47509160359332
0,-1918.13,-456.67,-1243.94,-1564.55,6.480091674329685
0,-1913.19,-452.96,-1236.82,-1560.5,6.48509174506605
0,-1927.17,-463.44,-1248.62,-1564.37,6.490091815802423
0,-1921.67,-461.66,-1247.11,-1561.08,6.495091886538788
0,-1927.21,-472.5,-1256.37,-1569.22,6.500091957275153
0,-1924.03,-469.47,-1250.21,-1565.34,6.505092028011518
0,-1930.39,-475.24,-1255.86,-1566.85,6.510092098747883
0,-1926.62,-477.81,-1248.28,-1561.8,6.515092169484248
0,-1932.98,-481.01,-1259.43,-1569.58,6.520092240220613
0,-1927.34,-479.47,-1254.7,-1573.78,6.525092310956978
0,-1939.59,-491.53,-1269.61,-1584.71,6.530092381693343
0,-1938.46,-493.4,-1273.51,-1585.36,6.5350924524297085
0,-1932.74,-482.7,-1268.64,-1572.88,6.540092523166074
0,-1938.99,-488.67,-1273.49,-1576.49,6.545092593902439
0,-1945.51,-499.3,-1275.06,-1583.22,6.550092664638804
0,-1948.63,-496.08,-1273.82,-1583.98,6.555092735375169
0,-1948.49,-494.03,-1281.34,-1591.61,6.560092806111534
0,-1943.09,-488.86,-1274.83,-1582.6,6.565092876847899
0,-1934.65,-477.68,-1265.83,-1576.08,6.570092947584264
0,-1934.81,-481.79,-1269.45,-1575.64,6.575093018320629
0,-1927.21,-480.65,-1259.8,-1565.63,6.5800930890570015
0,-1930.47,-482.81,-1265.71,-1575.42,6.585093159793367
0,-1929.6,-486.44,-1268.36,-1577.64,6.590093230529732
0,-1943.54,-487.34,-1267.56,-1581.49,6.595093301266097
0,-1939.2,-480.39,-1270.98,-1580.01,6.600093372002462
0,-1941.96,-486.47,-1272.37,-1579.78,6.605093442738827
0,-1938.35,-480.67,-1266.04,-1568.37,6.610093513475192
0,-1938.94,-484.6,-1266.86,-1569.4,6.615093584211557
0,-1931.32,-473.01,-1253.16,-1561.04,6.620093654947922
0,-1928.92,-472.75,-1252.8,-1564.59,6.6250937256842874
0,-1926.05,-472.47,-1254.92,-1559.46,6.6300937964206526
0,-1924.16,-473.83,-1247.0,-1560.77,6.635093867157018
0,-1919.94,-466.27,-1246.17,-1552.8,6.640093937893383
0,-1932.74,-476.43,-1259.46,-1564.22,6.645094008629748
0,-1914.8,-468.04,-1250.08,-1549.93,6.650094079366113
0,-1914.55,-461.9,-1234.84,-1540.71,6.655094150102478
0,-1918.54,-466.0,-1245.08,-1552.37,6.660094220838843
0,-1916.42,-470.9,-1247.39,-1559.38,6.665094291575208
0,-1929.08,-476.37,-1256.7,-1570.68,6.6700943623115805
0,-1925.39,-471.49,-1253.09,-1566.35,6.675094433047946
0,-1922.08,-468.44,-1248.15,-1565.38,6.680094503784311
0,-1914.02,-463.93,-1245.2,-1557.52,6.685094574520676
0,-1916.11,-466.62,-1248.63,-1556.76,6.690094645257041
0,-1926.21,-478.23,-1252.69,-1562.49,6.695094715993406
0,-1924.39,-473.33,-1257.39,-1561.89,6.700094786729771
0,-1922.57,-470.2,-1245.47,-1564.54,6.705094857466136
0,-1930.59,-470.14,-1248.97,-1564.22,6.710094928202501
0,-1923.23,-476.03,-1256.9,-1567.16,6.715094998938866
0,-1933.59,-480.16,-1258.88,-1572.45,6.7200950696752315
0,-1924.94,-476.92,-1250.32,-1573.74,6.725095140411597
0,-1923.54,-473.35,-1252.63,-1573.21,6.730095211147962
0,-1923.22,-476.22,-1249.1,-1576.7,6.735095281884327
0,-1929.97,-475.42,-1260.14,-1579.59,6.740095352620692
0,-1919.66,-481.1,-1255.28,-1576.87,6.745095423357057
0,-1916.56,-470.23,-1250.03,-1564.61,6.750095494093422
0,-1920.78,-474.02,-1244.52,-1570.48,6.755095564829787
0,-1918.33,-466.62,-1256.63,-1572.48,6.7600956355661594
0,-1936.74,-482.37,-1265.73,-1582.49,6.7650957063025245
0,-1946.28,-491.33,-1278.15,-1587.35,6.77009577703889
0,-1951.53,-490.64,-1275.98,-1592.81,6.775095847775255
0,-1945.8,-492.93,-1275.94,-1586.32,6.78009591851162
0,-1944.65,-492.48,-1276.64,-1584.53,6.785095989247985
0,-1934.66,-479.95,-1262.4,-1572.46,6.79009605998435
0,-1936.05,-480.11,-1266.54,-1574.97,6.795096130720715
0,-1931.12,-487.37,-1261.44,-1573.99,6.80009620145708
0,-1927.99,-479.31,-1255.24,-1566.92,6.805096272193445
0,-1924.27,-472.96,-1255.68,-1565.75,6.8100963429298105
0,-1934.24,-484.23,-1261.41,-1575.98,6.815096413666176
0,-1939.5,-482.44,-1259.22,-1579.58,6.820096484402541
0,-1942.09,-485.29,-1264.1,-1575.71,6.825096555138906
0,-1931.3,-475.36,-1256.57,-1563.43,6.830096625875271
0,-1929.84,-477.82,-1254.37,-1561.77,6.835096696611636
0,-1938.11,-479.61,-1257.43,-1562.62,6.840096767348001
0,-1922.74,-471.97,-1246.35,-1555.88,6.845096838084366
0,-1929.68,-476.3,-1254.89,-1563.76,6.850096908820738
0,-1920.2,-464.51,-1247.47,-1562.42,6.8550969795571035
0,-1921.48,-462.81,-1244.41,-1563.17,6.860097050293469
0,-1924.49,-470.46,-1254.16,-1567.71,6.865097121029834
0,-1927.64,-462.07,-1248.4,-1566.87,6.870097191766199
0,-1927.71,-472.49,-1261.19,-1568.29,6.875097262502564
0,-1931.7,-484.85,-1266.41,-1569.82,6.880097333238929
0,-1934.6,-488.08,-1263.52,-1577.59,6.885097403975294
0,-1929.61,-483.88,-1267.2,-1582.1,6.890097474711659
0,-1929.5,-483.66,-1264.04,-1584.14,6.895097545448024
0,-1937.99,-484.35,-1270.83,-1589.1,6.900097616184389
0,-1940.22,-486.69,-1266.94,-1588.6,6.9050976869207545
0,-1934.46,-478.95,-1258.66,-1579.26,6.91009775765712
0,-1928.41,-479.8,-1257.73,-1580.87,6.915097828393485
0,-1930.37,-485.58,-1258.53,-1579.23,6.92009789912985
0,-1931.2,-478.6,-1261.6,-1582.58,6.925097969866215
0,-1934.14,-488.92,-1267.2,-1583.69,6.93009804060258
0,-1930.63,-487.12,-1263.41,-1576.5,6.935098111338945
0,-1923.38,-479.36,-1259.52,-1569.68,6.940098182075317
0,-1925.11,-480.96,-1253.06,-1562.77,6.9450982528116825
0,-1928.23,-483.16,-1249.47,-1568.76,6.950098323548048
0,-1923.48,-473.01,-1253.5,-1563.59,6.955098394284413
0,-1928.75,-468.47,-1257.16,-1566.73,6.960098465020778
0,-1932.0,-475.67,-1261.47,-1573.94,6.965098535757143
0,-1947.77,-487.84,-1273.69,-1575.71,6.970098606493508
0,-1950.89,-491.44,-1273.75,-1583.8,6.975098677229873
0,-1942.76,-482.04,-1272.52,-1578.55,6.980098747966238
0,-1941.27,-484.68,-1270.63,-1580.67,6.985098818702603
0,-1930.34,-475.47,-1261.33,-1582.08,6.990098889438968
0,-1923.43,-480.66,-1261.17,-1578.64,6.9950989601753335
0,-1920.13,-474.82,-1246.54,-1574.07,7.000099030911699
0,-1913.42,-469.23,-1244.93,-1565.72,7.005099101648064
0,-1914.02,-466.41,-1240.42,-1560.82,7.010099172384429
0,-1915.36,-457.9,-1244.55,-1555.67,7.015099243120794
0,-1930.93,-475.74,-1257.14,-1571.1,7.020099313857159
0,-1928.28,-460.86,-1244.79,-1560.83,7.025099384593531
0,-1930.69,-471.94,-1257.21,-1563.15,7.030099455329896
0,-1919.18,-463.94,-1247.89,-1561.11,7.035099526066261
0,-1914.92,-460.88,-1242.32,-1557.26,7.0400995968026265
0,-1914.14,-454.09,-1227.76,-1551.68,7.045099667538992
0,-1911.79,-449.82,-1225.28,-1556.05,7.050099738275357
0,-1900.66,-450.64,-1223.37,-1546.65,7.055099809011722
0,-1915.34,-464.99,-1237.45,-1566.77,7.060099879748087
0,-1925.22,-466.94,-1249.47,-1570.18,7.065099950484452
0,-1919.22,-460.8,-1242.76,-1557.29,7.070100021220817
0,-1918.55,-461.35,-1239.86,-1555.19,7.075100091957182
0,-1911.64,-453.43,-1226.29,-1552.85,7.080100162693547
0,-1905.83,-459.94,-1228.71,-1548.34,7.0851002334299125
0,-1908.87,-463.03,-1237.16,-1553.1,7.090100304166278
0,-1916.53,-472.05,-1246.39,-1557.44,7.095100374902643
0,-1915.87,-473.6,-1245.53,-1555.6,7.100100445639008
0,-1919.66,-468.93,-1243.11,-1557.53,7.105100516375373
0,-1930.64,-481.44,-1260.48,-1569.94,7.110100587111738
0,-1932.55,-476.71,-1267.75,-1576.16,7.11510065784811
0,-1940.49,-477.56,-1268.64,-1576.25,7.120100728584475
0,-1950.44,-489.74,-1276.35,-1578.54,7.12510079932084
0,-1967.77,-489.94,-1285.4,-1585.79,7.1301008700572055
0,-1965.49,-490.81,-1275.87,-1582.86,7.135100940793571
0,-1954.02,-480.48,-1268.39,-1573.17,7.140101011529936
0,-1941.3,-480.15,-1265.82,-1572.61,7.145101082266301
0,-1934.14,-473.84,-1258.76,-1572.36,7.150101153002666
0,-1923.25,-468.07,-1248.5,-1573.54,7.155101223739031
0,-1916.03,-469.58,-1247.11,-1569.72,7.160101294475396
0,-1912.62,-454.35,-1240.82,-1563.65,7.165101365211761
0,-1924.65,-466.69,-1248.0,-1576.18,7.170101435948126
0,-1932.19,-474.26,-1260.56,-1579.88,7.175101506684491
0,-1945.59,-482.23,-1279.63,-1592.88,7.1801015774208565
0,-1959.69,-494.18,-1285.17,-1595.07,7.185101648157222
0,-1963.65,-489.54,-1281.27,-1589.26,7.190101718893587
0,-1966.74,-489.48,-1280.4,-1591.4,7.195101789629952
0,-1980.97,-500.0,-1294.28,-1598.56,7.200101860366317
0,-1981.84,-502.68,-1293.6,-1594.53,7.205101931102689
0,-1992.71,-510.97,-1300.81,-1596.16,7.210102001839054
0,-1991.94,-519.79,-1307.5,-1599.62,7.215102072575419
0,-1975.0,-507.66,-1298.17,-1591.4,7.2201021433117845
0,-1958.91,-500.92,-1286.76,-1583.15,7.22510221404815
0,-1937.85,-487.83,-1270.43,-1574.71,7.230102284784515
0,-1913.16,-479.67,-1249.31,-1564.32,7.23510235552088
0,-1896.4,-465.52,-1236.39,-1551.65,7.240102426257245
0,-1890.4,-458.65,-1225.63,-1538.8,7.24510249699361
0,-1885.01,-452.66,-1211.91,-1530.05,7.250102567729975
0,-1886.03,-452.92,-1222.74,-1530.52,7.25510263846634
0,-1907.58,-464.9,-1227.6,-1541.05,7.260102709202705
0,-1917.23,-465.35,-1245.24,-1553.06,7.26510277993907
0,-1918.31,-470.71,-1249.19,-1552.35,7.2701028506754355
0,-1911.78,-464.39,-1245.68,-1552.28,7.275102921411801
0,-1909.47,-463.15,-1245.64,-1553.44,7.280102992148166
0,-1910.42,-471.5,-1245.9,-1559.99,7.285103062884531
0,-1918.26,-472.37,-1250.21,-1570.41,7.290103133620896
0,-1920.17,-477.13,-1258.13,-1571.84,7.295103204357268
0,-1928.97,-479.66,-1264.55,-1574.9,7.300103275093633
0,-1936.16,-488.13,-1266.03,-1581.11,7.305103345829998
0,-1937.2,-482.11,-1268.34,-1573.28,7.310103416566363
0,-1945.96,-489.6,-1273.77,-1578.75,7.3151034873027285
0,-1939.3,-483.21,-1268.65,-1576.4,7.320103558039094
0,-1924.88,-473.35,-1259.71,-1567.52,7.325103628775459
0,-1929.75,-479.05,-1262.06,-1568.56,7.330103699511824
0,-1932.29,-486.21,-1262.99,-1567.86,7.335103770248189
0,-1936.25,-488.0,-1266.31,-1567.64,7.340103840984554
0,-1940.49,-490.84,-1269.99,-1564.76,7.345103911720919
0,-1951.28,-497.09,-1276.49,-1577.39,7.350103982457284
0,-1954.76,-500.62,-1286.39,-1590.16,7.355104053193649
0,-1956.98,-500.27,-1286.32,-1585.02,7.3601041239300145
0,-1957.3,-501.69,-1284.36,-1591.35,7.3651041946663796
0,-1949.3,-498.18,-1279.69,-1582.88,7.370104265402745
0,-1935.22,-486.83,-1264.77,-1572.0,7.37510433613911
0,-1933.37,-486.83,-1263.68,-1575.43,7.380104406875475
0,-1931.33,-481.62,-1259.81,-1579.43,7.385104477611847
0,-1923.65,-474.33,-1253.47,-1575.31,7.390104548348212
0,-1914.4,-461.94,-1244.58,-1564.12,7.395104619084577
0,-1914.82,-467.06,-1247.55,-1564.12,7.400104689820942
0,-1922.11,-461.93,-1248.69,-1561.19,7.4051047605573075
0,-1914.94,-456.93,-1244.76,-1555.17,7.410104831293673
0,-1920.29,-457.67,-1242.12,-1559.69,7.415104902030038
0,-1914.11,-456.77,-1237.23,-1560.65,7.420104972766403
0,-1908.5,-453.88,-1240.06,-1559.07,7.425105043502768
0,-1911.82,-462.64,-1241.07,-1558.31,7.430105114239133
0,-1907.26,-454.41,-1238.88,-1555.93,7.435105184975498
0,-1908.97,-464.67,-1241.42,-1557.16,7.440105255711863
0,-1914.29,-476.92,-1249.1,-1564.79,7.445105326448228
0,-1906.68,-467.9,-1240.83,-1557.82,7.450105397184593
0,-1915.21,-467.66,-1242.42,-1564.13,7.4551054679209585
0,-1906.3,-458.58,-1231.76,-1556.54,7.460105538657324
0,-1912.29,-465.73,-1241.68,-1560.19,7.465105609393689
0,-1928.35,-472.17,-1252.59,-1565.14,7.470105680130054
0,-1937.02,-483.78,-1254.41,-1568.17,7.475105750866426
0,-1928.27,-475.35,-1253.08,-1564.27,7.480105821602791
0,-1924.34,-476.69,-1254.79,-1561.54,7.485105892339156
0,-1926.44,-479.46,-1254.09,-1574.06,7.490105963075521
0,-1926.93,-473.12,-1250.1,-1567.04,7.4951060338118864
0,-1929.93,-479.42,-1258.12,-1574.44,7.5001061045482516
0,-1927.49,-465.87,-1253.95,-1561.74,7.505106175284617
0,-1929.94,-478.72,-1253.79,-1565.72,7.510106246020982
0,-1921.96,-479.17,-1255.91,-1564.23,7.515106316757347
0,-1928.73,-475.63,-1257.62,-1569.96,7.520106387493712
0,-1924.02,-479.29,-1249.54,-1570.47,7.525106458230077
0,-1927.46,-478.42,-1252.98,-1574.37,7.530106528966442
0,-1925.19,-474.71,-1260.89,-1569.58,7.535106599702807
0,-1933.07,-482.32,-1270.86,-1565.84,7.540106670439172
0,-1936.17,-482.35,-1268.27,-1568.02,7.5451067411755375
0,-1941.91,-489.57,-1275.29,-1577.42,7.550106811911903
0,-1945.44,-486.97,-1273.0,-1583.51,7.555106882648268
0,-1948.76,-493.83,-1280.06,-1592.5,7.560106953384633
0,-1944.84,-493.79,-1276.48,-1586.16,7.565107024121005
0,-1940.63,-485.17,-1272.31,-1582.12,7.57010709485737
0,-1928.54,-484.96,-1258.73,-1573.32,7.575107165593735
0,-1933.08,-479.11,-1258.38,-1574.49,7.5801072363301
0,-1937.46,-483.9,-1265.25,-1578.45,7.585107307066465
0,-1938.07,-473.49,-1263.75,-1573.58,7.5901073778028305
0,-1936.24,-474.86,-1259.95,-1574.26,7.595107448539196
0,-1931.38,-470.32,-1250.96,-1564.83,7.600107519275561
0,-1925.69,-472.68,-1258.45,-1564.92,7.605107590011926
0,-1922.23,-470.42,-1251.99,-1562.75,7.610107660748291
0,-1925.33,-467.78,-1250.84,-1570.37,7.615107731484656
0,-1926.77,-472.48,-1254.0,-1574.66,7.620107802221021
0,-1926.97,-475.62,-1262.41,-1574.84,7.625107872957386
0,-1930.59,-471.54,-1251.68,-1569.12,7.630107943693751
0,-1930.54,-472.16,-1256.12,-1562.52,7.635108014430116
0,-1920.35,-464.52,-1243.49,-1561.73,7.6401080851664815
0,-1906.44,-469.94,-1237.59,-1554.81,7.645108155902847
0,-1914.81,-463.96,-1243.72,-1558.13,7.650108226639219
0,-1913.47,-463.79,-1240.84,-1556.43,7.655108297375584
0,-1913.05,-469.68,-1245.31,-1556.07,7.660108368111949
0,-1918.76,-462.07,-1246.82,-1556.67,7.665108438848314
0,-1919.06,-465.14,-1243.02,-1562.05,7.670108509584679
0,-1927.98,-469.03,-1254.47,-1575.12,7.675108580321044
0,-1928.25,-475.12,-1261.05,-1576.02,7.6801086510574095
0,-1935.52,-480.89,-1263.67,-1580.08,7.685108721793775
0,-1925.92,-476.07,-1256.26,-1569.5,7.69010879253014
0,-1923.65,-470.75,-1245.66,-1558.53,7.695108863266505
0,-1924.14,-466.55,-1251.02,-1564.09,7.70010893400287
0,-1934.14,-481.22,-1258.74,-1571.07,7.705109004739235
0,-1933.58,-486.0,-1256.82,-1570.51,7.7101090754756
0,-1945.14,-494.52,-1268.83,-1577.36,7.715109146211965
0,-1937.4,-486.62,-1267.09,-1567.73,7.72010921694833
0,-1934.18,-481.45,-1257.32,-1564.5,7.725109287684695
0,-1930.75,-473.99,-1265.84,-1567.06,7.7301093584210605
0,-1931.98,-481.33,-1267.52,-1572.5,7.735109429157426
0,-1930.81,-479.99,-1261.52,-1575.53,7.740109499893798
0,-1939.28,-480.28,-1260.84,-1574.19,7.745109570630163
0,-1937.65,-482.27,-1261.13,-1577.54,7.750109641366528
0,-1934.24,-484.32,-1260.3,-1572.85,7.755109712102893
0,-1935.71,-482.27,-1262.84,-1569.3,7.760109782839258
0,-1935.57,-489.16,-1265.3,-1575.1,7.765109853575623
0,-1933.09,-485.67,-1262.03,-1576.31,7.770109924311988
0,-1935.78,-495.47,-1268.62,-1584.64,7.7751099950483535
0,-1940.41,-489.64,-1264.81,-1580.7,7.780110065784719
0,-1923.46,-474.01,-1259.61,-1570.87,7.785110136521084
0,-1925.77,-475.31,-1255.69,-1572.36,7.790110207257449
0,-1921.07,-472.88,-1253.27,-1572.03,7.795110277993814
0,-1925.54,-474.85,-1252.66,-1574.19,7.800110348730179
0,-1923.38,-478.14,-1254.25,-1575.68,7.805110419466544
0,-1921.73,-477.72,-1254.77,-1574.15,7.810110490202909
0,-1930.69,-477.21,-1260.18,-1573.92,7.815110560939274
0,-1925.55,-472.36,-1254.05,-1564.09,7.8201106316756395
0,-1928.41,-477.0,-1252.55,-1561.33,7.825110702412005
0,-1930.06,-474.36,-1256.93,-1567.48,7.830110773148377
0,-1925.54,-473.47,-1259.07,-1570.94,7.835110843884742
0,-1920.29,-475.86,-1251.53,-1570.45,7.840110914621107
0,-1919.68,-463.51,-1244.8,-1563.83,7.845110985357472
0,-1912.1,-453.26,-1241.72,-1555.59,7.850111056093837
0,-1924.5,-465.46,-1253.63,-1567.71,7.855111126830202
0,-1925.88,-467.39,-1250.59,-1570.16,7.860111197566567
0,-1932.16,-476.06,-1260.15,-1575.98,7.8651112683029325
0,-1938.08,-479.21,-1268.28,-1578.35,7.870111339039298
0,-1929.84,-478.75,-1260.73,-1574.26,7.875111409775663
0,-1924.31,-472.89,-1255.34,-1569.51,7.880111480512028
0,-1924.88,-477.01,-1250.53,-1570.59,7.885111551248393
0,-1925.68,-474.65,-1255.65,-1566.75,7.890111621984758
0,-1934.5,-480.36,-1256.23,-1570.97,7.895111692721123
0,-1937.76,-481.83,-1264.06,-1576.32,7.900111763457488
0,-1933.33,-479.92,-1262.0,-1572.8,7.905111834193853
0,-1939.13,-481.41,-1260.52,-1569.38,7.910111904930218
0,-1937.73,-479.27,-1264.02,-1571.46,7.9151119756665835
0,-1931.41,-473.59,-1253.61,-1563.28,7.920112046402956
0,-1924.62,-464.36,-1248.43,-1557.36,7.925112117139321
0,-1925.14,-468.69,-1251.68,-1556.76,7.930112187875686
0,-1915.11,-466.11,-1248.16,-1553.66,7.935112258612051
0,-1897.97,-446.46,-1228.73,-1535.04,7.940112329348416
0,-1912.22,-467.93,-1248.09,-1552.25,7.945112400084781
0,-1912.59,-459.79,-1241.18,-1550.82,7.950112470821146
0,-1924.12,-469.96,-1244.83,-1560.31,7.9551125415575115
0,-1922.38,-477.15,-1251.67,-1566.56,7.960112612293877
0,-1923.21,-473.11,-1250.32,-1565.71,7.965112683030242
0,-1920.88,-474.4,-1252.11,-1571.23,7.970112753766607
0,-1922.64,-469.44,-1249.63,-1566.3,7.975112824502972
0,-1926.61,-466.19,-1247.51,-1572.16,7.980112895239337
0,-1927.23,-475.66,-1255.46,-1567.17,7.985112965975702
0,-1937.43,-483.34,-1266.79,-1579.63,7.990113036712067
0,-1936.42,-480.55,-1268.0,-1574.4,7.995113107448432
0,-1930.27,-480.02,-1260.44,-1570.71,8.000113178184797
0,-1941.26,-485.77,-1268.56,-1575.98,8.005113248921162
0,-1935.96,-480.75,-1263.08,-1570.54,8.010113319657535
0,-1940.69,-483.0,-1263.79,-1570.09,8.0151133903939
0,-1930.69,-473.47,-1257.21,-1561.37,8.020113461130265
0,-1935.74,-474.31,-1262.79,-1567.33,8.02511353186663
0,-1934.94,-479.88,-1261.62,-1565.5,8.030113602602995
0,-1938.93,-487.36,-1265.37,-1567.61,8.03511367333936
0,-1936.16,-481.64,-1258.9,-1570.32,8.040113744075725
0,-1939.43,-484.83,-1264.17,-1574.61,8.04511381481209
0,-1932.71,-481.36,-1262.86,-1579.57,8.050113885548456
0,-1927.87,-477.97,-1249.99,-1574.25,8.05511395628482
0,-1924.59,-473.76,-1248.13,-1563.69,8.060114027021186
0,-1931.16,-480.53,-1255.82,-1568.99,8.06511409775755
0,-1938.39,-482.05,-1262.49,-1569.36,8.070114168493916
0,-1935.58,-480.96,-1263.16,-1566.81,8.075114239230281
0,-1925.09,-468.64,-1253.32,-1560.34,8.080114309966646
0,-1930.63,-472.0,-1254.35,-1556.14,8.085114380703011
0,-1932.32,-473.33,-1255.54,-1559.03,8.090114451439376
0,-1933.88,-473.22,-1261.18,-1560.18,8.095114522175741
0,-1932.38,-470.01,-1256.92,-1566.16,8.100114592912114
0,-1938.39,-479.9,-1269.52,-1578.1,8.105114663648479
0,-1933.25,-477.94,-1262.67,-1572.24,8.110114734384844
0,-1929.36,-468.04,-1259.01,-1568.19,8.115114805121209
0,-1936.6,-477.61,-1263.54,-1567.37,8.120114875857574
0,-1935.53,-477.51,-1264.09,-1569.2,8.12511494659394
0,-1940.26,-481.35,-1261.8,-1575.08,8.130115017330304
0,-1945.91,-487.96,-1273.3,-1577.14,8.13511508806667
0,-1942.52,-501.58,-1273.76,-1584.14,8.140115158803034
0,-1932.42,-487.3,-1265.77,-1574.53,8.1451152295394
0,-1924.59,-474.49,-1253.97,-1565.6,8.150115300275765
0,-1925.09,-478.28,-1251.16,-1565.9,8.15511537101213
0,-1925.2,-472.84,-1247.92,-1566.4,8.160115441748495
0,-1923.87,-474.95,-1251.53,-1565.47,8.16511551248486
0,-1925.33,-474.31,-1250.7,-1562.21,8.170115583221225
0,-1935.52,-476.76,-1265.07,-1570.51,8.17511565395759
0,-1925.7,-471.67,-1254.49,-1566.28,8.180115724693955
0,-1925.85,-472.51,-1255.17,-1570.55,8.18511579543032
0,-1929.36,-482.33,-1259.3,-1573.74,8.190115866166693
0,-1926.18,-482.27,-1259.96,-1569.93,8.195115936903058
0,-1929.58,-476.52,-1262.35,-1571.51,8.200116007639423
0,-1929.52,-477.17,-1263.88,-1570.81,8.205116078375788
0,-1931.23,-482.43,-1263.68,-1567.19,8.210116149112153
0,-1933.22,-481.69,-1256.91,-1571.82,8.215116219848518
0,-1935.24,-487.74,-1265.04,-1572.1,8.220116290584883
0,-1938.25,-484.89,-1259.15,-1574.71,8.225116361321248
0,-1943.09,-480.12,-1266.69,-1573.62,8.230116432057613
0,-1931.79,-477.95,-1255.69,-1568.8,8.235116502793979
0,-1925.06,-466.2,-1253.96,-1565.31,8.240116573530344
0,-1921.61,-474.13,-1250.63,-1558.98,8.245116644266709
0,-1923.98,-474.92,-1253.11,-1561.78,8.250116715003074
0,-1928.3,-476.41,-1253.56,-1564.5,8.255116785739439
0,-1923.19,-472.8,-1256.25,-1569.67,8.260116856475804
0,-1929.33,-480.24,-1262.83,-1568.77,8.26511692721217
0,-1933.9,-487.46,-1260.29,-1571.98,8.270116997948534
0,-1930.18,-482.3,-1259.43,-1568.19,8.2751170686849
0,-1931.34,-486.32,-1262.42,-1572.05,8.280117139421272
0,-1929.2,-474.97,-1256.69,-1567.6,8.285117210157637
0,-1924.74,-471.37,-1250.56,-1559.56,8.290117280894002
0,-1929.94,-479.99,-1257.14,-1564.13,8.295117351630367
0,-1929.69,-475.57,-1257.63,-1568.09,8.300117422366732
0,-1926.95,-477.38,-1261.52,-1563.62,8.305117493103097
0,-1934.99,-484.92,-1266.84,-1566.71,8.310117563839462
0,-1932.24,-479.14,-1257.16,-1567.98,8.315117634575827
0,-1928.66,-481.13,-1254.12,-1578.3,8.320117705312192
0,-1927.37,-478.36,-1260.37,-1575.66,8.325117776048558
0,-1930.3,-476.05,-1254.4,-1570.76,8.330117846784923
0,-1927.52,-476.0,-1255.44,-1573.31,8.335117917521288
0,-1930.57,-475.44,-1251.59,-1569.36,8.340117988257653
0,-1925.81,-473.77,-1253.9,-1567.43,8.345118058994018
0,-1925.19,-474.43,-1251.89,-1567.63,8.350118129730383
0,-1930.45,-479.88,-1259.89,-1574.85,8.355118200466748
0,-1938.3,-483.1,-1263.04,-1580.05,8.360118271203113
0,-1932.9,-478.67,-1262.66,-1576.01,8.365118341939485
0,-1937.12,-484.87,-1274.69,-1588.1,8.37011841267585
0,-1930.84,-482.54,-1261.76,-1580.27,8.375118483412216
0,-1931.34,-479.23,-1254.31,-1573.52,8.38011855414858
0,-1931.24,-476.08,-1257.11,-1575.64,8.385118624884946
0,-1933.98,-473.2,-1256.43,-1578.61,8.390118695621311
0,-1935.86,-481.4,-1269.94,-1580.02,8.395118766357676
0,-1940.65,-484.21,-1263.5,-1570.89,8.400118837094041
0,-1930.23,-475.98,-1257.65,-1567.54,8.405118907830406
0,-1933.7,-481.99,-1264.06,-1572.38,8.410118978566771
0,-1924.08,-470.24,-1256.59,-1562.68,8.415119049303136
0,-1934.9,-474.95,-1257.25,-1569.27,8.420119120039502
0,-1929.26,-474.65,-1255.63,-1567.4,8.425119190775867
0,-1938.67,-479.18,-1259.7,-1570.29,8.430119261512232
0,-1934.75,-477.33,-1256.78,-1567.15,8.435119332248597
0,-1934.12,-475.37,-1257.82,-1561.84,8.440119402984962
0,-1931.65,-476.17,-1261.72,-1568.9,8.445119473721327
0,-1919.55,-478.1,-1249.67,-1563.97,8.450119544457692
0,-1915.14,-468.91,-1243.64,-1561.0,8.455119615194064
0,-1922.82,-470.52,-1247.35,-1567.37,8.46011968593043
0,-1918.07,-467.01,-1247.8,-1569.33,8.465119756666795
0,-1913.54,-461.29,-1246.7,-1559.23,8.47011982740316
0,-1918.93,-462.0,-1243.08,-1563.19,8.475119898139525
0,-1925.04,-468.49,-1245.49,-1561.26,8.48011996887589
0,-1921.62,-462.44,-1251.51,-1557.89,8.485120039612255
0,-1927.56,-469.11,-1256.19,-1561.23,8.49012011034862
0,-1920.72,-471.73,-1244.93,-1557.43,8.495120181084985
0,-1921.99,-470.91,-1251.35,-1560.28,8.50012025182135
0,-1914.81,-466.74,-1251.79,-1556.99,8.505120322557715
0,-1923.78,-467.45,-1254.27,-1562.56,8.51012039329408
0,-1924.95,-478.42,-1255.88,-1561.48,8.515120464030446
0,-1933.17,-475.4,-1256.21,-1571.53,8.52012053476681
0,-1916.77,-466.32,-1244.15,-1559.88,8.525120605503176
0,-1915.09,-459.57,-1241.9,-1551.85,8.530120676239541
0,-1919.96,-470.43,-1247.13,-1561.86,8.535120746975906
0,-1921.81,-470.39,-1254.26,-1564.18,8.540120817712271
0,-1924.75,-472.45,-1250.35,-1564.02,8.545120888448643
0,-1923.63,-470.56,-1248.25,-1564.77,8.550120959185008
0,-1919.11,-467.23,-1256.28,-1566.77,8.555121029921374
0,-1909.29,-460.94,-1249.0,-1558.68,8.560121100657739
0,-1920.92,-466.18,-1249.08,-1565.28,8.565121171394104
0,-1928.17,-476.39,-1257.18,-1572.68,8.570121242130469
0,-1934.1,-475.79,-1259.16,-1576.45,8.575121312866834
0,-1934.54,-483.35,-1262.63,-1575.12,8.580121383603199
0,-1934.35,-479.71,-1261.08,-1576.18,8.585121454339564
0,-1935.29,-486.08,-1263.38,-1579.91,8.59012152507593
0,-1930.99,-480.85,-1263.01,-1572.48,8.595121595812294
0,-1928.46,-478.09,-1255.07,-1565.36,8.60012166654866
0,-1932.25,-469.55,-1256.49,-1561.51,8.605121737285025
0,-1930.25,-470.47,-1254.08,-1560.36,8.61012180802139
0,-1926.58,-474.36,-1250.6,-1560.85,8.615121878757755
0,-1922.93,-473.06,-1247.09,-1557.65,8.62012194949412
0,-1919.77,-469.37,-1242.32,-1552.34,8.625122020230485
0,-1915.38,-460.31,-1240.67,-1555.84,8.63012209096685
0,-1924.14,-467.91,-1244.94,-1560.28,8.635122161703222
0,-1920.43,-469.21,-1245.97,-1561.86,8.640122232439587
0,-1921.27,-469.46,-1246.28,-1563.27,8.645122303175953
0,-1919.39,-471.07,-1247.22,-1565.67,8.650122373912318
0,-1925.17,-474.36,-1254.45,-1570.51,8.655122444648683
0,-1931.51,-473.82,-1253.9,-1574.06,8.660122515385048
0,-1935.48,-478.38,-1255.94,-1574.48,8.665122586121413
0,-1938.15,-486.43,-1269.23,-1585.36,8.670122656857778
0,-1930.35,-481.51,-1260.04,-1572.62,8.675122727594143
0,-1929.66,-481.02,-1262.61,-1570.07,8.680122798330508
0,-1929.55,-479.78,-1258.61,-1570.31,8.685122869066873
0,-1925.62,-481.38,-1258.73,-1577.46,8.690122939803238
0,-1934.01,-484.85,-1270.78,-1578.82,8.695123010539604
0,-1933.42,-476.89,-1261.88,-1578.68,8.700123081275969
0,-1941.84,-479.24,-1262.58,-1575.18,8.705123152012334
0,-1938.53,-482.7,-1266.19,-1577.82,8.710123222748699
0,-1943.89,-489.3,-1268.14,-1583.5,8.715123293485064
0,-1936.69,-484.82,-1267.11,-1571.68,8.720123364221429
0,-1928.35,-472.46,-1251.41,-1561.08,8.725123434957801
0,-1935.09,-476.26,-1261.98,-1573.82,8.730123505694166
0,-1932.57,-477.82,-1256.21,-1571.14,8.735123576430532
0,-1934.84,-478.95,-1264.57,-1570.67,8.740123647166897
0,-1938.41,-479.83,-1271.67,-1577.53,8.745123717903262
0,-1938.76,-476.37,-1266.21,-1570.68,8.750123788639627
0,-1939.01,-474.17,-1264.3,-1569.14,8.755123859375992
0,-1938.36,-472.09,-1262.5,-1572.84,8.760123930112357
0,-1930.24,-474.8,-1252.6,-1572.7,8.765124000848722
0,-1930.33,-467.9,-1253.16,-1573.47,8.770124071585087
0,-1925.73,-468.39,-1248.78,-1568.28,8.775124142321452
0,-1931.62,-477.15,-1259.0,-1571.32,8.780124213057817
0,-1931.42,-485.82,-1259.26,-1567.65,8.785124283794183
0,-1931.28,-492.79,-1260.24,-1577.65,8.790124354530548
0,-1931.91,-481.21,-1261.58,-1578.39,8.795124425266913
0,-1935.42,-479.22,-1266.38,-1576.29,8.800124496003278
0,-1936.33,-487.99,-1270.25,-1587.39,8.805124566739643
0,-1938.79,-483.0,-1264.73,-1579.0,8.810124637476008
0,-1931.08,-481.23,-1262.14,-1575.78,8.81512470821238
0,-1926.32,-485.19,-1251.53,-1571.64,8.820124778948745
0,-1920.46,-472.91,-1247.5,-1564.29,8.82512484968511
0,-1921.87,-476.04,-1252.74,-1569.16,8.830124920421476
0,-1930.12,-474.64,-1259.91,-1575.87,8.83512499115784
0,-1928.97,-474.48,-1259.67,-1571.91,8.840125061894206
0,-1923.28,-467.84,-1252.91,-1558.17,8.84512513263057
0,-1918.67,-458.68,-1242.29,-1547.03,8.850125203366936
