labels,F4,F3,Fz,Cz,timestamps
0,-1.0280366213565415,-15.176008263120927,-4.416035850839215,-1.842113165329749,-1.9998904559770097
0,0.692357295976213,-3.0360210620453505,2.6649075006530842,-1.1222659585629686,-1.994890729837067
0,-0.46724988665079853,5.223965025158294,1.0658502803323335,5.027580810877799,-1.9898910036971245
0,7.403141838494066,11.023950005055186,4.976792497561758,4.26742714525736,-1.9848912775571819
0,3.193532478946632,8.593933883864992,5.527734161475068,-0.24272695340994857,-1.9798915514172393
0,5.083922041873096,3.4439166670656407,5.478675280811481,1.6671185166174762,-1.9748918252772967
0,3.004310534002569,4.6438983594088565,8.169615863799596,3.856963556888445,-1.969892099137354
0,1.1546979616745843,7.023878965088519,3.170555918083545,1.9368081687677927,-1.9648923729974115
0,2.0350843309360345,12.78385848774355,3.64149545074381,2.7566523533738145,-1.959892646857469
0,0.4154696476359724,3.8738369302870694,7.682434468375555,-0.9735038884091429,-1.9548929207175263
0,-3.924146082484729,1.6838142948622201,5.853372977093049,-1.7336605558342053,-1.9498931945775837
0,-4.143762853635128,-3.3162094169052043,-1.2756890175145976,-4.383817648129985,-1.944893468437641
0,-5.443380659770649,-5.81623420350647,-5.714751510213797,-7.963975164298537,-1.9398937422976985
0,-3.2529994944480607,-7.836260063186526,0.2061855042230224,-0.10413310293926728,-1.934894016157756
0,-6.0026193507868575,-7.3862869936727655,-5.342877968744522,-5.834291462205471,-1.9298942900178133
0,5.797759778482363,13.413685007855063,17.288058076507646,9.715549760056234,-1.9248945638778707
0,8.73813790076602,10.703655944319927,8.858993645353408,1.6353905660186026,-1.9198948377379281
0,-2.9914849767712517,5.593625818089061,0.9899287424424514,4.435230957574428,-1.9148951115979855
0,2.2288911526729605,12.79359463064288,6.630863371646885,-3.764929063730664,-1.909895385458043
0,9.839266295646352,7.423562382557362,8.071797536273197,10.224910503420071,-1.9048956593181003
0,-0.9603595415981946,-1.0964709264338897,2.502731239093263,-3.2552503398685113,-1.8998959331781577
0,3.5900136467991643,-0.6565052971827373,11.27366448228949,6.094588407241742,-1.8948962070382152
0,7.170385866346977,-2.466540730729563,1.4645972674296641,3.3944267453144907,-1.8898964808982726
0,10.410757122149166,1.0834227719448903,3.285529595507434,6.124264674587014,-1.88489675475833
0,5.301127418680835,1.8433852099347476,1.9464614670787683,3.4941021948732973,-1.8798970286183874
0,-1.7885032402787289,-2.796653417669007,-2.81260711755423,2.9639393055408525,-1.8748973024784448
0,6.121865148566145,2.013306888201104,8.508323841766773,8.653776005534779,-1.8698975763385022
0,3.9322325882110025,3.6932661265924676,7.839254344982077,4.703612293331069,-1.8648978501985596
0,10.20259908127925,2.8732242964278085,8.060184391535312,9.173448166823087,-1.859898124058617
0,6.172964629828689,6.683181396353022,9.971113980138593,6.103283623247089,-1.8548983979186744
0,5.353329235227558,5.053137424612415,6.302043108685212,7.953118659136481,-1.8498986717787318
0,-3.316307101763556,6.873092378949349,4.08297177428112,3.8629532703339637,-1.8448989456387928
0,-1.1759443807061412,4.573046256547157,-1.4261000265777315,1.8627874520828243,-1.8398992194988502
0,2.1344173988108235,-3.8070009459139724,0.6648277022674813,2.1126211991939448,-1.8348994933589076
0,0.5247782372304671,0.562950767969915,6.485754956838584,-0.7675454937771655,-1.829899767218965
0,-3.7948618650193513,-1.7870986054134534,-10.063318266957603,-5.667712632369259,-1.8249000410790224
0,-10.754502907420056,-12.07714906951534,-11.182391973141572,-11.457880221947534,-1.8199003149390798
0,-10.314144889013388,-18.987200627302784,-15.36146616516586,-9.888048267324871,-1.8149005887991372
0,-10.313787808046069,-18.327253280687408,-16.690540845390693,-10.858216772446168,-1.8099008626591946
0,-10.153431661789492,-14.567307030047296,-11.939616014804265,-14.278385740230501,-1.804901136519252
0,-6.7530764465330915,-6.827361874158648,-3.5786916730299745,-4.628555172513096,-1.7999014103793094
0,-3.3527221576976034,-13.387417810456586,-4.1177678186414735,1.181274929822047,-1.7949016842393668
0,3.4376312099139055,-1.7574748353226473,-3.056844449572542,-2.948895433538393,-1.7899019580994242
0,5.427983661731343,1.462467055638686,-3.2359215633503418,-2.6190662626607146,-1.7849022319594816
0,-3.1216647969325004,4.0224078671945245,-0.9349991571860945,1.8707624425464462,-1.779902505819539
0,5.938685839014449,5.162347604054041,2.5359227719355326,3.0705906822699003,-1.7749027796795964
0,8.129035574429711,9.82228627056872,6.646844227059066,5.350418456605493,-1.7699030535396538
0,2.73938441378379,9.062223870500203,5.767765210981139,7.410245765328138,-1.7649033273997112
0,9.339732360999584,0.4021604068777378,6.4786857260205455,0.0900726077531256,-1.7599036012597686
0,-0.9699205805538467,0.4220958821177345,0.5396057739458717,1.2998989827638519,-1.754903875119826
0,-9.789574407883839,-4.5879697016422,-8.029474643854186,-7.930275110954003,-1.7499041489798834
0,-5.219229117935107,4.921963657737297,-2.978555525991617,-4.23044967459235,-1.7449044228399408
0,-1.3088847071923198,0.5818959624269645,-6.75763687072372,-0.6806247089774741,-1.7399046966999983
0,1.5514588283151436,-8.508172785434777,-0.7967186758373014,1.2891997854115944,-1.7349049705600557
0,-3.6181985072203124,-3.70824258359415,-7.625800938684295,-9.260976191700653,-1.729905244420113
0,-4.017856709488201,-1.0083134294332012,-1.9748836562078964,-5.251152640339636,-1.7249055182801705
0,5.12248422598927,9.391614679971706,2.3760331750221404,2.908670439892174,-1.7199057921402279
0,-3.1271756961875017,-4.408458252478011,-3.563050441337908,-3.7715069502484635,-1.7149060660002853
0,-5.996836471374908,0.4314677759279194,-1.2221345015303935,0.2683151901672617,-1.7099063398603427
0,-1.0964980947612923,-5.708607232138388,4.608780998289224,2.608136862141453,-1.7049066137204
0,-4.896160561214934,-1.118683273823802,-5.480303937997802,0.4579580666752514,-1.6999068875804575
0,-1.3458238652714987,-8.368760345972555,-2.759389306474195,1.8477788046700294,-1.694907161440515
0,4.454511998780451,6.771161554911438,5.261524896905269,8.55759907684559,-1.6899074353005723
0,1.64484703671018,-2.288917567460119,2.1724386762519914,0.047418883620411106,-1.6849077091606297
0,0.9551812541395956,0.12100229064397067,0.02335203553231932,4.327238225024486,-1.6799079830206871
0,2.905514656490903,4.180921132896024,1.7042649785115358,0.8370571007552121,-1.6749082568807445
0,3.1458472489919136,-3.839161037100715,4.905177508796452,0.9168755102741298,-1.669908530740802
0,6.51617903661682,-0.9092442157851537,4.326089629773957,-0.4033065471143269,-1.6649088046008593
0,2.6065100239734478,-2.0593283995233436,-0.18299865549614194,-4.153489072150023,-1.6599090784609167
0,7.256840215229391,0.4705864154659397,4.127912655737888,8.686327934460683,-1.6549093523209741
0,4.45716961407464,-2.219499766912582,-0.02117643400002807,4.576144471931494,-1.6499096261810315
0,2.74749822370713,2.250413057324985,-2.870265922341556,5.39596053911409,-1.644909900041089
0,6.407826046862543,10.600324892124522,0.2806441930514866,0.08577613437829701,-1.6399101739011464
0,9.928153085806297,1.3302357411354369,7.881553914543083,5.995591255691668,-1.6349104477612038
0,8.488479342182977,11.370145607476429,10.462463244300054,9.375405900657944,-1.6299107216212612
0,18.998804816780307,21.36005449353919,19.42337218384048,8.215220066347873,-1.6249109954813186
0,9.40912950927467,16.74996240058131,13.344280733551768,7.405033749096946,-1.619911269341376
0,0.2694534181496274,2.5498693283703964,8.695188892430803,0.044846944497231006,-1.6149115432014334
0,5.31977654099248,3.499775275391174,7.536096658193017,6.534659647569933,-1.6099118170614908
0,0.9500988749001554,4.669680239382572,1.7970040275995567,1.6944718529380234,-1.6049120909215517
0,-6.1595795832739535,-5.810415782287211,-3.5820890031813932,-5.795716445069834,-1.5999123647816091
0,-7.799258836644623,-4.710512792349865,-0.41118243819164024,-2.1759052521901068,-1.5949126386416665
0,-7.0789388879250525,-5.470610793312449,-3.4102762814013725,-5.926094573939538,-1.589912912501724
0,-5.568619739191588,1.5192902127269003,-6.4193705365680405,-9.366284415424424,-1.5849131863617814
0,-8.018301391851393,-4.960809775986527,-3.4484652071150967,-8.456474781165044,-1.5799134602218388
0,-4.457983846665343,4.88908923898966,-2.7275602960456347,0.9633343250173902,-1.5749137340818962
0,2.7723328961687588,-4.341012743816394,-2.7466558059759585,-1.7468571001380435,-1.5699140079419536
0,-2.9873511632038223,-9.491115725781253,-3.2857517392129822,-0.3570490596201312,-1.564914281802011
0,3.1629639754706407,-2.401219707965457,-3.834848097773031,2.672758443667635,-1.5599145556620684
0,-1.4967216875513292,-2.011324690936071,-5.193944883343191,3.922565406780024,-1.5549148295221258
0,-2.7964081520208777,-8.661430674813323,-1.6530420972374347,-0.037628173399137904,-1.5499151033821832
0,-4.116095417600114,-4.331537659289855,-6.0021397403893175,-4.5378223001647155,-1.5449153772422406
0,4.094216516243328,-2.381645643559621,4.108762186597792,1.2519830231807956,-1.539915651102298
0,4.974527650140883,5.33824537359129,5.569663683278676,5.641787793413451,-1.5349159249623554
0,2.174837984556066,8.628135393439171,8.170564749028962,11.331592007167608,-1.5299161988224128
0,-0.8248524803523253,11.868024416867955,3.8914653827335433,4.631395660563971,-1.5249164726824702
0,7.345456255325345,-0.9420875559534484,3.462365582703513,6.851198749009528,-1.5199167465425276
0,-2.834235808716783,-2.8022005254914086,-1.676734653199731,-0.11899873273248618,-1.514917020402585
0,-6.713928672935028,-7.442314492406937,-6.395835327305536,-4.6291967903014815,-1.5099172942626424
0,-6.433622337654932,0.5975705428710865,-8.124936441785295,-6.5893954293734485,-1.5049175681226998
0,-2.2633168027594643,0.7074545802397655,-5.034037998328007,-3.189594655314725,-1.4999178419827572
0,0.8669879323305509,1.727337619744761,-2.143139998026104,6.310205526900764,-1.4949181158428146
0,-1.0627081315379643,-2.3427803385899626,2.0177575584916627,-1.6799948875379491,-1.489918389702872
0,0.7775950065647838,-0.5828992947651281,-2.791345329187655,1.5098040964761263,-1.4849186635629295
0,3.1578973475640004,-1.3830192487194757,1.9395513385895382,-1.9003975260462176,-1.4799189374229869
0,-3.231801107683174,-1.853140200277799,-1.7995524384942356,0.819400239892895,-1.4749192112830443
0,11.918499641560773,16.946737850755305,8.081343339222805,11.73919738924183,-1.4699194851431017
0,6.718799595736765,4.926614904236899,6.312238671203845,8.008993916624416,-1.464919759003159
0,6.649098754708858,-6.123509040623713,2.6031335564787077,5.238789815997527,-1.4599200328632165
0,-5.020602882309041,0.4863660149482195,3.9240279935723996,0.6185850806051201,-1.4549203067232739
0,-5.51030531642591,3.5262400696936402,4.924921980587699,-2.2116202967696266,-1.4499205805833313
0,-7.14000854859067,-4.213886877604553,-3.2241844847174748,-2.851826323470092,-1.4449208544433887
0,-4.749712579267521,-0.7840148281600317,-4.753291404770586,-7.032033006694788,-1.439921128303446
0,-5.299417408349333,-4.7141437830733715,-6.502398781869076,-6.982240353272792,-1.4349214021635035
0,-7.389123035170253,-10.884273743154434,-3.521506617908624,-2.892448369506891,-1.429921676023561
0,-10.45882945847047,-15.094404708638443,-12.830614914248141,-6.452657061146144,-1.4249219498836183
0,-5.468536676274067,-3.334536678856848,-8.769723671564964,-4.022866433439783,-1.4199222237436757
0,-9.81824468581667,11.345330347717042,-3.9388328897038947,-2.9130764911714615,-1.4149224976037331
0,-2.4379534835818455,3.9851963728655235,2.6320574322231507,5.436712761233879,-1.4099227714637905
0,-1.2476630654302747,-6.444938601929503,2.6129472954606214,10.166501319399956,-1.404923045323848
0,-13.417373426750073,-15.785074575333851,-8.056163298709077,-3.7637108213766233,-1.3999233191839053
0,-1.10708456242864,-3.4652115455387342,-3.5452743489208838,-7.913923666144516,-1.3949235930439627
0,2.443203533192174,-13.395349509860282,-3.954385853483979,-7.844137219857223,-1.3899238669040201
0,-8.376509133863083,-6.25548846469996,-4.96349781027342,-8.524351486904095,-1.3849241407640775
0,-2.936222557328575,-1.905628405625285,-0.3926102167589074,-7.88456647091904,-1.379924414624135
0,-0.28593673061072894,5.064230672387135,2.088276929885594,-0.9647821747857032,-1.3749246884841924
0,1.32434835317778,10.924088774474757,3.559163632570963,-2.174998600808925,-1.3699249623442533
0,-4.105367298949808,-4.106054094566529,-6.809950105870899,-10.735215750894445,-1.3649252362043107
0,-6.8450836798625785,-9.30619793029512,-10.58906428255843,-8.89543362648352,-1.3599255100643681
0,-6.894800782099596,-11.126342728121912,-4.298178894176044,-10.01565222828835,-1.3549257839244255
0,-5.254518597660444,-12.106488482739714,-8.25729393672206,-7.235871556131647,-1.349926057784483
0,-0.4042371179686953,-13.656635187805282,-9.456409405479317,-1.9760916090022305,-1.3449263316445403
0,-5.713956334003047,-3.9667828358484254,-5.7755252949950355,-10.366312385213844,-1.3399266055045977
0,-1.6536762364082935,4.3130685815320025,-0.8646415990984028,-1.6165338825100402,-1.3349268793646552
0,-6.613396815497122,-7.077080926772773,-1.5237583110954158,-4.356756098096359,-1.3299271532247126
0,-6.243118061181935,-9.717231351618492,-8.55287542397441,-10.286979028687075,-1.32492742708477
0,-3.9028399628829726,-7.0573826834030555,-8.771992930349054,-8.477202670431927,-1.3199277009448274
0,-7.582562509479647,6.002465088111196,0.5188891777312598,-5.397427018749479,-1.3149279748048848
0,-6.592285689291677,2.8523119735367968,-1.8302290912449928,-8.007652068292554,-1.3099282486649422
0,-3.5720094900461787,-8.767842016518848,-8.939347728445542,-7.16787781300821,-1.3049285225249996
0,-3.5917338989132586,-3.9579968714176523,-3.0484667246921977,-5.118104246162586,-1.299928796385057
0,-7.351458902591279,-0.38815258020850896,-4.697586070338355,-4.07833136038229,-1.2949290702451144
0,-3.301184487324164,1.67169086839978,0.8732942447150589,-0.8285591477797465,-1.2899293441051718
0,1.2390893610965397,-8.138466514129345,-1.565825769146993,2.3312123998567964,-1.2849296179652292
0,-2.830637342812961,-1.1386247161540366,-2.214946101386012,4.690983290812893,-1.2799298918252866
0,-7.930364584337861,-5.148783725715012,-8.144066741295577,1.900753533209591,-1.274930165685344
0,-6.760092348437405,-5.808943530462596,-1.8331876778458598,-1.09947686509553,-1.2699304395454014
0,-3.3898206195349734,-1.1691041176331018,-6.432308899562327,-1.6997078964046748,-1.2649307134054588
0,-4.779549381483077,-1.4392654740811612,-4.481430394507949,-3.5499395529931754,-1.2599309872655162
0,0.6407213823123812,-1.0694275864036258,1.3294478496850248,2.899828173010174,-1.2549312611255736
0,-0.9490083112620229,2.830409558926432,1.5303258456734836,7.129595289540882,-1.249931534985631
0,6.851261554771209,4.660245975421401,1.7012036061670037,5.869361804315831,-1.2449318088456884
0,1.8515309972627403,5.1400816763787045,4.882081143742725,1.029127724592842,-1.2399320827057458
0,6.221800032747858,6.569916674700017,15.422958470656761,7.458893057153211,-1.2349323565658032
0,7.01206867733793,11.049750982739418,16.88383559846034,8.69865780832202,-1.2299326304258607
0,13.84233694657654,12.169584612114821,16.06471253749977,7.538421983830268,-1.224932904285918
0,8.222604855201919,2.979417573534878,11.19558929664201,1.898185588710081,-1.2199331781459755
0,10.742872416970418,9.759249876822917,8.216465883339458,-1.812051372574651,-1.2149334520060329
0,13.193139644617176,-1.5509184688987567,14.39734230385286,10.96771110411168,-1.2099337258660903
0,7.933406549831398,11.8489125449544,15.778218563325511,11.157473022542908,-1.2049339997261477
0,14.643673143224825,13.318742926398883,16.289094665624972,9.777234385794674,-1.199934273586205
0,9.663939434319875,4.098572682646571,10.879970613177267,12.026995195966725,-1.1949345474462625
0,11.694205431521864,5.878401820008854,6.750846407035761,-5.103244545797864,-1.18993482130632
0,1.8644711421821256,2.6682303440913313,1.9317220471879273,-4.323484838951293,-1.1849350951663773
0,-2.6352634271285735,2.228058260024967,-2.8874024670197516,-8.16372568295728,-1.1799353690264347
0,5.115001729782202,0.2578855726202198,-3.5865271364485865,-7.023967076827539,-1.174935642886492
0,6.785266618920216,6.2977122864597685,1.6843480381330616,-2.5642090189536937,-1.1699359167465495
0,-3.0344687539890156,-5.302461594074035,-6.904776943851878,-7.714451507135854,-1.164936190606607
0,-3.9642043834790925,-9.332636064663001,-8.193902082719156,-6.954694538630227,-1.1599364644666643
0,0.7560597359226398,-7.752811120675515,-9.033027378295952,-1.334938110127757,-1.1549367383267217
0,5.456323609816527,-3.662986756837655,-0.882152829728702,-0.715182217823663,-1.1499370121867791
0,2.7065872437376806,0.5168370327536579,2.0687215644187305,7.214573142321926,-1.1449372860468365
0,3.816850642940654,1.766660254357403,3.299595805811246,6.884327974234884,-1.139937559906894
0,-1.7528861876380546,10.856482914241065,7.360469895992692,9.924082281374876,-1.134937833766955
0,2.817376756723601,4.90630501832371,2.9013438361421673,3.953836066511653,-1.1299381076270123
0,7.5676394805881495,-1.3938734280309764,-1.2077823729854875,3.733589331724672,-1.1249383814870697
0,-4.542098011721249,-6.904052419835649,-11.626908730840052,-5.066657921398255,-1.119938655347127
0,-1.4318357160983748,1.9457680479172976,-3.316035236639742,5.313094308531221,-1.1149389292071845
0,2.7484263715476662,-1.0744120195488547,-0.8851618890817238,-0.447153977156359,-1.109939203067242
0,-0.001311744644063334,1.295407383112807,-5.744288686392681,-1.0574027772063723,-1.1049394769272993
0,-5.621050060537232,-6.444773738708317,-7.793415626429263,-10.137652090358925,-1.0999397507873567
0,-6.050788571879895,-6.804955379458311,-8.212542706557121,-7.397901915044816,-1.0949400246474141
0,-4.880527274054304,-4.605137533179046,-5.541669923476547,-8.298152249065655,-1.0899402985074715
0,5.249733838001838,-2.835320193385154,-1.070797273223147,-5.9584030894600275,-1.084940572367529
0,5.189994769551103,-1.9655033531372696,-2.3099247513415837,-4.358654432552214,-1.0799408462275863
0,-3.2097444742867074,-1.1656870051833916,-3.7690523530752844,0.5110937259029026,-1.0749411200876438
0,-2.989483888583097,-7.645871142027996,-1.5781800734190272,-4.149158609481182,-1.0699413939477012
0,-6.1792234683404965,-7.066055755838734,-3.9073079071077217,-6.239411433830391,-1.0649416678077586
0,-1.3889632082454997,1.6737591616982646,2.323564151370486,0.2103352580480653,-1.059941941667816
0,8.641296897312985,13.993573619222152,8.574436107621725,7.070081471622142,-1.0549422155278734
0,-1.1584431460376343,-1.0266123748042073,0.5453079670597808,5.489827212325134,-1.0499424893879308
0,0.7118166671113415,0.6332011875928809,2.0561797347269413,6.869572485190311,-1.0449427632479882
0,2.0620763419768138,6.99301431401725,2.137051415358911,3.8493172946848073,-1.0399430371080456
0,2.182335883662673,10.992827011751208,6.467923013460727,7.109061644712116,-1.034943310968103
0,8.11259529708507,7.732639287498079,10.038794533185046,8.278805538608628,-1.0299435848281604
0,12.792854586751027,4.832451147167301,8.889665978087294,11.37854897904754,-1.0249438586882178
0,4.203113756465709,4.0222625959341345,0.6505373509646702,3.9282919679000567,-1.0199441325482752
0,-0.7466271907380521,0.022073638443279087,8.05140865394117,4.088034506258258,-1.0149444064083326
0,0.8736317476676373,14.601884278938858,-0.00772011135782158,-0.7722234053535828,-1.00994468026839
0,3.673890574016151,0.3116945211789782,0.5031510563274381,4.177518233268792,-1.0049449541284474
0,0.9641492905063469,3.001504368337702,2.9040221580267076,4.037259422108351,-0.9999452279885048
0,-3.3555921008185345,1.0213138231423815,-1.625106805358874,-4.30299983908309,-0.9949455018485622
0,2.3246664020236723,7.991122888040758,4.335764166967214,1.6967404492958074,-0.9899457757086196
0,2.2649248010218144,1.8109315651627977,3.5966350756597656,6.786480286797713,-0.984946049568677
0,4.045183098073972,-3.679260143717988,1.5875059211387537,0.5062196728248983,-0.9799463234287344
0,1.7554412948508773,8.220547762943827,3.898376703536958,1.4459586064958834,-0.9749465972887918
0,4.405699392737737,6.210355286497942,12.28924742264304,10.185697086637294,-0.9699468711488493
0,10.27595739277341,4.430162427893554,10.370118077681086,6.105435111684515,-0.9649471450089067
0,8.876215295462265,8.089969187518411,4.470988667042652,5.065172679482404,-0.9599474188689641
0,6.296473100562301,1.8197755651892507,5.881859188271495,4.42490978724646,-0.9549476927290215
0,2.7667308070597674,-1.0504184397562697,1.3427296382712652,0.9146464316836482,-0.9499479665890789
0,-4.043011586609891,2.479387171738358,-0.7063999864720507,-5.405617390812308,-0.9449482404491363
0,-1.572754082212831,-3.260807601364366,-5.055529689642726,-2.585881683870582,-0.9399485143091937
0,-8.062496681384847,0.25899723989860307,-9.714659474785824,-3.226146450890778,-0.9349487881692511
0,-3.5122393854052203,2.238801694535696,-5.303789344982677,3.533588305004856,-0.9299490620293085
0,-4.401982195084521,-1.4213942384352414,-2.6129193026893236,-2.4466774191617464,-0.9249493358893659
0,-2.891725110772347,-8.86159055997581,-7.37204934978978,-6.626943626304872,-0.9199496097494233
0,-10.311468132391337,-9.60178727077838,-10.371179487644552,-9.337210319096316,-0.9149498836094807
0,-12.65121125930138,-9.231984370900385,-12.520309716918199,-14.087477499616828,-0.9099501574695381
0,-14.130954489994553,-2.6021818595827795,-4.5594400373678035,-12.457745169008469,-0.9049504313295955
0,-9.870697821826457,-8.132379735329392,-7.838570447837977,-6.248013327291162,-0.8999507051896529
0,-13.500441250944512,-7.202577996023242,-7.327700946402871,-9.76828197341696,-0.8949509790497139
0,-10.59018477232184,-13.372776638874564,-12.176831530411524,-13.818551105398871,-0.8899512529097713
0,-7.339928379807251,-14.102975660204219,-9.795962196369087,-10.578820720265648,-0.8849515267698287
0,-4.1996720662714235,-7.603175055230309,-6.445092939831983,-9.619090813947373,-0.8799518006298861
0,0.14058417612546703,8.446625181846667,-4.034223755477496,-3.7593613813356943,-0.8749520744899435
0,-2.18915964436961,-1.323574942667685,-1.4733546373262953,-5.699632416502244,-0.8699523483500009
0,-4.868903519286501,0.3462245775242442,-2.1024855789869568,3.4700960870356363,-0.8649526222100583
0,-7.478647439888338,0.7460237485964119,-1.0716165738192662,-3.1601758639484774,-0.8599528960701157
0,-5.52839139699103,-4.234177423301832,-3.0107476150001795,-3.2004482625476904,-0.8549531699301731
0,-9.058135380817177,-7.234378931901493,-10.24987869547323,-6.2607211016741395,-0.8499534437902305
0,-3.917879380929596,-3.0745807706041828,-8.939009807728546,-7.250994373871266,-0.8449537176502879
0,2.7023766136973375,-2.8447829323563303,-2.4381409435679613,-2.1312680711653007,-0.8399539915103453
0,4.702632614393054,9.275014590221716,4.792727905829486,3.148457814885343,-0.8349542653704027
0,-6.767111367535391,-12.15518819541812,-9.486403250404717,-4.311816707033755,-0.8299545392304601
0,-4.116855320803431,-4.035391281754749,-2.7455344029516136,-1.3420916281450523,-0.8249548130905175
0,-8.246599233860954,-6.455594660894114,-8.604665542129641,-4.6923669395144305,-0.819955086950575
0,-6.956343094627707,-8.355798324346782,-12.673796657667408,-7.072642631916201,-0.8149553608106324
0,-7.816086890363241,-7.4760022629666825,-12.092927738473184,-5.872918695686232,-0.8099556346706898
0,-14.445830607569413,-12.296206466863474,-10.002058772409478,-10.653195120571937,-0.8049559085307472
0,-4.9455742318616105,0.393589074666039,-4.431189746267216,-3.3334718956256895,-0.7999561823908046
0,-8.175317747924119,-7.186615626958892,-6.310320645952519,1.1262509907505454,-0.794956456250862
0,-8.39506113961021,-10.326820559750242,-5.809451456703036,-4.534026449428723,-0.7899567301109194
0,-2.294804390048193,-6.017025711104639,-6.33858216317943,-0.4443042039307259,-0.7849570039709768
0,-4.424547481749169,1.3727689322698713,-2.117712749478958,4.245417739619768,-0.7799572778310342
0,6.76570960318248,6.592563384106585,8.443156800709732,8.19513939356611,-0.7749575516910916
0,10.375966882681361,5.102357658106208,13.50402650367893,4.724860769904963,-0.769957825551149
0,4.436224374278466,12.21215176753388,13.104896375093627,5.74458188008466,-0.7649580994112064
0,6.1564820948418255,11.741945724929563,10.575766429549974,12.124302734940606,-0.7599583732712638
0,6.176740060595469,11.981739541864895,10.126636680464287,9.994023344577439,-0.7549586471313212
0,4.086998287192698,6.411533228822259,3.547507140198549,2.8037437182293075,-0.7499589209913786
0,-7.422743210169362,4.851326795301084,-1.041622179673292,-1.1565361356296409,-0.744959194851436
0,-5.732484416417337,3.8511202500617516,-4.320751267965422,-3.276816208893312,-0.7399594687114934
0,-2.85222531618605,-3.689086398612825,0.7201198864971754,-3.507096493442483,-0.7349597425715508
0,-4.211965893647357,-9.67929314258974,-3.809008704941271,-7.437376980896245,-0.7299600164316082
0,-8.281706132534925,-15.349499973394277,-7.988137030711439,-13.657657662394797,-0.7249602902916656
0,-3.1214460161015327,-7.909706881710938,-1.457265078891572,-8.877938528315076,-0.719960564151723
0,-9.201185527045329,-2.219913857198157,-6.66639283710492,-9.168219568060058,-0.7149608380117805
0,-4.35092464747387,-7.980120888691038,-6.055520292503752,-0.7885007701019999,-0.7099611118718379
0,-2.040663358911914,-2.550327964446767,0.7153525682311921,-2.748782122244571,-0.7049613857318953
0,2.239598357552164,-1.590535072257744,-2.4637742411912646,-0.26906361191514505,-0.6999616595919527
0,4.589860520984516,1.9192578004118404,9.237099293102153,7.050654773597354,-0.6949619334520101
0,9.320123150278171,5.409050666186899,6.897973184827553,5.000373046882276,-0.6899622073120675
0,5.640386263853372,14.338843537457457,10.77884744718744,12.620091220097933,-0.6849624811721249
0,9.720649879468878,22.46863642589403,18.909722092542253,14.569809304654155,-0.6799627550321823
0,15.35091401409335,15.228429341858106,12.690597132099153,19.08952731086211,-0.6749630288922397
0,16.981178683666606,6.978222294096618,20.25147257563574,19.109245247582955,-0.6699633027522971
0,15.581443902789694,5.4780152899618155,16.432348431347794,16.35896312198362,-0.6649635766123545
0,9.6517096845729,16.117808335811198,11.45322470579743,10.83868093951497,-0.6599638504724155
0,12.231976040740314,8.417601437097716,13.614101404013725,8.478398704133786,-0.6549641243324729
0,1.3122429818738366,2.7273945982858137,2.374978529737081,-0.3318835813186688,-0.6499643981925303
0,5.602510517712702,-4.212812176932861,3.6658560857540894,2.5978340853177673,-0.6449646720525877
0,13.212778657375772,11.706981114761732,12.596734074195501,12.987551705800474,-0.6399649459126451
0,-1.6969525906414007,4.856774476411129,-1.7323875033792329,6.26726928139496,-0.6349652197727025
0,-0.09668321842788008,5.266567910564809,4.6284913540400705,1.076986812670089,-0.6299654936327599
0,1.773586781625092,5.4063614191742015,-0.5106293529110236,0.10670429960882423,-0.6249657674928173
0,11.503857416976306,4.896155003647172,5.880250376174476,2.266421741904981,-0.6199660413528747
0,5.404128694719466,2.2159486649040363,3.9211305414553794,4.916139139100905,-0.6149663152129321
0,7.814400621308032,6.425742403429284,7.642011142715412,7.485856490479291,-0.6099665890729895
0,8.194673202464767,3.7055362192952797,7.132892179227048,4.865573794877447,-0.6049668629330469
0,8.444946443176562,2.895330112147599,5.623773649644267,3.065291050587872,-0.5999671367931043
0,5.09522034766926,2.8451240812389127,4.104655551987555,4.44500825541071,-0.5949674106531617
0,10.885494919424183,8.85491812546397,10.375537883688589,8.084725406714037,-0.5899676845132191
0,3.9657701611908873,-4.16528775667019,3.426420641576822,1.7044425013903828,-0.5849679583732765
0,0.9260460750422961,-0.285493566963493,-3.372696178094569,5.404159535837676,-0.5799682322333339
0,-3.5036773373874253,-10.835699307224028,-5.581812579361423,-5.17612349393387,-0.5749685060933913
0,3.416599925400794,-5.025904978907376,3.039071433835882,3.713593407901442,-0.5699687799534487
0,-2.4731221350797226,-6.096110582881105,-1.380044142242264,3.0433102371079697,-0.5649690538135062
0,-0.9228435172960395,3.0136838805660475,1.820840688730918,3.3830269893118166,-0.5599693276735636
0,2.267435780324322,3.4934784114621245,-4.368274076924588,4.572743659860339,-0.554969601533621
0,0.9677157593636996,0.7832730098137674,0.5126115571634365,-0.4575397562297949,-0.5499698753936784
0,1.9479964213240402,-1.6069323245448124,-0.40650241252070973,2.442176735787231,-0.5449701492537358
0,-1.9517222324119217,4.852862408096907,-2.555615989389606,3.5418931304618395,-0.5399704231137932
0,-1.841440200513033,0.612657207347576,-0.41472917676107535,6.091609422112942,-0.5349706969738506
0,-4.131157481558843,0.012452072656789274,-5.653841977810094,-1.4986743952626782,-0.529970970833908
0,-6.840874073884646,-5.507752996623076,-9.402954395436215,-5.738958327924465,-0.5249712446939654
0,2.21941002453613,-7.16795800100743,-3.122066432058695,-1.159242382095779,-0.5199715185540228
0,3.259694816016047,-1.3481629406303077,0.9188219104574324,-0.39952656376313833,-0.5149717924140802
0,-9.110019697043272,-4.728367815170002,-5.49028936936431,-7.969810878662955,-0.5099720662741376
0,-5.469733512118372,-7.858572623882974,-7.049400272724071,-7.280095332215206,-0.504972340134195
0,-0.039446626311979975,2.3812226343997698,-1.1785108004464717,0.4496200706426854,-0.4999726139942524
0,-3.0191590363051666,4.331017961172649,1.1123790470513586,1.2293353254168193,-0.4949728878543098
0,-2.428870738501539,-7.139186641997424,-5.126730730394117,-7.020949572163534,-0.4899731617143672
0,-3.868581729076267,5.690608826426676,-7.605840132746432,-8.141234626162065,-0.4849734355744246
0,-5.448292003915442,-6.109595631978948,-7.4749491595690385,-4.301519840192185,-0.47997370943448203
0,-3.3980015585324734,-5.62980001551483,-2.9140578098313457,-2.351805217288827,-0.47497398329453944
0,-1.857710388039073,5.089995677752135,1.0768339180520385,-0.9620907600240436,-0.46997425715459684
0,3.502581512757401,-2.5902085500324326,1.6977260259651807,-0.6123764707043167,-0.46497453101465425
0,0.24287414914694583,-9.850412696612828,-4.69138148414343,-3.4926623514807673,-0.45997480487471165
0,-1.0468324736440255,-14.730616759398089,-8.640488610230772,-5.5529484043244945,-0.45497507873476906
0,-3.046538350423727,-14.130820734960484,-10.0495953498571,-8.643234630870978,-0.44997535259482646
0,-9.706243475860171,-10.451024618671312,-8.038701699870352,-7.703521032207238,-0.44497562645488387
0,-0.12594784424675165,2.9587715952703024,-0.6078076563119952,-1.9138076087490126,-0.43997590031494127
0,3.1643485505415656,-7.9014320865440775,-1.406913214609403,2.43590563964669,-0.4349761741749987
0,9.954645714751,7.36836434285812,0.11398163012204404,0.1256187133719416,-0.4299764480350561
0,1.3649436543246936,0.7681608905443156,-1.625123117110761,5.495331612787173,-0.42497672189511704
0,1.6552423747210998,1.7079575634592798,2.26577254875973,0.3550443380632114,-0.41997699575517444
0,4.765541881019904,4.2477543683200905,8.576668632758166,5.574756889112878,-0.41497726961523185
0,3.9458421780045096,11.457551311545382,5.99756513961944,5.904469265526732,-0.40997754347528925
0,-2.3338567298452935,-4.012651600902968,6.488462073536312,-1.9058185334815432,-0.40497781733534666
0,0.26644516173565974,3.9871456364788065,6.529359438058995,-5.216106508973319,-0.39997809119540406
0,-9.913252142974951,2.8269430289209674,-0.6997427638501763,-5.126394661960741,-0.39497836505546147
0,-2.612948639418331,-1.5532594185225495,-2.9788445296271253,-2.446682993114008,-0.38997863891551887
0,-7.692644322554459,-8.093461700887014,-5.857945856772729,-6.776971502678425,-0.3849789127755763
0,2.1676608131647446,6.686336186912113,2.0429532574280707,-3.4072601904650233,-0.3799791866356337
0,4.8579667736108325,5.266134250081088,6.263852815893355,2.252450944119931,-0.3749794604956911
0,8.348273564609894,3.7259324936377265,2.444752821460875,3.6021619019004967,-0.3699797343557485
0,4.198581191575121,0.8457309221972364,-2.5943467233183393,3.4518726836321045,-0.3649800082158059
0,2.5488896593670285,4.415529540023565,1.1765541839073692,-1.94841671016644,-0.3599802820758633
0,1.149198972389534,4.315328351091559,2.5074555454427627,-0.2387062791564135,-0.3549805559359207
0,5.189509134741016,-2.0648726409190514,6.078357363501667,12.99100397689386,-0.3499808297959781
0,0.13982015026401098,-4.935073432520622,-3.410740359935467,7.270714057890172,-0.3449811036560355
0,4.180132022537268,2.4147259798254823,0.6401623769009986,1.6604239630939688,-0.3399813775160929
0,3.090444754882841,6.764525599760128,3.3210655757063847,-2.389866308838042,-0.3349816513761503
0,10.600758350292951,12.534325430729325,9.941969238057931,9.689843240430978,-0.32998192523620773
0,5.371072811254698,6.304125475559342,4.352873365146695,8.399552608954538,-0.32498219909626513
0,-0.5786118603605377,1.6439257362747715,2.0537779575989745,-2.7707382057068646,-0.31998247295632254
0,-0.49829566313645457,7.71372621423694,1.9346830155555887,-3.57102920643288,-0.31498274681637994
0,2.8720214041622185,-2.126473089656971,0.13558853887081335,1.2086796038149974,-0.30998302067643735
0,-1.57766065728863,-1.3466721748112245,-0.8935054727486241,-0.7916117778030286,-0.30498329453649475
0,-7.907341846316324,-11.176871040648427,-6.422599019597392,-9.551903353990214,-0.29998356839655216
0,-10.807022161499086,-9.687069686206566,-9.781692101739658,-10.202195127132596,-0.29498384225660956
0,-5.046701600811611,-2.7072681098167677,-3.0707847187235338,-10.542487098943125,-0.28998411611666697
0,-1.6263801614990314,7.662533690843284,-4.179876869481584,-11.062779270201267,-0.2849843899767244
0,1.35394215972095,0.02233571831131656,-0.7289685524479455,-2.3330716407104726,-0.2799846638367818
0,-1.6457346336449334,1.16213797496355,-0.058059765752195944,-3.893364209471169,-0.2749849376968392
0,8.694589461918811,-4.638059536995263,9.412849492567666,5.266343024997806,-0.2699852115568966
0,3.8649144497300325,-1.7982568153269318,2.6737592242710546,4.186050064290464,-0.264985485416954
0,-0.13475966727442107,1.1015461423863429,2.374669430704327,4.405756909788359,-0.2599857592770114
0,3.0455671134870084,5.01134933867543,5.125580112793512,5.215463562477214,-0.2549860331370688
0,-2.874105205606495,7.5711527759350865,5.826491271098572,4.985170022890564,-0.2499863069971262
0,4.356223377739264,9.260956456120834,0.9174029057684642,-1.7751237088731822,-0.2449865808571836
0,12.756552865665153,12.410760380481262,10.768315016513398,5.824582366957389,-0.23998685471724102
0,4.596883259864517,1.3805645494010559,3.8692276025506382,-1.6557117500659952,-0.23498712857729842
0,6.047214561330275,5.950368962470658,-0.04985933744757237,2.353993939432684,-0.22998740243735583
0,-0.9424532295938022,-0.45982638127126163,-9.34894580515891,-4.17630056527185,-0.22498767629741323
0,-5.552120112916041,-11.850021483028202,-4.738031802165153,-4.4565952648570235,-0.21998795015747064
0,-4.201786088625874,-15.010216343761506,-12.237117329536616,-6.586890159747083,-0.21498822401752804
0,-1.211451156414333,3.5495890363201754,5.213797612323428,-1.257185249947284,-0.20998849787758544
0,-0.49111531564458755,9.119394657705477,2.5947130234869746,-3.537480535036826,-0.20498877173764285
0,-2.960778565470385,-11.790799478959054,-6.324371095860741,-8.07777601422545,-0.19998904559770025
0,-7.70044090485181,-13.010993372988876,-10.183454745467003,-7.8980716862781115,-0.19498931945775766
0,-3.710102332413188,-2.8411870231782226,-2.952537924675889,-7.17836754933618,-0.18998959331781506
0,-1.4097628463214111,2.268619572440672,-1.501620632241459,-5.5986636008236985,-0.18498986717787602
0,-7.409422444325471,-12.621573583649537,-8.480702866433626,-2.308959837511292,-0.17999014103793343
0,-6.609081123764006,0.07823351140502846,-5.13978462509734,-5.969256255648893,-0.17499041489799083
0,4.601261118485555,-9.08195913906381,-3.558865905565736,-3.759552851055695,-0.16999068875804824
0,-1.938395714124611,0.7878484687809583,-0.3279467046793593,-0.15984961914796916,-0.16499096261810564
0,1.821948381932853,7.46765633912013,6.022972980997701,1.3798534449492412,-0.15999123647816305
0,4.312293410111454,9.91746447608302,2.623893154870883,-3.07044365376999,-0.15499151033822045
0,0.4526393737118781,-4.962727116648488,0.7148138200841335,-4.41074091023413,-0.14999178419827786
0,5.672986275797999,3.3270815641592417,6.945734979484558,7.928961680767671,-0.14499205805833526
0,4.573334119134855,16.326890521453592,8.746656635568105,8.13866412443087,-0.13999233191839267
0,16.893682906028708,14.206699757636668,12.607578790254333,12.188366425514538,-0.13499260577845007
0,10.324032638004823,11.21650927404871,12.738501444584758,9.148068587962936,-0.12999287963850747
0,15.754383315476892,15.226319070728474,18.219424598464926,3.497770614784486,-0.12499315349856488
0,10.654734937594283,1.6561291464779055,6.1103482504942095,5.457472508186393,-0.11999342735862228
0,-0.164912497682768,-7.814060500809605,-4.758727601902713,-2.1328257301657088,-0.11499370121867969
0,-7.2145589931794545,-7.714249873502864,-5.417802961894768,0.5168759011003851,-0.1099939750787371
0,-3.5742045518757712,-5.424438973597649,-0.9768778325989333,-7.783422596684119,-0.1049942489387945
0,-14.303849176372449,-5.874627802459059,-7.765952216785309,-8.213721221948857,-0.0999945227988519
0,-20.30349286849343,-9.624816360817755,-9.50502611677994,-8.334019972588283,-0.09499479665890931
0,-16.15313562881355,-15.91500464867959,-14.834099534245988,-5.474318845772386,-0.08999507051896671
0,-16.892777456303683,-20.12519266501151,-15.073172469852299,-3.4146178379669343,-0.08499534437902412
0,-12.912418348268515,-4.345380407414004,-7.912244923032598,-5.124916945069886,-0.07999561823908152
0,-10.002058300506105,9.064432127745354,-7.421316892010593,-3.725216162523015,-0.07499589209913893
0,-11.291697307521686,-4.225755055349836,-7.360388374039842,-6.035515485336521,-0.06999616595919633
0,-7.341335362714533,-12.715941952439733,-6.279459365601742,0.13418509190622346,-0.06499643981925374
0,-0.5409724585711723,-9.78612855893427,0.5414701374723823,2.17388557494815,-0.05999671367931114
0,2.4193914130272347,0.6036851305036047,-1.4575998602020448,1.0535859696391403,-0.05499698753936855
0,5.359756260374489,1.3134991218799872,2.6833306461897064,1.7332862817442491,-0.04999726139942595
0,1.1601220915952482,4.543313421436781,6.214261661435761,8.76298651684325,-0.04499753525948336
0,6.220488914497057,12.243128035225844,9.365193190051686,8.842686680144325,-0.03999780911954076
0,-0.7291432634464945,-4.077057031174979,3.5461252360174194,3.6323867762510003,-0.034998082979598166
0,2.8312255649502758,-1.217241772647086,4.017057802696157,5.432086809097507,-0.02999835683965557
0,3.3615954066509803,0.8925738157752825,6.0479908929166255,1.8217867820743372,-0.024998630699712976
0,1.4219662684067482,2.7023897390888387,3.16892450905533,-1.518513301805696,-0.01999890455977038
0,-2.917661843236755,3.2322060022270205,-0.9601413469276695,-6.418813439673261,-0.014999178419827786
0,-3.167288921794568,-10.227977390006624,-6.119206673294678,-6.899113628482091,-0.00999945227988519
0,-3.83691496062911,-7.93816043269975,-6.458271468201162,-8.26941386470894,-0.004999726139942595
0,-8.286539952781634,-5.4183431204362025,-6.657335729377227,-7.459714144165193,0.0
0,-5.656163890820151,2.54147455283666,-3.556399453977018,0.4099855380263244,0.004999726139942595
0,-5.475786766728389,-0.8387074064318384,-2.3954626386169586,-4.130314812726252,0.00999945227988519
0,1.8645914280645597,2.6511110082986593,-0.4345252795202801,-0.9606151906929586,0.014999178419827786
0,-0.5850292975234814,-3.279070196473482,0.6064126273103627,-0.02091558993200432,0.01999890455977038
0,7.825351065489614,13.450748985655709,11.617351085883687,3.7287839956091924,0.024998630699712976
0,3.2257325258874627,16.040568560725397,4.318290099900981,-0.8515164280541615,0.02999835683965557
0,8.796115092036459,-3.179611466023894,3.369229672503395,2.8881831449666344,0.034998082979598166
0,11.826498771713712,-0.5897910901641907,8.78016980625021,5.6878827203976945,0.03999780911954076
0,10.196883571897974,7.150029692346326,8.191110503139043,10.21758230365416,0.04499753525948336
0,19.37726949853624,8.339850885325978,13.232051764457989,8.88728189957639,0.0499972613994224
0,7.917656556340582,3.519672492142323,5.762993590605063,4.626981512231626,0.054996987539364994
0,2.878044748785444,-4.52050548437162,-1.126064018892472,6.076681144927733,0.05999671367930759
0,3.208434078432019,-9.19068304159147,-0.42512106506011693,4.61638080035091,0.06499643981925018
0,-2.6211754526364484,-7.310860176596097,-9.254177549034964,-2.093919519303194,0.06999616595919278
0,-4.910783842477759,-20.621036885736782,-12.933233471643982,-8.794219812076713,0.07499589209913538
0,-0.9003910890261935,-5.401213164310723,-7.322288832997085,-1.2345200758659234,0.07999561823907797
0,-3.6399971899463632,-5.311389006464175,-3.881343632304209,0.6451796918058312,0.08499534437902057
0,3.0803978573336783,3.0484355945111954,0.5396021319558536,5.454879493636609,0.08999507051896316
0,5.2507940554642545,3.2982606456808106,1.8505484616781032,1.8145793322407087,0.09499479665890576
0,1.4411914069419902,12.80808615400192,6.161495358795648,2.8542792099642984,0.09999452279884835
0,5.211589913949685,3.057912125939763,5.192442825001978,5.223979128848076,0.10499424893879095
0,2.0719895783342217,9.35773856726138,3.08339086157164,6.063679090588137,0.10999397507873354
0,0.8323904016265281,8.48756548300943,5.07433946932229,7.763379096412929,0.11499370121867614
0,3.0427923851098924,7.997392877478225,5.975288648635825,11.893079146924816,0.11999342735861873
0,11.883195529806743,12.23722075413579,8.186238399406093,9.952779241911307,0.12499315349856133
0,7.163599836262002,22.677049115458384,11.187188720899208,7.542479380212953,0.12999287963850392
0,-0.545994695661087,0.12687796267576584,3.158139611613874,0.6721795597799693,0.13499260577844652
0,-3.205588066638196,-11.793292704089266,-4.4409089306460565,-4.0481202220172685,0.1399923319183891
0,-4.25518027746764,-5.363462885024218,-8.819956908350147,-11.888419967907476,0.1449920580583317
0,-5.944771328719673,-1.053632579890853,-5.259004323706877,-2.9887196802258873,0.1499917841982743
0,-1.7343612205748746,2.7461982120406816,-2.938051178366292,-0.6090193607025335,0.1549915103382169
0,0.646050047166326,4.596029491646249,-3.6970974734497966,-3.999319010604129,0.1599912364781595
0,-5.513537525043944,2.4058612596328586,1.8738567902867564,-4.529618630906795,0.1649909626181021
0,0.9268760634275952,1.565693516411196,1.454811612274999,-8.469918222244335,0.16999068875804468
0,-5.302709186577778,5.105526262107003,-3.6342330080314995,-9.150217784721471,0.17499041489798728
0,4.26770672598077,-6.054640503386687,-3.803277071140383,-9.45051731772007,0.17999014103792987
0,4.748123802214626,10.685193219667404,2.3276794226044095,-3.070816819804276,0.18498986717787247
0,-4.801457956881792,-12.524972569090453,-9.681363526921869,-10.821116288777564,0.18998959331781506
0,-8.481038550392954,-11.685137869917805,-9.18040591951994,-9.74141572172322,0.19498931945775766
0,-7.390617977116898,-7.145302682509793,-9.419447754392195,-8.061715114910228,0.19998904559770025
0,-12.200196235198915,-3.8254670056978264,-6.45848902991376,-0.6320144637691303,0.20498877173764285
0,-3.7197733219594675,-6.535630837558549,-3.6175297436546328,-0.702313763114017,0.20998849787758544
0,-8.289349233900193,-7.09579417558081,-9.30656989251779,-6.742613007422697,0.21498822401752804
0,-3.738923966820815,-7.605957016659291,-8.325609472783517,-0.5029121909133768,0.21998795015747064
0,-10.298497515899516,-4.20611935703612,-0.9246484800560704,2.4767886924586175,0.22498767629741323
0,-8.868069875648276,1.1337188076323728,-4.553686909334449,-0.43351035113345027,0.22998740243735583
0,-9.097641039789773,-3.1464425179364564,-4.912724755188044,-2.1938093155271297,0.23498712857729842
0,-5.787211001193528,-3.35660332882099,-1.4017620118148253,1.3858918054406995,0.23998685471724102
0,0.6632202480194516,3.7732363800718813,-4.000798673058952,3.9455930179526915,0.2449865808571836
0,-0.346347283798782,1.4730766139280687,5.08016526749981,2.905294328082764,0.2499863069971262
0,-6.9059135880740214,-3.817082622117794,-3.0288701836133174,-0.15500425832916595,0.2549860331370688
0,1.9945213439566416,-9.057241322907245,-1.2479050198720905,-2.8353027356338476,0.2599857592770114
0,5.174957521231058,0.13260051701806197,-3.8169392346830233,0.8443989017947457,0.264985485416954
0,8.375394952610447,-1.5275570964624618,1.9440271787137564,6.774100659608185,0.2699852115568966
0,10.645833646487889,4.432285842779889,3.704994227199485,8.033802543285777,0.2749849376968392
0,6.92627361051346,-3.6578706591042605,3.005961917574157,11.203504557789355,0.2799846638367818
0,5.246714851512203,-0.008026596000705266,4.036930256381829,8.82320670729291,0.2849843899767208
0,6.577157375577041,9.721818038181139,10.277899249792751,7.952908995060634,0.2899841161166634
0,4.307601188189423,19.111663249240518,11.118868903417532,3.9426114234937213,0.294983842256606
0,-5.451953705649851,-1.5684909578112223,1.2898392220945836,-1.767686005663348,0.2999835683965486
0,-3.761507301135239,-4.02864457883583,-3.589189790027733,-1.9779832910046686,0.3049832945364912
0,-1.7910595933037494,-4.5187976100353735,-1.5382181290837875,-1.3182804311465308,0.3099830206764338
0,-4.500610576877721,-11.978950047361034,-8.237245791090118,-6.888577424539779,0.3149827468163764
0,0.7098397537164712,-15.56910188610398,-3.7162727717031836,-6.8288742693204645,0.319982472956319
0,-5.7797085956991054,-4.189253120579515,-10.805299066062888,-5.229170963129208,0.3249821990962616
0,-9.329255619010066,-11.929403744039524,-8.134324668652162,-6.589467503014222,0.3299819252362042
0,-4.998801309623484,-9.069553748784967,-10.053349573156606,-2.719763885446497,0.33498165137614677
0,-5.518345660313109,0.21029687373425643,-0.9323737724314012,0.6199398935717504,0.33998137751608937
0,-2.8678886632569123,4.250148132685378,-2.4513972586602155,7.409643838273182,0.34498110365603196
0,3.1625696897978317,4.670000037389863,7.529579976313551,10.439347952729191,0.34998082979597456
0,-3.0469705926841177,1.80985259693845,10.870557940570313,8.209052240436455,0.35498055593591715
0,2.823490497806679,12.949705820024134,10.54153664165371,0.548756704124956,0.35998028207585975
0,0.9539529697558038,11.769559714746975,4.342516086257425,1.5584613459009222,0.36498000821580234
0,2.3944168315649437,14.989414288283447,10.473496280209973,6.218166167512825,0.36997973435574494
0,9.514882091431552,7.4492695466436265,14.544477228514983,3.557871170413371,0.37497946049568753
0,6.235348757159029,-4.250874505230983,7.4754589352243155,5.737576355668283,0.37997918663563013
0,2.185816835970737,2.0989821369828343,2.8464414033766037,0.5672817239068408,0.3849789127755727
0,-1.7437136654246552,4.9788394774097995,-4.082575364724261,-5.753012724553718,0.3899786389155153
0,1.3367572594255723,-5.541302479931463,-2.4115913670343345,-8.583306989385058,0.3949783650554579
0,-4.562770383058537,-4.811443731065412,-9.540606601359437,-12.763601069812644,0.3999780911954005
0,-6.822296586322258,5.688415728134773,-6.129621065066431,-10.403894964235532,0.4049778173353431
0,-10.76182134343666,-3.3117240980422107,-11.538634754867886,-16.864188669987797,0.4099775434752857
0,-6.521344646818027,-8.741863205231066,-9.83764766666767,-7.764482183201168,0.4149772696152283
0,-6.870866488094356,-2.522001588825621,-6.306659795459925,-5.324775498841476,0.4199769957551709
0,-0.3703868581829005,3.24786075618648,-4.915671135379829,-5.785068610948517,0.4249767218951135
0,-1.3299057475090235,-6.622276164895734,-5.124681679870268,-6.625361512897351,0.4299764480350561
0,-3.8694231462202007,-12.0724123465422,-5.30369142182452,-1.7156541975014212,0.4349761741749987
0,-13.398939044189266,-20.022547782629516,-12.422700353585848,-3.775946657094821,0.43997590031494127
0,-12.278453430713292,-14.77268246587353,-11.201708466778035,-9.916238883599268,0.44497562645488387
0,-6.027966294159273,-5.612816387530689,-9.73071575207883,-8.496530868424362,0.44997535259482646
0,-3.317477621930689,-6.782949537578917,-2.2397221991712444,-2.6068226022914254,0.45497507873476906
0,-3.1069874007303238,-2.343081905130065,3.7012722029979495,2.2528859247020425,0.45997480487471165
0,-5.2164956168108905,-8.563213478711914,-8.087732534172844,-6.577405277193381,0.46497453101465425
0,1.4339977439258438,-8.993344246305051,-5.746736399073754,-14.51769619744475,0.46997425715459684
0,7.714492695779164,-7.643474195212354,0.4542606202606019,-3.517986824944092,0.47497398329453944
0,12.794989252880912,-1.2236033119918943,8.085258536118777,3.051722852160186,0.47997370943448203
0,16.395487428661763,-1.393731582613245,5.226257360735979,-0.9685671538250498,0.4849734355744246
0,13.30598723541045,6.806141007231533,10.517257105881738,1.3311431694833733,0.4899731617143672
0,12.00648868406152,6.5860144717730975,11.118257782612645,3.2008538344000605,0.4949728878543098
0,9.456991784235452,11.205888824804449,7.57925940110699,3.490564853097053,0.4999726139942524
0,7.007496544417746,12.975764079370515,8.720261970611363,-0.21972376248111325,0.504972340134195
0,7.618002972158484,3.505640247566894,8.731265499496777,1.8699879993907702,0.5099720662741376
0,5.058511074229953,7.615517340570819,5.452269995315748,4.539700150267767,0.5149717924140802
0,11.649020856707011,21.755395368728415,12.843275464833859,12.639412701433136,0.5199715185540192
0,4.159532324939897,12.875274341336965,13.824281913953838,11.139125663585455,0.5249712446939618
0,5.880045483548635,2.785154266359642,9.985289347526479,15.048839046475795,0.5299709708339044
0,3.140560336522455,-2.4449648493380445,0.776297769303368,7.158552858703506,0.534970696973847
0,0.4010768873867908,-3.5350829993582846,2.2373071822237995,3.8382671077714443,0.5399704231137896
0,-1.5284048606184837,-2.5352001772582904,2.42831758880231,7.487981800349769,0.5449701492537322
0,4.04211509563421,1.0646836236315667,-4.460671008639279,3.7276969424949358,0.5499698753936748
0,0.2926367591968835,7.604568410102395,5.340341392147779,7.517412539717505,0.5549696015336174
0,1.7931601329921154,-6.865545811154115,-1.828645206615398,4.877128596972503,0.55996932767356
0,-2.756314780184349,-8.145659033517166,-6.707630802724729,2.236845118673146,0.5649690538135026
0,4.2242120224075395,-3.2557712500893925,-1.7266153938368503,4.306562108766969,0.5699687799534452
0,5.544740543426005,7.434117546480334,5.5444010226560145,10.856279570783332,0.5749685060933878
0,7.745270785248095,7.314007363675219,11.105418449396778,12.295997507673764,0.5799682322333304
0,10.795802749710086,11.683898208587669,12.206436888563937,8.645715921519384,0.584967958373273
0,7.016336437896316,12.85379008751819,12.64745634143106,12.175434813379903,0.5899676845132156
0,3.7968718500834053,5.053683005772992,6.258476808176346,9.165154183278286,0.5949674106531582
0,3.957408985862066,5.573576967704123,9.169498287942387,10.134874030225424,0.5999671367931008
0,8.07794784430467,-2.0465280230293885,12.330520778962878,11.154594352231026,0.6049668629330434
0,6.778488423964078,11.733368036804661,10.001544278545424,9.90431514630687,0.609966589072986
0,12.809030722736425,11.763265149990197,9.892568782982037,8.424036408462676,0.6149663152129285
0,7.59957473769073,9.723163318552588,9.553594287545154,8.843758133752834,0.6199660413528711
0,-2.279879534956976,0.9030625435713496,-0.2253792134050533,4.013480316374849,0.6249657674928137
0,-3.1393320995462783,4.1629628253662805,-3.9843517261291614,0.22320294983981054,0.6299654936327563
0,0.6412170394756354,-1.617135836176155,-1.3133232570666904,1.7529260272290157,0.6349652197726989
0,3.7317678777457925,3.5627665586149146,2.677706187450048,0.5426495414173765,0.6399649459126415
0,9.202320410824122,7.482670009230999,11.588736601101022,24.042373485027724,0.6449646720525841
0,-4.247125366064029,4.542574514836761,4.169767977214844,4.652097850004351,0.6499643981925267
0,-2.486569458001928,8.082480074087211,1.2508003085316388,-7.378177372679703,0.6549641243324693
0,-0.5260118701034259,-0.5676133149266837,2.4718335872958055,0.1915478073697865,0.6599638504724119
0,5.114547392637265,2.2622943454359907,4.50286780544542,-4.348726619423078,0.6649635766123545
0,-13.264891674709812,-11.267796947374997,-7.086097045292974,-12.269000662307636,0.6699633027522971
0,-2.9343290768937598,-3.4878871957318887,-4.095060973229037,-7.239274329991131,0.6749630288922397
0,-0.06376481823066488,-7.837976401514234,-4.544023986410045,-6.939547630410478,0.6799627550321823
0,-12.443198902557288,-7.228064565979213,-7.632986092431473,-8.069820570693523,0.6849624811721249
0,-9.472631333196546,-11.718151689696159,-6.5319472983545275,-4.630093157240961,0.6899622073120675
0,3.8979378872102934,10.821762227460926,-0.43090761066385164,-1.4703653958212637,0.6949619334520101
0,-2.791491243408268,-0.958322813987698,-3.939867035357379,-9.280637291704371,0.6999616595919527
0,-10.290918726826465,-10.938406813498059,-11.15882557804982,-12.050908849644527,0.7049613857318953
0,-9.350344564448331,-8.258489770366577,-12.417783243811135,-11.56118007363122,0.7099611118718379
0,-13.609768756946663,-17.89857168322268,-13.746740036822363,-9.631450966635402,0.7149608380117769
0,-11.809191303981098,-9.53865254962813,-13.265695960097549,-11.461721530552952,0.7199605641517195
0,-7.588612204091277,-10.36873236592689,-15.734651015359514,-10.641991766229147,0.7249602902916621
0,-7.448031454765934,4.391188872596247,-7.9236052030049064,-6.492261673487216,0.7299600164316047
0,-7.717449052618076,-2.638888828713449,-3.212558522237838,-6.462531251226385,0.7349597425715473
0,-11.73686499347179,-11.818965464224801,-13.471510971346332,-10.922800497555379,0.7399594687114899
0,-13.756279272274124,-12.519041027889838,-18.430462547773864,-12.053069409784513,0.7449591948514325
0,-12.535691882896508,-7.749115512839342,-14.039413247810739,-12.903337984258048,0.7499589209913751
0,-10.565102818008253,-1.3391889112459052,-8.918363066329377,-9.713606216197514,0.7549586471313177
0,-1.3545120691449932,-2.969261214571737,-2.9273119969240127,1.5061259002306249,0.7599583732712603
0,2.1560803729496114,-3.70933241387043,-1.1862600323309502,3.5158583715458405,0.7649580994112029
0,2.1566745178499183,-3.0194024998979696,-1.4352071648382647,1.1555912044349805,0.7699578255511454
0,4.147270375071282,-1.1194714631148224,-1.1041533865241242,0.38532440544958557,0.774957551691088
0,3.437867953884323,-3.959539293711525,0.786901310654663,2.525057980977822,0.7799572778310306
0,1.4684672632504878,5.590394018322234,-1.7320430651858263,2.784791937264958,0.7849570039709732
0,-3.4409316881261587,0.7203284830447716,-2.010986505866079,0.9245262803767251,0.7899567301109158
0,4.809671108354407,5.7302641103623655,5.820070996855942,2.164261016175457,0.7949564562508584
0,4.100275661216443,3.0802009098837115,5.981129451155945,1.4439961503470908,0.799956182390801
0,1.1308819787762734,8.480138890830215,5.722188864875706,2.203731688408145,0.8049559085307436
0,2.5414900690631224,1.0300780619541303,3.463249245348619,3.8834676356882882,0.8099556346706862
0,-3.3979000601054583,0.3300184315609792,-5.075689400535713,1.083203997286714,0.8149553608106288
0,-2.3172884009623393,10.429960007621752,9.585372933876954,-1.667059221917906,0.8199550869505714
0,6.743325054331524,1.399902797756623,5.61643625503606,1.3426779828367261,0.824954813090514
0,4.953940313572431,1.1298468091485996,1.6175005690007913,0.6324156162902338,0.8299545392304566
0,3.47455738424588,-0.1602079513518084,1.4385658813715958,6.87215368310789,0.8349542653703992
0,0.36517627342022074,0.2597385229682542,-2.09036780252718,3.8218921877175944,0.8399539915103418
0,1.3457969878565326,3.0996862387672124,-3.149300477425969,-2.07836886580427,0.8449537176502844
0,2.656419534139666,8.089635202565372,4.091767862027689,-4.468629473618033,0.849953443790227
0,1.8170439187001188,18.079585420457835,9.382837221185197,6.781110368126917,0.8549531699301696
0,2.977670147773686,6.03953689768995,9.53390760505312,-1.6291493366842649,0.8599528960701122
0,5.95829822734684,8.919489638430207,6.184979017943285,4.550591415718768,0.8649526222100548
0,4.648928163064781,-3.8205563540585334,1.0360514634124147,-0.799667371077105,0.8699523483499974
0,10.039559960096808,4.069398922972919,8.03712494442347,7.800074306318556,0.87495207448994
0,0.8801936230292655,-3.2106445279201727,0.34819946349758457,6.4098164509960425,0.8799518006298825
0,2.3308291558970637,0.1793132957847311,0.6692750227861554,3.939559065572739,0.8849515267698251
0,-3.6085334376060194,-4.380727603327111,3.1503516241906886,8.339302152098556,0.8899512529097677
0,3.55210584611435,1.5392327774748853,-0.2785707305439616,6.299045712036854,0.8949509790497103
0,-1.1272529893587304,1.3291944410506125,0.8925079601936929,-6.041210253707112,0.8999507051896529
0,5.683390059493979,1.4291573902678092,8.59358769787081,4.218534255435591,0.9049504313295955
0,10.614034995967545,6.339121627862036,4.944668483671637,4.3682792399236146,0.9099501574695381
0,20.024681822772674,4.779087156290552,12.615750318247965,10.348024699998545,0.9149498836094807
0,10.325330541551978,3.4190539776003943,4.2468332015238826,4.237770635399761,0.9199496097494233
0,7.5959811526251375,3.419022093395436,8.967917132630514,3.4475170452324124,0.9249493358893659
0,2.7566336551794093,3.6789915048949435,2.3690021099756904,-7.162736071872354,0.9299490620293085
0,5.677288047652542,-0.6810377870052179,7.520088131353918,-2.3329887173864474,0.9349487881692511
0,5.777944327957617,7.258934218325382,4.771175194018489,0.4767591074230505,0.9399485143091937
0,13.188602493466151,2.138907521242118,8.112263294669052,1.3565074015079304,0.9449482404491363
0,11.289262540795097,11.428882121706597,10.82335242937072,11.826256163799867,0.9499479665890789
0,4.249924465602679,-0.9211419808422376,10.404442593402983,3.286005392873845,0.9549476927290215
0,6.160588262638,2.7888352125260294,2.235533781155838,0.025755086756796552,0.9599474188689641
0,4.0612539259633955,1.648813700406425,0.68662598626866,-1.5844947569307477,0.9649471450089067
0,3.2819214491271658,-2.921206518777712,0.22771920196124593,-2.4847441406692137,0.9699468711488493
0,0.7625908252663687,5.958774553308915,-4.0611865786697905,0.10500693315942267,0.9749465972887918
0,-2.586737952738133,0.9887569149013745,-3.960091362444502,3.5347584622791186,0.9799463234287344
0,0.4039351079203154,-3.961259435923388,-2.388995155932192,-0.3554895556065987,0.984946049568677
0,8.484610000043414,-3.0212745011357844,4.472102034569798,8.36426287705096,0.9899457757086196
0,3.355286716249757,1.1987117174433597,6.3332002028262675,4.48401575749267,0.9949455018485622
0,-2.3940347512132787,2.218699218152331,5.664299342331161,4.693769082503639,0.9999452279885048
0,4.276645589601252,0.6086879993250986,4.285399446089627,9.133522848334879,1.0049449541284474
0,0.017327730492631588,1.648678059178414,-0.47349949338422825,10.133277050621054,1.00994468026839
0,-2.131988336848263,-6.591330604153592,-2.08239748388312,2.0530316842618808,1.0149444064083326
0,-0.9913026207622215,0.208662007533443,-1.3212945332655939,3.9427867434627353,1.0199441325482752
0,-3.4906151294913874,-4.121344107339418,-2.8901906492754623,-2.4974577780293137,1.0249438586882178
0,3.150074128874091,-5.221348950075745,-1.6290858394777687,2.802298113320519,1.0299435848281604
0,-0.7692348536640932,3.148647478314715,0.6520198887525797,-3.3479455890186807,1.034943310968103
0,-0.8385420851021723,-6.061354822928415,0.013126528158628414,-0.08818889156001125,1.0399430371080456
0,1.7421524265447546,1.138644145612814,2.0442340715069633,1.631568199243837,1.0449427632479882
0,-3.037151326731263,-5.651355616460458,-7.404657488447949,-2.6686743230145193,1.0499424893879308
0,-5.516453352870889,-6.881354109280879,-10.3535481587884,-5.26891646468291,1.0549422155278734
0,2.3842463403800034,8.198648667351948,2.0975620538655946,-3.3191582319029376,1.059941941667816
0,4.234947745456067,2.9186527138037217,1.9986731433739249,-2.519399630473151,1.0649416678077586
0,-0.984349145239259,11.928658030198731,3.0797851037531725,1.620359334127042,1.0699413939477012
0,1.426355660535318,2.568664616089843,6.050897928843822,7.130118656540154,1.0749411200876438
0,2.2370621548874725,7.018672470369497,4.312011612140341,6.559878331215382,1.0799408462275863
0,7.96777032977018,16.64868159125458,7.673126146677316,5.699638352126116,1.084940572367529
0,-2.061519823155146,-3.0313080238165457,0.3642415249761479,-2.5006012873040073,1.0899402985074715
0,2.0791916874550993,8.26870362182385,3.4353577391072494,3.6191594059776695,1.0949400246474141
0,-2.0500951472251763,-3.881283475671622,0.9564747808233471,-1.1910795751449375,1.0999397507873567
0,1.2006196639448894,-4.091269320361426,0.007592641675021439,7.108681762093019,1.1049394769272993
0,1.4213361121064252,2.6587460837395,1.8787113130785666,3.18844341023206,1.109939203067242
0,-4.527945811612714,4.778762732714752,3.6898307863387423,1.5282053614754705,1.1149389292071774
0,-12.517226115968343,-9.291219377384664,-0.10904894740397375,-0.8420323922892858,1.11993865534712
0,-4.306504809260662,2.1687997494903852,-0.7379278971832695,-4.0322698593064,1.1249383814870626
0,-4.415781899099384,-6.481179890417508,-8.446806072059221,-5.912507047710712,1.1299381076270052
0,-4.515057392469037,6.898841699368138,-3.0356834808614286,-1.422743965327332,1.1349378337669478
0,-3.43433129588289,9.918864515335887,1.3154398679728727,-3.402980619605216,1.1399375599068904
0,7.546396384484368,0.058888553625274564,1.2865639662888402,5.066782982277596,1.144937286046833
0,-1.5228743574556813,-14.141086190030652,-3.412311194001634,-1.173453166777286,1.1499370121867756
0,0.6678564720782326,-6.791059719798833,-0.9811856209585834,-1.1636890739251229,1.1549367383267182
0,-3.691411133234647,-4.5910320391979935,-3.3800593225122952,-3.3639247463343924,1.1599364644666608
0,-0.3006771796561156,2.1689968489436673,0.9410676935947959,-4.5741601910219405,1.1649361906066034
0,0.6700583266836444,5.889026942128815,-0.08780458023437754,-1.5843954147260955,1.169935916746546
0,-1.09920462025967,3.7290582377670196,-3.106676151521875,-0.8246304238849176,1.1749356428864886
0,0.5215339734993918,-3.990909267038009,-2.3855470276977657,-7.6448652246808955,1.1799353690264311
0,-1.2877258980323445,-10.49087557531393,-2.324417216010641,-11.405099822942582,1.1849350951663737
0,-1.0969842408076598,-9.80084068975492,-4.04328672346473,-4.145334223888275,1.1899348213063163
0,-9.016241060656053,-4.030804612333741,-6.6021555567635835,-8.335568431975972,1.194934547446259
0,-9.785496363059444,-0.7407673442829312,-2.611023722215211,-7.085802450942364,1.1999342735862015
0,-7.874750152850385,6.319271113594114,-5.479891225676758,-9.3260362838203,1.2049339997261441
0,-8.464002434032901,-6.570689239434509,-7.238758072547087,-17.85626993281877,1.2099337258660867
0,1.286746790166617,-7.670648404082315,-0.8576242677388186,-11.466503399078107,1.2149334520060293
0,3.5374975170295175,-2.54060638077056,1.1235101842607782,-8.396736682486539,1.219933178145972
0,0.19824974395815675,7.2194368305000145,5.394645279147334,-5.376969781783909,1.2249329042859145
0,-0.9509965317551512,1.0394812298656575,3.6857810124863137,-5.907202694849439,1.229932630425857
0,-0.150241312893296,-15.400473182623957,0.1569173795332021,-8.67743541889292,1.2349323565657997
0,6.210515397733775,-5.180426406711203,2.878054375248539,-3.2276679504982253,1.2399320827057423
0,3.8312735971700724,0.3596215584795955,1.7691919943845462,3.8320997143013877,1.2449318088456849
0,-0.757966717847665,9.599670714313929,9.200330231462479,6.3818675797054025,1.2499315349856275
0,-1.5072055508451283,-4.320278937842889,4.29146908061798,2.3516356497359294,1.25493126112557
0,2.7035570945695158,1.3597726031434816,3.902608535461723,-0.1285960719503383,1.2599309872655127
0,8.284321214721754,8.499825338244104,1.0937485891111431,3.771172418020096,1.2649307134054553
0,8.67508680562439,14.439879268132788,7.494889234308255,2.430941122822874,1.2699304395453979
0,5.705853862686792,14.059934392728062,8.356030463399343,8.120710045375557,1.2749301656853405
0,3.346622380621408,5.079990710833277,7.45717226816012,4.580479188190955,1.279929891825283
0,-1.5226076464002007,0.3600482202081613,-0.25168536030997113,0.5602485532873092,1.2849296179652256
0,-3.551836224461774,-13.999893081927006,-8.850542431371984,-2.7599818576942527,1.2899293441051682
0,-1.3610633596125647,-8.499833198181372,-6.549398954356766,-2.160212043212613,1.2949290702451108
0,-11.360289057654832,-6.539772130445472,-4.458254938121048,-4.970442001584677,1.2999287963850534
0,-10.409513323903328,-5.5397098797679405,-9.297110390903745,-8.720671730810443,1.304928522524996
0,-4.508736162922828,-4.72964644650251,-5.395965320305397,-11.530901228357292,1.3099282486649386
0,-3.2579575784841457,10.810418169459894,-0.9648197333036967,-5.031130490927382,1.3149279748048812
0,-4.437177573763341,-0.05951603168672584,-0.7536736363958576,-1.8113595144255519,1.3199277009448238
0,-11.196396151468722,-15.679449049898368,-1.0725270358312908,-4.301588294170447,1.3249274270847664
0,-3.3756133137458693,4.840619114990159,-0.07137993774929441,-1.57181682510511,1.329927153224709
0,-6.954829062079143,-6.6293115364261395,-4.080232348199468,0.1679548980960076,1.3349268793646516
0,-1.3740433973523327,-11.349241003115663,-6.549084273057324,-1.0422731190673091,1.3399266055045942
0,-2.84325631999351,-12.38916928347573,-9.987935717823188,-1.4625008710014784,1.3449263316445368
0,-9.642467830064488,-10.2990963749923,-9.966786687353036,-1.7027283520230518,1.3499260577844794
0,-11.721677927138316,-6.569022274091514,-13.835637185626657,-12.98295555625119,1.354925783924422
0,-4.380886610049374,-2.0889469762795274,-4.244487215614211,-2.373182477371693,1.3599255100643646
0,-3.6300938768194824,12.421129523478426,-2.4933367793577994,-0.5034091084811684,1.3649252362043072
0,2.1007002751062474,2.69120723019778,0.7678141217089235,-0.9436354422483502,1.3699249623442498
0,4.43149584851763,-3.5387138515128633,2.1289654863977003,4.166138528811864,1.3749246884841924
0,7.2522928460888245,1.9413662826410805,4.4301173135032865,5.775912812109547,1.379924414624135
0,1.8330912701165682,-0.31855236310333757,3.5612696016063436,4.965687414758433,1.3849241407640775
0,1.3338911224589975,2.571530215482348,-2.3875776510018847,10.605462343378596,1.3899238669040201
0,4.544692404642186,5.861614022514869,1.6735755537689525,10.725237603919538,1.3949235930439627
0,3.095495117927203,8.191699061818458,5.194729213906366,7.955013201478742,1.3999233191839053
0,3.936299263264517,1.5717853367352286,4.995883327219047,7.034789140234721,1.404923045323848
0,10.53710484121326,12.061872850037547,7.867037891129707,11.41456542351125,1.4099227714637905
0,12.527911851753748,17.41196160380527,14.518192902461417,17.734342053727918,1.4149224976037331
0,5.958720294024858,15.292051599072007,12.349348357168324,10.864119032171935,1.4199222237436757
0,10.109530166218589,16.672142835459002,16.740504250049547,3.2438963588758516,1.4249219498836183
0,11.080341465629818,1.5222353111152762,-1.4183394253489239,5.273674032862791,1.429921676023561
0,7.951154188641588,-2.7776709769172854,1.0528173235496983,1.9734520525255743,1.4349214021635035
0,9.52196833070089,4.37242396788996,6.41397448882342,3.7832304158476484,1.439921128303446
0,2.842783886380479,5.302520141888485,1.2851320622815574,3.133009120480702,1.4449208544433887
0,-3.11639915040295,2.9026175411829493,-4.433709964522152,-0.5872118362145189,1.4499205805833313
0,-0.20558078604112606,2.3527161615093046,0.9474483998589971,-4.787432457052398,1.4549203067232739
0,0.615238973060714,-3.947184001692431,-3.4413928530395377,-3.187652744788803,1.4599200328632165
0,2.246060120537496,12.602917046850028,0.3097662684650395,-2.617872701915729,1.464919759003159
0,7.316882649924499,-3.266980697810404,3.1309257561597548,-0.918092330621086,1.4699194851431017
0,4.597706554455449,-2.586877240902887,-1.8279143981669357,3.46168836711305,1.4749192112830443
0,4.758531826898576,-5.076772587727162,-1.576754202775336,5.141469389305056,1.4799189374229869
0,2.529358459529511,-2.9066667433438615,1.394406334094945,3.871250733735342,1.4849186635629295
0,8.740186444178708,12.313440287450312,14.075567204167081,6.281032397788085,1.489918389702872
0,2.7610157722123905,3.013548499786512,8.406728398767791,15.300814378309386,1.4949181158428146
0,-16.138153565383515,-13.476342111543946,-13.672110091434494,-5.029403328548142,1.4999178419827572
0,-19.107321577443287,-12.476231551737953,-19.11094827598118,-13.82962072716213,1.5049175681226998
0,-7.566488271818012,5.7938801746199005,-4.129786163715059,-0.7598378217947422,1.5099172942626424
0,-7.445653655058857,2.2339930635565253,0.36137623760195725,2.279945383828306,1.514917020402585
0,-2.7348177326763627,2.3041071112041913,2.0625389208827465,-2.7102711136592097,1.5199167465425276
0,6.716019490415534,-1.9257776864960525,-0.946298120797437,-0.38048731753828646,1.5249164726824702
0,7.696858009421612,3.8543386662472856,8.434865105546326,10.099296768907543,1.5299161988224128
0,-7.882302180727869,3.3144561651109017,-2.273971407308191,-1.4409188577771652,1.5349159249623554
0,-13.731461085253256,4.494574805557169,-7.782807666778725,-3.6211342013333256,1.539915651102298
0,-10.050618708921531,-11.405305417196422,-13.211643680129965,-12.661349265528992,1.5449153772422406
0,-7.869775055560218,-14.365184507834735,-13.77047945393266,-5.451564053683213,1.5499151033821832
0,-9.128930127998471,-10.665062470341175,-9.109314993680343,-3.4717785684026667,1.5549148295221258
0,-6.448083928190331,1.3350606923281274,-3.118150303754119,-0.9619928116743159,1.5599145556620684
0,-6.727236457303821,-1.6548150219971094,-9.86698538764974,-4.162206785098176,1.564914281802011
0,-12.116387715764906,-11.644689615077251,-10.295820248141908,-10.042420489960143,1.5699140079419536
0,-7.37553770319894,-8.934563088242433,-9.284654887204594,-0.8026339270991294,1.5749137340818962
0,3.5753135815688593,-7.084435442103105,-4.073489305927443,-2.582847096846617,1.5799134602218388
0,5.416166140201833,4.725693323492387,4.497676495325004,-3.6430599991474946,1.5849131863617743
0,2.997019974333863,13.655823209045973,-0.3711574834852795,0.9267273663103072,1.5899129125017168
0,1.1678750852795392,-11.014045785152845,-2.6799912423769237,5.466514999982971,1.5949126386416594
0,-8.99126852588317,-12.013913659042787,-7.748824781328973,-0.7236970977285958,1.599912364781602
0,-0.20041085800563557,1.7962195877593172,-2.2076581000380133,-0.30390892660759955,1.6049120909215446
0,0.8104480903432943,-3.373646043762233,-0.896491197789887,0.985879513454216,1.6099118170614872
0,-11.078691679138272,-12.283510552172807,-6.255324073526443,-6.474331777425329,1.6149115432014298
0,-11.217830164384528,-15.333373935491586,-11.704156725832304,-10.914542798927211,1.6199112693413724
0,-8.816967362616658,-1.3232361908374868,-4.152989152716607,-0.7047535502489914,1.624910995481315
0,-5.296103270133969,0.006902685583031268,-7.041821351459865,-0.7649640300154003,1.6299107216212576
0,-3.3152378824244493,-13.512957301857558,-0.0006533186974048977,-0.9651742364974001,1.6349104477612002
0,-3.3743711943970176,-0.12281614833198871,-2.0594850506209976,5.434615832138577,1.6399101739011428
0,-2.2435032005624844,5.337326151459153,0.251683456824164,2.174406177637909,1.6449099000410854
0,-8.43263389508915,6.007469602981667,3.4028522077809966,-7.705803198432379,1.649909626181028
0,-5.701763271720485,-3.682385788531341,-3.9259787936229595,-0.3660122945188164,1.6549093523209706
0,-4.320891323652198,2.047759981881424,1.9051904567049731,-2.2962211088516673,1.6599090784609132
0,5.829981956418155,7.487906919041197,8.956359962815466,2.783570360567961,1.6649088046008558
0,7.470856575951539,-0.501944972431706,1.327529728537287,0.6233621158049116,1.6699085307407984
0,10.26173254209342,8.008204311746256,9.468699757262648,7.863154158818713,1.674908256880741
0,5.382609861317196,1.4283547754775152,3.9198700518474907,4.292946491274638,1.6799079830206836
0,9.693488539314547,7.538506422257971,9.961040614561389,8.082739114363747,1.6849077091606262
0,11.594368580977997,9.118659255101022,16.792211446946606,9.712532028670793,1.6899074353005687
0,11.925249990297218,24.658813276288594,15.173382549526005,12.642325234016985,1.6949071614405113
0,13.056132770200351,12.828968486898205,15.254553921481955,12.902118729262524,1.699906887580454
0,14.727016922430161,7.809124886479299,13.635725560517974,16.421912512102992,1.7049066137203965
0,13.327902447452265,11.779282473195003,11.936897462903067,16.241706578898203,1.7099063398603391
0,10.728789344414027,9.36944124411628,7.8280696236075205,8.871500924568265,1.7149060660002817
0,4.729677611246873,7.46960119534138,6.619242036507609,6.491295542703188,1.7199057921402243
0,13.610567244879059,8.589762322058844,10.400414694597274,12.781090425840434,1.724905518280167
0,16.08145824129336,14.829924618584123,12.551587590034675,12.050885565579268,1.7299052444201095
0,5.872350595368768,16.38008807822002,3.062760714065605,4.270680952521167,1.734904970560052
0,2.4632443008773075,14.990252692981462,8.043934057059435,3.500476576350735,1.7399046966999947
0,1.5341393508333572,-6.599581546452025,4.405107608681544,0.5702724261367509,1.7449044228399373
0,-3.644964262095322,-0.4494146502749965,1.196281358039569,-3.8599315093467705,1.74990414897988
0,-3.454066545281653,-0.889246628888638,-0.2825447061622143,-0.33013524136284766,1.7549038751198225
0,-2.1531675059207127,-5.53907749255386,-0.42137059541093513,5.329661218907331,1.759903601259765
0,3.637732849025995,-9.678907251253438,-2.040196321215505,0.4094578602518947,1.7649033273997077
0,-3.2013654872847983,-8.78873591445386,-9.779021894961987,-10.630745328647274,1.7699030535396503
0,1.0695374783150986,-2.708563490898223,-5.267847327678043,-0.8809483589886977,1.7749027796795929
0,0.9704417390033322,-1.8483899886610091,-1.646672629845448,7.098848758353753,1.7799025058195355
0,2.6413472879342303,-5.4582154153674285,2.1845021885246623,6.278646012583622,1.784902231959478
0,1.3022541181478493,2.8319602216601494,6.145677117579793,5.148443392547546,1.7899019580994207
0,1.9831622225141161,7.652136915245484,7.076852147264989,-0.8717591134256164,1.7949016842393632
0,1.9340715937249444,-4.417685341907708,1.1580272670790421,-1.6719615173593727,1.7999014103793058
0,4.814982224276661,4.772493442669021,5.60920246603749,1.1678361686249248,1.8049011365192484
0,2.0958941064066696,4.912673261254824,-0.8096222672281299,-0.322366067569705,1.809900862659191
0,-6.723192767890987,-11.157145894036095,-6.0984469443063265,-3.6925682380060847,1.8149005887991336
0,-3.3222784066457427,-12.37696403101142,-6.647271576709781,-2.442770354650483,1.8199003149390762
0,-0.5513628176353079,-13.646781156834486,-7.726096175533783,-0.10297242927112882,1.8249000410790188
0,-0.4904460083495422,-9.666597277584732,-7.4649207512458755,1.6968255265349383,1.8298997672189614
0,-1.3495279861174676,-6.406412398197999,-3.0937453136290474,-0.23337649878211553,1.834899493358904
0,-0.9486087581761724,2.7437734772880784,2.047430128097191,2.4364214831738433,1.8398992194988466
0,2.1023116683107657,5.07396034529193,7.608605564957936,2.9762194606888985,1.8448989456387892
0,13.683233286117671,19.214148202106312,15.739780987743515,7.776017421836213,1.8498986717787318
0,8.19415608758861,5.214337043310153,9.71095638649401,8.395815354281766,1.8548983979186744
0,7.135080064279851,0.6445268635103005,5.742131750203165,5.845613245079213,1.859898124058617
0,1.4760052069196044,8.044717656558783,4.643307066914731,2.855411080609862,1.8648978501985596
0,-0.5030684943396313,-1.7250905841443136,-0.4855176759808002,0.2452088467182617,1.8698975763385022
0,-4.322141049586355,2.235102134487437,-3.3543424914300393,-2.724993471039486,1.8748973024784448
0,-1.2112124688545964,-0.17470419464972753,-4.273167392401417,-8.055195887104343,1.8798970286183874
0,-1.990282761978249,-0.9945095787370448,-5.1819923916210655,-4.375398415618859,1.88489675475833
0,-2.859351938570824,-4.924314024940124,-9.470817501391483,-3.7756010702382206,1.8898964808982726
0,-7.73842000800196,-13.864117540192186,-16.58964273336929,-8.215803864100932,1.8948962070382152
0,-15.91748697919385,-12.07392013081166,-14.758468098219247,-14.266006809766608,1.8998959331781577
0,-10.806552860253847,-20.143721802066576,-15.077293605287304,-6.28620991898939,1.9048956593181003
0,-10.235617658173503,-0.6235225579226016,-7.476119262504494,-5.416413202593977,1.909895385458043
0,-10.234681378804652,-9.993322401154797,-8.104945076560838,-10.286616670583118,1.9148951115979855
0,-11.033744026948922,-0.6331213337041375,-6.823771053176581,-7.716820332224206,1.9198948377379281
0,-0.13280560644865685,-1.4329193569856558,-1.4625971973269627,-5.4270241960179275,1.9248945638778707
0,-4.551866120402052,4.197283527867198,-4.651423513431141,-8.957228269713713,1.9298942900178133
0,0.7190744285363369,1.1874873197385856,-1.7502500055158536,-3.627432560370091,1.934894016157756
0,1.9100160379188542,-12.052307982556863,-8.469076677266543,-6.447637074414086,1.9398937422976985
0,-1.5690412946535455,-10.992102379981644,-8.817903531921893,-3.7978418177065603,1.944893468437641
0,-2.8480975715834798,-8.901895872789314,-5.936730572089493,-8.028046795590392,1.9498931945775837
0,-2.18715279518589,-5.601688460295735,-1.7555577996841247,-1.048252012887412,1.9548929207175263
0,6.453793032370555,6.758519858944937,4.165614783881912,-1.9984574739579637,1.959892646857469
0,-0.42526009107877816,-0.4612709132949317,0.7167871773525396,-3.61866318283309,1.9648923729974115
0,-4.624312167826665,6.268939224674142,0.6579593793757433,-5.338869143277206,1.969892099137354
0,0.13663679981912757,-4.430849725698314,0.3491313884650505,-10.319075358675297,1.9748918252772967
0,-4.922413190283115,-1.4006377631042697,-3.579696796919092,-7.379281831818803,1.9798915514172393
0,-9.041462139990607,-0.7704248861861381,-7.928525178214566,-13.74948856470907,1.9848912775571819
0,-5.850510050699048,-6.140211093408339,-6.487353756507939,-7.009695558414055,1.9898910036971245
0,-2.3295569231986155,-10.089996382935311,-6.566182532313478,-15.289902812996097,1.994890729837067
0,-1.1286027577514584,-6.619780752393997,-5.5350115055000835,-7.600110327459909,1.9998904559770097
0,4.402352445661535,-8.659564198674875,4.336159324618687,3.8396819001625873,2.0048901821169522
0,-1.6666913129007626,-4.509346717904597,3.01732995900472,4.289473872412237,2.009889908256895
0,-12.235734033386843,-2.359128305547133,-9.701499601374408,-15.190734408043584,2.0148896343968374
0,-2.4547757154693013,1.2210910433993323,1.1896706444919158,-4.550942938342856,2.01988936053678
0,5.286183641665588,7.1913113341123385,-0.6991593021529166,-1.8211517150765368,2.0248890866767226
0,0.6871440390990414,2.361532571619713,-2.2379894398641005,-2.351360734266065,2.0298888128166652
0,10.778105477768436,13.021754760534543,11.41318023284848,-3.581569991582608,2.034888538956608
0,4.219067958185562,9.281977904828393,4.1943497172594055,-2.441779482440165,2.0398882650965504
0,4.900031480287153,8.332202007617713,1.615519014174573,-3.69198920196832,2.044887991236493
0,2.2809960434551004,7.38242707110155,2.696688123926618,4.827800854951536,2.0498877173764356
0,4.681961646639655,12.112653096614876,4.197857046525669,2.9375906935210203,2.054887443516378
0,9.73292828839119,9.622880084610841,10.41902578165349,9.817380318737648,2.0598871696563137
0,1.5838959667552286,4.403108034608054,1.880194328498222,3.227169735138346,2.0648868957962563
0,1.4648646792470223,3.7733369453035555,3.0613626856829517,2.536958946706148,2.069886621936199
0,-2.934165576959409,-13.726433185082485,-7.727469148543792,-3.0432520429942445,2.0748863480761415
0,-6.063194804733374,-8.41620235824863,-7.126301175922534,-1.9534632305420028,2.079886074216084
0,-3.4622230067119153,-5.755970575270173,-5.005133397795153,2.6063253875436736,2.0848858003560267
0,-4.381250185138827,-0.31573783646215126,-5.883965814914748,1.616113814800948,2.0898855264959693
0,-1.4602763418510107,5.52449585833297,-6.7127984274465184,-1.2940979452930568,2.094885252635912
0,-8.769301478312947,11.394730509273243,-0.7716312350081832,-4.134309889313325,2.0998849787758544
0,-2.088325595582649,4.1049661160535,5.349535763188262,-3.134522013725262,2.104884704915797
0,0.20265130571338055,-5.104797322248361,-1.4792974319632293,0.8752656852503655,2.1098844310557396
0,-4.856370774726774,-3.1545598068722107,1.221869180323762,2.215053211581163,2.1148841571956822
0,-3.3953918369702927,4.625678661009047,-1.0469643992575035,1.9648405692378748,2.119883883335625
0,-1.5044118808067466,-2.094081919665199,-2.265798170017956,-0.40537223793712013,2.1248836094755674
0,2.3165690942376864,8.426158449985037,4.105367868780242,3.82441479375477,2.12988333561551
0,5.89755108871143,-2.763600231366398,4.6365337178483275,4.174201667847082,2.1348830617554526
0,13.718534102908745,13.626642034654333,12.95769937761491,10.593988387563279,2.139882787895395
0,4.3095181365018185,16.526885245895834,12.828864847862901,10.973774955561293,2.144882514035338
0,-1.6694968115929643,0.4671293993214146,-1.0899698725448934,1.733561373709445,2.1498822401752804
0,1.9414892570445785,5.087374490931743,1.3011952144617938,0.2133476431457978,2.154881966315223
0,3.1624763406387224,6.177620516064796,3.4523601065497482,2.7631337645939538,2.1598816924551656
0,-3.2665355626989667,3.167867469589655,3.363524801180045,-0.21708026140711936,2.164881418595108
0,2.204453545056439,3.668115345924604,5.514689295549696,4.882705565542103,2.169881144735051
0,1.4354436618980249,-1.2116358608919313,1.9358535864924666,0.592491245655942,2.1748808708749934
0,-0.42356521423376314,3.3786138429395365,2.527017670476296,0.5822767789433994,2.179880597014936
0,-2.5525730854597866,3.998864451046793,4.828181543653532,1.5620621652482818,2.1848803231548786
0,-0.6015799538662875,-11.730884043084425,-5.890654798078874,0.9718474043063792,2.189880049294821
0,-0.7005858214270028,-5.090631645872216,-11.389491358862776,-3.008367504227654,2.1948797754347638
0,4.880409309958871,6.889621636656959,-0.8883281424720623,0.2514174392965352,2.1998795015747064
0,-2.7185945616543594,-10.20012420118087,-5.117165152099195,-6.008797765364626,2.204879227714649
0,8.142402561646385,4.150130835097115,-1.4660023904577804,-1.6190131182397398,2.2098789538545915
0,2.7134006775442403,-5.759613259857519,0.8851601400483186,-1.9292286190756174,2.214878679994534
0,-0.7956002165989622,-3.9093564911728205,1.4063224371665992,-3.8494442673420584,2.2198784061344767
0,-4.054600123659869,-3.8990988636871418,-3.072515501334644,-4.039660062247183,2.2248781322744193
0,3.8364009534749046,-3.978840381862079,2.438646322307649,2.1201239972860124,2.229877858414362
0,-4.922596987995095,-5.918581049753344,-5.820192094093422,-4.4100920874380805,2.2348775845543045
0,-1.651593950774962,-4.32832087098206,-5.049030752577419,-6.190308314925617,2.239877310694247
0,-4.590589937391559,-0.42805984872503366,-5.167869654855576,-7.080524683354681,2.2448770368341897
0,-3.90958495007933,3.2022020141594676,-1.0667088021953144,-4.0407411903861945,2.2498767629741323
0,1.1214210092529138,-4.587535285080915,-3.455548195471489,-4.840957833116036,2.254876489114075
0,1.1624279389282268,5.3427282508007705,3.345612164701752,-4.051174608140632,2.2598762152540175
0,-5.216564162646067,-3.9770073809616875,-4.613227722160321,0.8586084883563463,2.26487594139396
0,-4.725555296952374,2.653257816842748,2.5179321435236215,7.20839146041459,2.2698756675339027
0,4.9754545347669925,2.203523841389911,8.679091761328277,10.618174311934087,2.2748753936738453
0,3.0464653314227643,-3.8962093102064808,-4.109748869357496,-6.77204295366539,2.279875119813788
0,0.5374770918132659,-7.325941640813529,-8.408589749344882,-8.822260333312272,2.2848748459537305
0,-0.8715101854741765,-9.375673152991515,-7.937430879265798,-5.122477823744405,2.289874572093673
0,8.589503497991068,-0.3954038487207726,-2.146272259195135,5.787304578811133,2.2948742982336157
0,2.1205181404192857,-3.705133729403576,-4.795113888603889,-1.7829131215578071,2.2998740243735583
0,3.8515337396493248,-3.104862796047282,-3.1339557665046187,-6.463130920714646,2.304873750513501
0,-0.787449706850498,-1.614591049370782,0.047202108440685536,-5.333348814377437,2.3098734766534434
0,3.073567798145384,-3.4943184898270268,0.7383597378091635,-5.303566797857823,2.314873202793386
0,-0.10541374829137606,0.8059548823691982,-5.500482876702593,-7.433784865929275,2.3198729289333286
0,4.35560565077023,6.116229067131697,3.600674266705612,4.315996987152462,2.3248726550732712
0,0.9566259920840465,2.3965040642758773,4.88183116989831,7.335778767413574,2.329872381213214
0,4.0876472721805515,4.746779873308343,0.5729878346163861,4.0455604807343555,2.3348721073531564
0,0.38866948734751516,-6.522943506580988,0.24414426235256942,3.3753421325475514,2.339871833493099
0,-2.6303073663189553,-8.832666076259319,-5.96469954553327,0.47512372784714785,2.3448715596330416
0,-4.719283292751158,-15.90238783617353,-4.693543587558544,-4.765094728620026,2.349871285772984
0,-2.5982582956872813,-1.252108785922482,-3.3823878618967567,-6.195313232078196,2.354871011912927
0,-0.7472323785662662,-3.0518289242213936,-6.241232366287478,-11.855531777388098,2.3598707380528694
0,1.8237944554093837,-1.351548249215495,-1.7700770980314442,-4.54575035875278,2.364870464192812
0,0.654822203106171,-3.3812667587577567,-1.0389220540430455,-6.195968969615366,2.3698701903327546
0,2.675850861325566,-1.700984450477695,2.582232769011692,-5.546187602740839,2.374869916472697
0,3.3368804267206125,5.339298678179846,2.653387374505908,-0.48640625034686225,2.37986964261264
0,6.87791089569627,1.9695826297806103,-0.0254582343101096,1.7633750957310714,2.3848693687525824
0,13.168942264218634,13.829867406624281,11.765695945590217,5.023156443773288,2.389869094892525
0,17.689974527475556,15.700153010387819,17.726849916759715,14.672937801831377,2.3948688210324676
0,8.061007679508355,11.920439441707043,12.298003680798047,15.002719177283636,2.39986854717241
0,-0.11795828684686105,4.110726699979592,7.249157238028264,8.582500576421932,2.4048682733123528
0,-5.636923379523995,-7.898985216349889,-3.369689412335082,0.8622820043891932,2.4098679994522954
0,0.9241123933772675,-1.9986963091683454,3.981463728307577,3.2420634655174205,2.414867725592238
0,-1.46485097609791,4.701593419771993,1.522616658322183,7.321844963684323,2.4198674517321805
0,1.9761865042245303,6.641883968806031,6.503769375890311,6.231626502360515,2.424867177872123
0,-0.5027751734617079,18.48217533591771,15.87492187880498,12.381408084436071,2.4298669040120657
0,0.3782639830045907,5.072467518266477,10.736074164110518,8.891189712020466,2.4348666301520083
0,7.849303965707379,0.6227605120182294,7.8472262277923965,8.95097138630412,2.439866356291951
0,5.100344766494671,-0.7269456873478137,3.9183780648045774,8.07075310754553,2.4448660824318935
0,8.561386376745139,4.143348915382209,8.229529669310288,5.250534875156195,2.449865808571836
0,5.662428787214553,7.5636443152542485,9.380681034814268,10.480316687788042,2.4548655347117787
0,11.903471987964243,10.48394050693019,14.431832154063587,12.980098543316723,2.4598652608517213
0,7.894515968269976,18.204237484332356,13.472983018803266,13.859880438657541,2.464864986991664
0,11.445560716522326,13.96453524026202,15.344133619550588,13.139662369546937,2.4698647131316065
0,8.106606220169315,15.354833766121299,13.68528394546713,8.899444330459993,2.474864439271549
0,0.877652465775918,-9.154866948023354,2.9564339843848773,-0.5807736852356021,2.4798641654114917
0,4.448699439233522,-3.104566912875307,4.207583723082825,8.099008315061454,2.4848638915514343
0,3.6097471260044527,1.5257338608032893,2.148733147691127,2.6387903234638936,2.489863617691377
0,1.760795511220019,10.246035362394107,-2.9401177560051437,4.868572331654708,2.4948633438313195
0,-0.05815542027713527,4.576337581076724,2.2610309976392804,-3.681645669068515,2.499863069971262
0,3.202894316158547,-0.6733594944688819,3.172179394223418,-5.021863687580584,2.5048627961112047
0,3.633944705008639,4.446944124000453,1.863327419235617,-3.5620817326108165,2.5098625222511473
0,-1.4850042694489,-1.4227515755211524,-1.5555249420269954,-7.462299812515394,2.51486224839109
0,-1.3639526231040624,-1.0924466051712478,-0.5643777043831897,-8.962517935137061,2.5198619745310324
0,-0.4929003718640219,14.627859022796727,2.5367691173368314,-8.122736107662123,2.524861700670975
0,-4.151847531534043,-3.6518347041568475,-3.722084491687701,-11.292954336479628,2.5298614268109176
0,-9.810794117698302,-13.461527798898468,-17.9809385461467,-11.283172627073908,2.534861152950853
0,-5.129740145499968,-5.431220274151995,-12.149793060141215,-5.833390983955027,2.5398608790907957
0,-6.408685629455052,-5.72091214198156,-7.908648046696935,-1.613609410742699,2.5448606052307383
0,-0.6176305834666806,-3.320603413742923,-0.8775035177356281,-3.1138279104434785,2.549860331370681
0,6.683424978952396,2.8397058996940614,5.843640515498733,0.6259535142775345,2.5548600575106235
0,9.584481044279649,9.890015787624918,8.72478404186786,8.965734860875473,2.559859783650566
0,-3.2544624014121113,-4.879673760855692,-1.3340729501169686,-0.30448387334853094,2.5648595097905087
0,-11.283405372408607,-2.3993627569276446,-8.892930472311463,-4.454702691383996,2.5698592359304513
0,-5.032347882849567,-2.7390512117775403,-9.101788536500436,-7.614921596275765,2.574858962070394
0,2.9587100536666675,-2.028739136365497,-3.850647153918214,-4.885140590737171,2.5798586882103365
0,-4.67023157602452,-1.4884265414056999,0.7304936648467497,-0.35535967697338844,2.584858414350279
0,-6.069172784854484,-9.378113437363128,-0.1183660903945406,-7.4655788567434,2.5898581404902217
0,-6.328113585439669,-5.9577998343177425,-5.4372264296729,-0.07579813144520835,2.5948578666301643
0,5.352946010044246,0.18251425818564204,-2.486087362860079,0.12398249783355451,2.599857592770107
0,0.32400598969522765,-10.587171168883035,-2.314948899558115,-1.6362369697988928,2.6048573189100495
0,-5.874933658365281,-4.816856124070549,-6.863811049046688,-6.116456535116053,2.609857045049992
0,-1.453872945966523,3.5134593845901665,-2.672673820242235,-4.6466761986563565,2.6148567711899346
0,-3.1528118847096,1.503775349404817,-6.511537221636019,-6.936895960539862,2.6198564973298772
0,1.698249514064424,4.914091762665252,2.9795987387015614,0.8728841796044225,2.62485622346982
0,-12.750688760762664,-4.955591383537201,-9.279265946973844,-1.8173357774583818,2.6298559496097624
0,-5.199626719942836,-0.6152740972231643,-7.5581312860652865,-9.127555830697666,2.634855675749705
0,0.9914356263357441,-2.13495638633535,1.6530027145013062,3.952224021202635,2.6398554018896476
0,-5.277501731616866,-4.604638258620588,0.7341360482424691,1.3620037798263538,2.64485512802959
0,-2.496438803178017,-2.334319721578747,0.4252687088310032,1.491783446803473,2.649854854169533
0,1.1046244025269942,7.185999217529389,4.166400689885293,6.011563023602011,2.6548545803094754
0,5.625687876528114,3.4163185514562477,-1.2724680151148842,8.181342511380574,2.659854306449418
0,12.936751609690495,3.1166382726753943,8.628662587122788,10.331121910772586,2.6648540325893606
0,-0.532184407649549,3.8869583732751325,6.289792489583956,0.37090122170215206,2.669853758729303
0,6.668879814200229,0.5672788450041809,-0.639078315204241,6.50068044343265,2.674853484869246
0,5.109944264409726,3.0775996793406453,-0.7879498351275971,1.9304595747414464,2.6798532110091884
0,-1.1089910682795983,-3.6620791324242834,3.143177921747155,-2.8897613859315925,2.684852937149131
0,6.342073804517819,6.798242400897841,8.00430494723495,4.7100175596619405,2.6898526632890736
0,0.5731388709038598,-2.9814357295962104,1.0454312328551363,-1.9802035903108028,2.694852389429016
0,-5.545795881235563,-8.911113532860382,-3.8834432302371553,-6.25042483771154,2.6998521155689588
0,-0.7347304640430006,7.839208982285594,-1.6123184510348263,-1.5806461842644857,2.7048518417089014
0,5.646335110471464,2.3495318071746576,-0.021194438424579798,1.87913236858177,2.709851567848844
0,4.8874008302913925,6.5998549329899525,-1.1100712011380396,2.958910819535906,2.7148512939887866
0,1.5184666831145865,8.220178350482154,2.0310512521718938,0.8586891672379355,2.719851020128729
0,1.8495326562800678,0.7405020498505617,3.622172912830643,-0.48153258983553804,2.7248507462686717
0,-3.839401263103478,-5.139173979167198,-7.6167062279248094,-1.441754453300359,2.7298504724086143
0,-4.9483350879379895,-9.418849746918086,-5.185586178814536,-3.871976424736011,2.734850198548557
0,-1.2672688309105893,-3.58852526337886,-4.724466948227566,-3.782198505546335,2.7398499246884995
0,4.24379749555761,0.7017994620222812,3.636651455894067,-0.5424206968589143,2.744849650828442
0,10.664863879069516,2.432124420215922,-0.7722309741306053,0.4173570004502058,2.7498493769683847
0,1.4859303068641485,0.43244960219065054,1.4288857540408508,3.8571345856064583,2.7548491031083273
0,-3.0830032343216818,-0.26722500115763603,-1.589998367304249,3.696912057739175,2.75984882924827
0,-1.721936758004774,-2.496899398991388,-6.17888334585946,-2.873310584240314,2.7648485553882125
0,-4.560870277622973,-4.376573600400992,-2.157769189127222,-8.37353334153423,2.769848281528155
0,-15.739803806275454,-14.916247614183675,-13.436655904217657,-10.253756215084941,2.7748480076680977
0,-18.338737356341927,-18.905921448436878,-23.275543497533832,-22.48397920509466,2.7798477338080403
0,-20.7976709389298,-19.105595110014033,-18.344431974221447,-14.274202310536314,2.784847459947983
0,-16.816604563458107,-12.655268604146746,-13.813321337702156,-13.65442552883084,2.7898471860879255
0,-15.545538237539775,-10.964941934441319,-20.43221158961911,-17.074648855829327,2.794846912227868
0,-17.634471967068286,-16.784615103092577,-20.891102729897426,-18.384872285872547,2.7998466383678107
0,-6.593405756364691,-8.534288111010298,-9.049994756704802,-6.455095811772487,2.8048463645077533
0,-5.232339608431621,2.0860390420483514,-3.8488876666192047,-4.525319424983526,2.809846090647696
0,-5.251273525348616,-1.6036336429265592,-10.527781455096985,-7.075543116021478,2.8148458167876385
0,-6.54020750856756,-14.033306164588584,-2.226676116837269,0.344233125204107,2.819845542927581
0,2.860858440960828,-4.762978521158955,1.7644283540372776,0.07400930918247861,2.8248452690675236
0,7.3519243225709445,-0.09265071020432256,0.17553196372296798,6.813785446545232,2.8298449952074662
0,-2.487009864481603,3.0876772712178653,0.6566347184599006,10.673561547727257,2.834844721347409
0,1.9440558788096292,2.8580054261625616,-0.9122633755567912,3.423337622629301,2.8398444474873514
0,0.34512155129610367,8.77833375747953,5.628837687815776,5.163113680480159,2.844844173627294
0,-4.273812848207098,-3.1313377323549334,-3.3900620853794075,4.772889729927115,2.8498438997672366
0,-2.4427473208130617,5.9289909587672245,-3.0989626891844737,5.802665779130942,2.854843625907179
0,-2.561681867422502,-1.8706801672973805,-3.0178641175565297,2.542441835773009,2.859843352047122
0,-4.070616488658241,-2.6403511088219993,-5.256766364183529,4.4122179070874115,2.8648430781870644
0,-5.219551184831049,-1.2000218640668143,-2.325669422407951,1.1919939999280404,2.869842804327007
0,-8.198485955852732,-6.829692431115071,-5.754573285194229,-1.7382298791242472,2.8748425304669496
0,-6.977420801083983,-4.799362807734843,-5.033477945106119,-2.2084537236034025,2.879842256606892
0,-1.5563557192564164,-0.42903299127975586,-4.24238339425821,3.1713224730020975,2.884841982746835
0,1.2347092914148583,1.2612970212481214,-1.5812896243153127,3.411098717219585,2.8898417088867774
0,-3.914225767013233,-3.378372766989433,-4.390196626563598,3.0808750154230613,2.89484143502672
0,-1.2031608923475097,-2.528042352739117,0.0008956080087463292,2.1706513737104722,2.8998411611666626
0,-6.462096082202915,-3.9777117325669225,0.12198708863723196,0.3904277979106576,2.904840887306605
0,5.088968666062453,7.792619097178187,2.413077824656345,5.630204293631036,2.9098406134465478
0,0.3300333552554716,12.322950140109311,8.634167825312204,3.909980866234533,2.9148403395864904
0,10.791097988087325,5.943281399331022,6.735257099508175,6.44975752072006,2.919840065726433
0,12.512162566833478,5.753612877151983,9.296345655552415,7.289534261602656,2.9248397918663755
0,12.26322709295791,10.063944575115798,11.537433500984434,3.829311092832994,2.929839518006318
0,6.064291566865121,14.894276493999897,11.898520642434384,0.9690880178132175,2.9348392441462607
0,2.2153559879815283,-7.845391366276818,1.1396070855480573,-1.3211349604260267,2.9398389702862033
0,3.8264203550592923,-1.505059006420381,-0.6193071648262607,-5.641357838959841,2.944838696426146
0,-3.592515333522744,2.505273572747853,-1.1882221042193784,-7.75158061467821,2.9498384225660885
0,-6.5014510794909794,-6.034393629461994,-4.387137728182251,-8.301803283997904,2.954838148706031
0,6.519613115572614,6.145939386361479,5.733945967855095,-5.832025842671707,2.9598378748459737
0,1.620677250218813,6.686272619609519,10.415028988453017,8.727751714165064,2.9648376009859163
0,2.8917413228827185,7.176606069372484,0.8461113378199865,0.8975293916192604,2.969837327125859
0,1.0128053317460681,-6.263060265752305,-2.7328069803354564,-11.00269280528275,2.9748370532658015
0,-0.3761307252195565,-19.012726387361244,-7.211725962512655,-2.0129148714425225,2.979836779405744
0,0.07493314985323205,-10.332392296512678,-0.4106456050170394,-3.08313680136936,2.9848365055456867
0,7.595996954750479,4.387942006763755,7.350434096135993,1.5066414108318755,2.9898362316856293
0,8.947060687022583,2.3982765231966616,3.3115131449384054,-0.13358022875267153,2.994835957825572
0,13.348124343642242,6.2786112536235335,4.132591545063051,-0.5038017139984304,2.9998356839655145
0,8.879187920690146,19.55894619847911,12.483669299708385,3.245976961200757,3.00483541010545
0,2.250251413267082,5.619281357372498,4.834746411462706,3.1257558028626096,3.0098351362453926
0,6.011314815677192,0.589616728891431,3.4958228821970034,3.6255348168026336,3.014834862385335
0,10.652378121634719,-3.040047689092859,9.29689871313763,8.405314008507412,3.0198345885252778
0,10.133441324203593,12.350288101012593,10.39797390489864,9.805093382968696,3.0248343146652203
0,-1.715495584336828,8.870624096508495,8.119048457336717,5.53487294449401,3.029834040805163
0,-8.354432612282581,-6.409039705862354,-2.3098776305020277,3.2646526966495353,3.0348337669451055
0,-6.6533697679333486,-5.528703309773448,-6.208804360084432,-0.015567357569586104,3.039833493085048
0,-2.7123070591243974,5.491633281145739,1.292268267090479,9.364212784461014,3.0448332192249907
0,-5.951244493133249,-2.8280299365468795,4.113340249699292,5.643993124990852,3.0498329453649333
0,-1.2001820767727398,-1.2776929662436884,-0.9155884135568487,4.253773665745586,3.054832671504876
0,-3.7791198164791426,-10.357355811239275,-2.2345177240853134,2.403554407896795,3.0598323976448185
0,-9.538057718332702,-10.317018474431219,-10.963447683246235,0.2833353522066646,3.064832123784761
0,-6.2969957879417064,-9.936680957979505,-10.142378291993614,1.1931164991987615,3.0698318499247037
0,-5.885934030275268,4.26365673680993,-10.541309550508016,-3.837102150705847,3.0748315760646463
0,-3.534872449653636,7.623994609157804,-2.270241458048962,1.312679402935786,3.079831302204589
0,-7.023811049842055,-5.12566734172123,8.9408259868227,-2.0575388393438763,3.0848310283445315
0,7.567250165831268,6.394670883152421,12.271892785655766,14.93224312298411,3.089830754484474
0,8.858311194177745,6.5750092825376125,9.12295893943813,7.6220252901063,3.0948304806244167
0,3.2493720316893175,2.11534785486554,5.51402444824773,4.941807661489938,3.0998302067643593
0,-6.999567325643901,-10.92431340178256,-3.9249106886319267,2.791590235834742,3.104829932904302
0,-4.598506882013795,-8.933974489281507,-1.3038464723130978,3.291373011296872,3.1098296590442445
0,-10.887446641310195,-3.64363540895901,-6.312782903884806,-2.028844014305847,3.114829385184187
0,1.6136133931502628,-1.9532961614619064,0.648280015824127,1.1909391566702465,3.1198291113241297
0,2.1246732185505053,5.667043252992456,5.109342286223713,-5.499277478151526,3.1248288374640723
0,7.415732832210893,16.557382834162677,8.17040390668783,-2.799493921010644,3.129828563604015
0,-1.8332077687674566,2.7377225812506802,-0.07853512377222154,-8.819710173839274,3.1348282897439574
0,0.30785141242537717,-8.211937507290376,-7.507474806523607,-8.469926238075754,3.1398280158839
0,1.268910372459259,-7.1415974333004755,-1.77641514296806,-2.560142114511037,3.1448277420238426
0,3.71996910793754,-3.4812571982925102,7.874643865715514,0.47964219666135655,3.1498274681637852
0,13.641027615247305,16.879083196647063,17.96570221829465,10.809426695527156,3.154827194303728
0,9.352085890219339,13.119423750291633,14.326759912812925,5.079211381973146,3.1598269204436704
0,1.2231439278509144,8.22976446055716,9.117816946072521,8.268996255320607,3.164826646583613
0,7.524201722368372,6.770105324248224,4.438873313617993,4.418781314211887,3.1698263727235556
0,8.03525926740952,5.250446337250083,1.5699290100857621,6.018566556652153,3.174826098863498
0,1.786316556043752,10.980787494725925,0.0809840296018442,1.4883519800985863,3.179825825003441
0,-9.052626419131162,-8.218871208785718,-8.78796163387917,-10.851862418339362,3.1848255511433834
0,-3.931569665579347,-9.168529779060226,-5.106907986222966,-4.562076641489551,3.189825277283326
0,-5.740513190396645,-1.9381882216368034,-7.245855032820202,1.3177093082477633,3.1948250034232686
0,-4.689457000157666,7.3321534584151875,7.075197221475437,3.577495428840102,3.199824729563211
0,-6.138401100924921,-0.4775047438038257,1.6962487720671195,-0.8327182816980425,3.2048244557031538
0,-12.217345498201674,-0.8171628333425842,-6.172700385695031,-16.332931825368078,3.2098241818430964
0,-20.45629019669588,-23.406820815236625,-26.261650256341632,-29.64314520365647,3.214823907983039
0,-16.435235199892592,-13.346478693873106,-22.77060084348322,-24.983358416581908,3.2198236341229816
0,-9.504180509737369,-3.7461364724133563,-10.339552149014889,-15.65357146197313,3.224823360262924
0,-12.13312612669682,-8.115794152816408,-13.44850417298808,-24.683784335392446,3.2298230864028667
0,-0.05207205007029958,-6.475451736198924,-10.657456913968966,-20.553997030318882,3.2348228125428093
0,-3.621018278358685,-8.905109222997183,-8.756410369331677,-12.534209538215684,3.239822538682752
0,-10.779964809554736,-14.50476661288531,-12.085364535381203,-12.374421848719932,3.2448222648226945
0,-6.7989116411382575,-4.604423904623597,-9.184319407412401,-8.954633950004736,3.249821990962637
0,-4.807858769913949,-4.304081096048024,-9.243274979720782,-8.304845829090684,3.2548217171025797
0,-10.746806191969377,-2.6337381842984895,-5.16223124566185,-8.66505747203882,3.2598214432425223
0,-3.3757539027035306,4.186604833882763,-6.291188197792203,-5.015268864074531,3.264821169382465
0,-4.544701896855336,-2.86305203810395,-7.170145828001176,-7.865479989675508,3.2698208955224075
0,-3.5136501686160058,-14.012708796764159,-3.0691041275745956,-1.6856908326766047,3.27482062166235
0,5.447401288187989,-21.76236543811182,-5.388063087243982,-2.2359013763953044,3.2798203478022927
0,0.6284524798535219,-1.2620219570668965,-6.6970226972420495,-2.996111603790541,3.2848200739422353
0,14.739503412488597,18.908321652519625,11.744017052603505,12.663678502344151,3.289819800082178
0,17.54055409159863,5.1886653969668,9.5350561725158,10.543468959015648,3.2948195262221205
0,13.411604521594107,-0.09099071806084169,8.986094672198861,7.303259782555081,3.299819252362063
0,8.032654705507204,11.849353312390232,9.877132560483354,9.193050988383956,3.3048189785020057
0,-2.226295354819209,5.9696974927097965,3.9981698453028987,5.792842591063716,3.3098187046419483
0,-0.9452456582078809,6.030041826642927,4.029206533831679,0.6926346044332532,3.314818430781891
0,7.205803796299063,-2.9196136826988757,2.680242632688535,6.212427041796355,3.3198181569218335
0,9.396853009467756,-7.399269032527502,1.3712781481142289,9.422219916025828,3.324817883061776
0,12.007901981536845,7.42107578000472,8.43231308604333,12.312013239411321,3.3298176092017187
0,6.518950711899339,12.081420757795758,5.743347452031489,11.241807023373354,3.3348173353416612
0,4.889999199047907,-1.5882340966149988,6.264381251097946,6.9816012783008246,3.339817061481604
0,-0.6489525592271306,3.7221112187524685,4.475414487659041,9.63139601358556,3.3448167876215464
0,6.672095434428327,16.952456705401456,16.956447165498368,14.891191237690649,3.349816513761489
0,-0.6968568229237108,6.682802364211228,7.68747928758847,6.040986958088475,3.3548162399014316
0,6.37419066549745,2.1531481951854534,1.8885108559380641,11.700783181213522,3.3598159660413742
0,2.755237896170045,5.363494197563408,2.9695418717688904,8.820579912518873,3.364815692181317
0,0.8762848652415602,2.8638403700908155,1.6905723358622022,9.430377156519521,3.3698154183212594
0,2.407331568572825,2.444186711140382,5.871602248721539,6.040174916821187,3.374815144461202
0,1.1783780018201804,-2.0554667812112704,-0.5673683894360679,6.989973196209891,3.3798148706011446
0,-2.9805758394976034,0.774879890966696,-0.7863395786491546,9.379771996738185,3.384814596741087
0,4.17047004008149,17.525226725478124,10.344688680869542,9.159571319717246,3.38981432288103
0,6.251515635942942,10.905573719639394,6.6657163886201936,3.20937116566387,3.3948140490209724
0,-2.5674390567506986,7.595920869809833,-4.003256456391094,1.5791715344033308,3.399813775160915
0,2.9136059568957537,-0.10373182866634245,1.4777701444408309,3.0589724253046047,3.4048135013008576
0,5.534650671589244,-3.163384381072864,-3.2612038103739196,4.408773837445405,3.4098132274408
0,1.655695081810252,2.5169632071217296,-5.670178322208567,7.158575769580688,3.4148129535807428
0,2.746739181725118,-3.522689069520922,-7.779153392144816,1.3683782200402588,3.4198126797206854
0,-2.142217034768682,1.2076587836266568,-2.048129020782255,-0.381818813266525,3.424812405860628
0,-4.411173573866354,-0.621993238748446,2.982894791751081,-3.1820153326524263,3.4298121320005706
0,-3.220130441637237,3.0783548580647007,-1.8160819544353561,-6.6922113403738805,3.434811858140513
0,-0.3190876438718706,-14.541296931194742,-4.2750592591718695,-7.072406838365532,3.4398115842804557
0,-5.628045186081337,-7.870948611490764,-5.914037122143916,-8.222601828014827,3.4448113104203983
0,-1.4770030735130966,-8.120600187085824,-3.3730155426901334,2.8372036899146673,3.449811036560341
0,-0.8159613111427574,0.5997483385742479,-5.11199451970377,-4.222990284870798,3.4548107627002835
0,1.925080096257378,0.8100969626011766,1.579025948327735,0.5868162475733527,3.459810488840226
0,3.806121143943175,0.17044568230973423,6.270045863148578,5.206623287281744,3.4648102149801687
0,4.017161827013751,-4.499205504956799,-3.5689347735431323,2.586430834209918,3.4698099411201113
0,9.788202140229611,18.791143398109533,6.802084039760136,4.486238888044252,3.474809667260054
0,6.939242077817721,12.801492388438126,10.40310230430587,4.936047448108596,3.4798093933999894
0,9.200281633303018,-8.928158537878351,11.29412002081925,6.615856513306343,3.484809119539932
0,5.491320799436871,3.412190614551888,5.605137189192767,8.585666082021826,3.4898088456798746
0,9.872359568210825,0.34253984093622236,8.516153808422487,17.015476151938614,3.494808571819817
0,4.763397930880291,5.772889136452459,-3.0128301232270216,0.6152867198175476,3.49980829795976
0,2.624435878020954,1.743238496086003,-1.751814607924303,-5.504902218435093,3.5048080240997024
0,1.0554733996867642,0.663587914536195,-2.9407996479075704,-2.6450906672488492,3.509807750239645
0,6.926510485593791,-2.6260626137041476,0.3102147547383858,-1.2352786309017292,3.5148074763795876
0,2.007547125145502,9.974286905759392,3.2012285980720616,-8.36546611336125,3.51980720251953
0,3.2885833073815642,1.9046364671345657,4.572241880115988,-3.84565311822709,3.5248069286594728
0,-3.6403809789647745,6.684986064239443,-0.7467454013194664,0.34416035134597145,3.5298066547994154
0,-3.1093457452644118,0.2853356904301423,-0.7057332486501123,-2.0760257074412065,3.534806380939358
0,4.201688997203993,6.895685338662144,11.86527833555099,0.04378870279470802,3.5398061070793005
0,2.562723237224847,1.4660350015302008,5.076289348406537,5.303603579494216,3.544805833219243
0,-1.8562430365239662,1.8463846712816616,0.9272997864990427,2.0734189200020365,3.5498055593591857
0,-11.895209835423689,-3.6932656600807316,-4.061690354058722,-0.026765278567848355,3.5548052854991283
0,-8.66417717053268,-10.742916000544925,-5.760681077247804,2.613050980677417,3.559805011639071
0,-2.973145052217455,-8.38256635770515,-2.6196723867999356,-1.0871323055091973,3.5648047377790135
0,-5.922113490117225,5.027783261490104,-0.038664286077072854,0.012684859546200189,3.569804463918956
0,-3.73108249331354,0.208132850557341,1.252343221811706,2.5325024724766787,3.5748041900588987
0,2.6099479295298074,12.098482403020853,-1.6166498661635336,2.7523205298469926,3.5798039161988413
0,3.5409777699610854,11.108831911964183,10.96435644691228,1.8421390280581875,3.584803642338784
0,-0.3479929805230343,-4.080818630252654,-2.8846378422677263,-2.678042036679671,3.5898033684787265
0,-4.536964330559925,0.009530768127441747,-3.86363273728485,-3.2082226682231707,3.594803094618669
0,-2.545936288750454,-7.3401199012885385,-0.12262824177756002,-5.738402870277079,3.5998028207586117
0,3.965091136493736,-6.619770646643257,-0.6816243592309009,-0.9585826462300222,3.6048025468985543
0,3.0361179368538878,-1.449421475616618,5.7193789069658045,2.271238000841252,3.609802273038497
0,-0.9428558961138569,-2.0390723954206784,0.07038155333495662,7.041059067957518,3.6148019991784395
0,-0.551830371018965,4.691276587012771,2.1213835761946993,3.730880551919914,3.619801725318382
0,-4.430805496494086,-4.9683745351814785,-1.937615028316559,-1.4092975508581018,3.6248014514583247
0,-8.489781280985856,2.501974231123235,-4.056614264100551,-4.629475244223446,3.6298011775982673
0,-8.298757732505287,-2.9976771209088997,-5.545614134909878,-4.799652531962641,3.63480090373821
0,-15.507734858343037,-17.237328597934564,-12.88461464409967,-12.739829417486847,3.6398006298781524
0,-13.48671266479558,-4.956980206082274,-18.123615794287733,-10.340005903538056,3.644800356018095
0,-14.175691156922031,-7.776631950624418,-13.502617586939138,-10.670181991930198,3.6498000821580376
0,-6.944670338475152,-19.366283835907424,-13.81162002209573,-12.450357683425437,3.6547998082979802
0,-5.163650212065408,-9.625935865237448,-7.590623098403194,-6.390532977724403,3.659799534437923
0,-8.072630779447783,-4.305588040733172,-1.9796268133685837,-4.940707873564232,3.6647992605778654
0,-3.7716120417135537,-3.495240363516366,-3.5086311637302736,2.7791176310236194,3.669798986717808
0,-2.7205939993817223,5.285107165853028,-4.0576361457781775,-2.1410564616351273,3.6747987128577506
0,0.40042334745628544,-8.644545452969085,-1.736641755469249,0.8187698508882754,3.679798438997693
0,1.351439998932844,7.025801779758723,0.1543520115266948,1.7885965710332055,3.684798165137636
0,-4.377544044751044,0.3761488638128305,-1.6746548402701353,-5.691576298763632,3.6897978912775784
0,-6.286528783294188,6.716495798842196,-4.8436623062078725,-4.011748755975221,3.694797617417521
0,-1.7855142161038884,-0.743157415797078,0.3273296185489635,-6.73192079777621,3.6997973435574636
0,10.215499657720187,4.6271892189449995,9.10832093898933,3.5979075790741093,3.704797069697406
0,9.82651283901501,0.6075357018629963,4.219311659971223,7.7477363780615205,3.709796795837349
0,4.8175253280566555,11.437882031475025,3.8503017859156543,2.077565602525138,3.7147965219772914
0,1.6885371243993428,4.218228205865238,5.751291320735244,1.7073952554157936,3.719796248117234
0,4.059548227050138,2.7685742225360683,8.0422802678558,1.227225339346898,3.7247959742571766
0,4.320558634655005,0.9689200784817945,7.15326863013436,7.267055856698533,3.729795700397119
0,3.6815683455130834,5.7292657703641465,7.254256409753257,2.9068868095570632,3.7347954265370618
0,6.87257735752403,7.9896112945281414,7.6752436081770385,2.4667181996174996,3.7397951526770044
0,9.06358566810231,2.219956646861093,9.58623022613834,1.8565500282122482,3.744794878816947
0,7.324593274027816,11.830301822686762,3.6772162636131216,-3.263617703556653,3.7497946049568895
0,5.11560017135166,5.2406468166987805,6.62820171986565,-6.383784994613724,3.754794331096832
0,4.646606355442318,7.250991622883932,6.639186593544284,2.026048156317602,3.7597940572367747
0,3.527611821111355,3.5913362345369153,-0.7598291172490108,-5.464118249199535,3.7647937833767173
0,1.4286165627381513,3.2616806443820403,2.8611545851612576,-4.584284209341458,3.76979350951666
0,6.4696205743549635,9.682024844664086,-0.2978623017904657,-5.924449721947003,3.7747932356566025
0,-3.8593761503076003,-3.6176311728354036,-5.496879780756536,-7.184614784376867,3.779792961796545
0,-7.768373617668619,0.7227125832926964,-4.65589785427982,-3.124779393439325,3.7847926879364877
0,-8.977371833930277,-5.286943895650959,0.1450834753978339,-3.9449435454059967,3.7897924140764303
0,-7.586370804689192,-10.936600618167418,-6.133935793623335,0.39489276387007566,3.794792140216373
0,-3.6053705347980394,-2.4162575922792375,-7.582955662907879,-7.715270461164158,3.7997918663563155
0,-4.254371028450398,-1.0659148254198914,-2.581976133570409,2.904566784210449,3.804791592496258
0,-0.9833722893598782,-4.985572324579423,-1.0009972062307098,-2.7955954950441946,3.8097913186362007
0,-0.9423743209205342,-7.245230096418853,-6.060018881131979,-1.9257572938090082,3.8147910447761433
0,4.6786228736295135,2.3051118527868,4.380958841749261,9.604081393104112,3.819790770916086
0,4.139619290996227,3.295453517078903,4.161935962567705,4.8839205707385265,3.8247904970560285
0,0.7006149276397448,-7.724205109412301,-1.8270875186219542,-1.816239756254849,3.829790223195971
0,5.151609779711557,-1.7838640324897461,9.433888398004482,5.633600416381914,3.8347899493359137
0,7.3126038430385565,4.216476742249588,6.6148637119356914,2.9234410926428973,3.8397896754758563
0,9.593597112980362,1.0068172093322283,4.705838422148287,0.9732822762517983,3.844789401615799
0,9.564589584209203,1.027157363191189,7.276812526998289,6.363123970637981,3.8497891277557414
0,4.925581250573071,-1.7725028018838627,6.197786024236236,6.82296617889339,3.854788853895684
0,14.36657210508556,2.167836708339248,6.438758911002688,4.862808903639047,3.8597885800356266
0,-3.6524378600386163,-1.8418241119147054,-0.0602688161508208,-1.6373478530213657,3.8647883061755692
0,-2.511448653182408,0.05851473158001161,-6.529297161061155,-3.0575040893085497,3.869788032315512
0,-1.5704602829065077,12.438853232998374,-4.0983261275760885,-0.03765980346823925,3.8747877584554544
0,4.220527242334654,-4.790808613729666,0.7726442807547295,8.392185006324755,3.879787484595397
0,3.2115139141059856,-10.47047081493749,-6.6963859392867695,3.962030341753044,3.8847872107353396
0,4.632499723765524,-14.770133376742738,-3.9854167906227254,0.9118762041111597,3.889786936875282
0,-0.6165153376497202,-14.429796304391845,-12.034448275752759,-0.1382774056786529,3.894786663015225
0,-6.995531279317763,-9.839459601895797,-3.093480396559564,-0.008430486868650156,3.8997863891551674
0,-3.274548110334871,-9.059123272020706,-7.292513154229479,-3.3385830387343596,3.90478611529511
0,-8.493565839425465,-1.2287873165035983,-1.7915465493309928,-1.1287350604633937,3.9097858414350526
0,-2.732584474794887,-2.148451736380625,-10.04058058191106,-0.9988865510886379,3.914785567574995
0,-5.72160402411563,-5.3581165322767905,-5.309615251480346,4.240962490480664,3.919785293714938
0,-3.4406244945730085,0.702218295471803,-4.138650556936794,5.170812065282505,3.9247850198548804
0,5.000354107027504,8.722552746715184,2.1623135033555005,13.310662174025785,3.929784745994823
0,6.951331773999061,3.74288682118556,4.84327693129313,8.65051281675532,3.9347844721347656
0,10.04230849936058,3.2132205182010782,12.004239728636142,11.860363992595598,3.939784198274708
0,8.58328427547758,9.353553836592393,8.325201896595866,12.270215699636195,3.9447839244146508
0,9.33425909388527,-2.8861132252829016,4.936163435583204,12.490067934866513,3.9497836505545862
0,1.3952329452814367,-3.395780669418497,-3.362875654718633,3.599920694160756,3.954783376694529
0,-2.543794180264829,-0.3654484978649343,2.7780846249846105,6.899773972435723,3.9597831028344714
0,-0.6228222929504061,14.124883287387503,1.2990442738614538,4.319627763903547,3.964782828974414
0,-0.7518514029498398,4.9752146840877085,-0.35999670899802133,-0.8505179377396332,3.9697825551143566
0,5.52911847962412,-2.584454310607468,4.580961675383288,3.049336860856947,3.974782281254299
0,2.9500873445630367,0.18587629999812805,1.0419194258287223,2.189192152840864,3.979782007394242
0,-2.628944818577594,5.116206512451318,2.802876540952985,1.829047931177547,3.9847817335341844
0,5.552021979552725,15.816536323103875,10.813833019088072,5.948904188602853,3.989781459674127
0,4.402987728129424,1.8168657277362903,3.1647888581292083,1.3387609175606185,3.9947811858140696
0,2.7939524160491374,1.437194721372094,3.6657440554015657,1.9686181101754516,3.999780911954012
0,6.004916031823256,7.897523298469388,5.3466986077135505,2.908475758301245,4.004780638093955
0,-0.20412143642452107,-6.472148546859799,1.8876525114537364,3.458333853559285,4.009780364233897
0,-3.7531600008569606,-0.9418208206751164,-1.4413942373292792,0.9881923873181341,4.01478009037384
0,-1.4121996736935043,-11.681493528906582,1.9195583572138646,-2.2519486492725567,4.019779816513783
0,-1.0612404670056865,-8.081166677006141,-3.169489709118233,-1.5420892651378488,4.024779542653725
0,-7.620282392649704,-5.890840269704335,-4.728538440470487,-8.742229469073907,4.029779268793668
0,-8.179325462150153,3.1094856889781006,-2.0775878407813,-11.01236926949367,4.03477899493361
0,-9.42836968646173,-0.060188804571453036,-5.706637913664211,-11.402508674098895,4.039778721073553
0,-11.887415075747198,1.1501362461072926,-10.465688662322147,-8.402647689641448,4.0447784472134956
0,-2.7764616392729957,0.030460837409300404,-0.11474008941219954,-0.8627863219221881,4.049778173353438
0,1.404490614468257,-6.339215034292172,0.22620780294318346,0.6570754239243695,4.054777899493381
0,4.9354416773678835,-1.418891372489547,2.5871550128930196,-2.3130624569313945,4.059777625633323
0,7.996391541235595,5.49143181954913,6.49810153854307,-4.433199969186869,4.064777351773266
0,3.297340197469765,3.0117545386100706,1.8990473777297359,0.4866628826369862,4.0697770779132085
0,1.6082876369574792,-5.887923218684804,2.489992527926106,-4.413473905749472,4.074776804053151
0,-2.570766149782599,2.032398544181439,0.27093698629992335,-1.9436103384135488,4.079776530193094
0,5.0601788276124635,-1.3772801762067912,8.281880749784941,6.136253580764278,4.084776256333036
0,8.401122559365017,3.423040616798712,9.492823814972466,6.636117847889054,4.089775982472979
0,6.292065035323391,7.6133609197527425,12.983766177821378,1.725982458744383,4.0947757086129215
0,2.123006244754572,0.48368072891803726,2.8147078334049187,-6.024152591272392,4.099775434752864
0,-0.9960538235847702,-1.1559999598006276,-1.3043512240179584,-5.794287306842786,4.104775160892807
0,-9.445115181137776,-13.015681150614629,-11.173411000567471,-10.334421692308236,4.109774887032749
0,-2.174177839159465,-16.35536284733533,-7.642471502143779,-11.434555751339369,4.114774613172692
0,-4.303241808467385,-5.425045052841354,-9.911532733977708,-5.034689486744381,4.1197743393126345
0,-5.1323070994291005,-0.8147277689534909,0.349405299497342,-1.3148229004945267,4.124774065452577
0,-0.9413737220130785,1.5355890031944663,7.200342594412124,2.6450440059795963,4.12977379159252
0,-3.000441685841292,1.9659052626794025,1.2812791469902511,6.5349112313827575,4.134773517732462
0,-1.0295110002710708,-3.3737789914508536,4.462214953184224,11.874778774154851,4.139773243872405
0,-9.188581674413523,-5.923463760135128,-7.836849991336448,5.294646632120248,4.1447729700123475
0,1.9923462829456102,0.8468509558925775,-3.2059156909320725,16.514514802263108,4.14977269615229
0,2.4632728633382266,11.077165156097381,11.775017850213825,23.36438328050268,4.154772422292233
0,-3.5858019415853195,1.4474788397990896,-2.7740493720710644,1.7042520613723164,4.159772148432175
0,-2.3048781401558616,4.957792005863425,-1.5031173621866014,-3.0158788619044508,4.164771874572118
0,-5.913955740553001,2.9681046526891866,-2.5621861246464435,1.693990503227149,4.16977160071206
0,1.5569652493330512,6.66841677827836,5.548744336115034,3.6038601491840114,4.174771326852003
0,-6.6421151780881145,-2.7812716197499583,-8.260325984274575,-5.0062699316704595,4.179771052991946
0,-2.4611970301326718,9.509039455886741,0.6106029098803005,-7.56639974696156,4.184770779131888
