labels,F4,F3,Fz,Cz,timestamps
0,-2182.65,-1219.46,-2198.16,-2566.9,-1.9998904559770097
0,-2180.93,-1207.32,-2191.08,-2566.18,-1.994890729837067
0,-2182.09,-1199.06,-2192.68,-2560.03,-1.9898910036971245
0,-2174.22,-1193.26,-2188.77,-2560.79,-1.9848912775571819
0,-2178.43,-1195.69,-2188.22,-2565.3,-1.9798915514172393
0,-2176.54,-1200.84,-2188.27,-2563.39,-1.9748918252772967
0,-2178.62,-1199.64,-2185.58,-2561.2,-1.969892099137354
0,-2180.47,-1197.26,-2190.58,-2563.12,-1.9648923729974115
0,-2179.59,-1191.5,-2190.11,-2562.3,-1.959892646857469
0,-2181.21,-1200.41,-2186.07,-2566.03,-1.9548929207175263
0,-2185.55,-1202.6,-2187.9,-2566.79,-1.9498931945775837
0,-2185.77,-1207.6,-2195.03,-2569.44,-1.944893468437641
0,-2187.07,-1210.1,-2199.47,-2573.02,-1.9398937422976985
0,-2184.88,-1212.12,-2193.55,-2565.16,-1.934894016157756
0,-2187.63,-1211.67,-2199.1,-2570.89,-1.9298942900178133
0,-2175.83,-1190.87,-2176.47,-2555.34,-1.9248945638778707
0,-2172.89,-1193.58,-2184.9,-2563.42,-1.9198948377379281
0,-2184.62,-1198.69,-2192.77,-2560.62,-1.9148951115979855
0,-2179.4,-1191.49,-2187.13,-2568.82,-1.909895385458043
0,-2171.79,-1196.86,-2185.69,-2554.83,-1.9048956593181003
0,-2182.59,-1205.38,-2191.26,-2568.31,-1.8998959331781577
0,-2178.04,-1204.94,-2182.49,-2558.96,-1.8948962070382152
0,-2174.46,-1206.75,-2192.3,-2561.66,-1.8898964808982726
0,-2171.22,-1203.2,-2190.48,-2558.93,-1.88489675475833
0,-2176.33,-1202.44,-2191.82,-2561.56,-1.8798970286183874
0,-2183.42,-1207.08,-2196.58,-2562.09,-1.8748973024784448
0,-2175.51,-1202.27,-2185.26,-2556.4,-1.8698975763385022
0,-2177.7,-1200.59,-2185.93,-2560.35,-1.8648978501985596
0,-2171.43,-1201.41,-2185.71,-2555.88,-1.859898124058617
0,-2175.46,-1197.6,-2183.8,-2558.95,-1.8548983979186744
0,-2176.28,-1199.23,-2187.47,-2557.1,-1.8498986717787318
0,-2184.95,-1197.41,-2189.69,-2561.19,-1.8448989456387928
0,-2182.81,-1199.71,-2195.2,-2563.19,-1.8398992194988502
0,-2179.5,-1208.09,-2193.11,-2562.94,-1.8348994933589076
0,-2181.11,-1203.72,-2187.29,-2565.82,-1.829899767218965
0,-2185.43,-1206.07,-2203.84,-2570.72,-1.8249000410790224
0,-2192.39,-1216.36,-2204.96,-2576.51,-1.8199003149390798
0,-2191.95,-1223.27,-2209.14,-2574.94,-1.8149005887991372
0,-2191.95,-1222.61,-2210.47,-2575.91,-1.8099008626591946
0,-2191.79,-1218.85,-2205.72,-2579.33,-1.804901136519252
0,-2188.39,-1211.11,-2197.36,-2569.68,-1.7999014103793094
0,-2184.99,-1217.67,-2197.9,-2563.87,-1.7949016842393668
0,-2178.2,-1206.04,-2196.84,-2568.0,-1.7899019580994242
0,-2176.21,-1202.82,-2197.02,-2567.67,-1.7849022319594816
0,-2184.76,-1200.26,-2194.72,-2563.18,-1.779902505819539
0,-2175.7,-1199.12,-2191.25,-2561.98,-1.7749027796795964
0,-2173.51,-1194.46,-2187.14,-2559.7,-1.7699030535396538
0,-2178.9,-1195.22,-2188.02,-2557.64,-1.7649033273997112
0,-2172.3,-1203.88,-2187.31,-2564.96,-1.7599036012597686
0,-2182.61,-1203.86,-2193.25,-2563.75,-1.754903875119826
0,-2191.43,-1208.87,-2201.82,-2572.98,-1.7499041489798834
0,-2186.86,-1199.36,-2196.77,-2569.28,-1.7449044228399408
0,-2182.95,-1203.7,-2200.55,-2565.73,-1.7399046966999983
0,-2180.09,-1212.79,-2194.59,-2563.76,-1.7349049705600557
0,-2185.26,-1207.99,-2201.42,-2574.31,-1.729905244420113
0,-2185.66,-1205.29,-2195.77,-2570.3,-1.7249055182801705
0,-2176.52,-1194.89,-2191.42,-2562.14,-1.7199057921402279
0,-2184.77,-1208.69,-2197.36,-2568.82,-1.7149060660002853
0,-2187.64,-1203.85,-2195.02,-2564.78,-1.7099063398603427
0,-2182.74,-1209.99,-2189.19,-2562.44,-1.7049066137204
0,-2186.54,-1205.4,-2199.28,-2564.59,-1.6999068875804575
0,-2182.99,-1212.65,-2196.56,-2563.2,-1.694907161440515
0,-2177.19,-1197.51,-2188.54,-2556.49,-1.6899074353005723
0,-2180.0,-1206.57,-2191.63,-2565.0,-1.6849077091606297
0,-2180.69,-1204.16,-2193.78,-2560.72,-1.6799079830206871
0,-2178.74,-1200.1,-2192.1,-2564.21,-1.6749082568807445
0,-2178.5,-1208.12,-2188.9,-2564.13,-1.669908530740802
0,-2175.13,-1205.19,-2189.48,-2565.45,-1.6649088046008593
0,-2179.04,-1206.34,-2193.99,-2569.2,-1.6599090784609167
0,-2174.39,-1203.81,-2189.68,-2556.36,-1.6549093523209741
0,-2177.19,-1206.5,-2193.83,-2560.47,-1.6499096261810315
0,-2178.9,-1202.03,-2196.68,-2559.65,-1.644909900041089
0,-2175.24,-1193.68,-2193.53,-2564.96,-1.6399101739011464
0,-2171.72,-1202.95,-2185.93,-2559.05,-1.6349104477612038
0,-2173.16,-1192.91,-2183.35,-2555.67,-1.6299107216212612
0,-2162.65,-1182.92,-2174.39,-2556.83,-1.6249109954813186
0,-2172.24,-1187.53,-2180.47,-2557.64,-1.619911269341376
0,-2181.38,-1201.73,-2185.12,-2565.0,-1.6149115432014334
0,-2176.33,-1200.78,-2186.28,-2558.51,-1.6099118170614908
0,-2180.7,-1199.61,-2192.02,-2563.35,-1.6049120909215517
0,-2187.81,-1210.09,-2197.4,-2570.84,-1.5999123647816091
0,-2189.45,-1208.99,-2194.23,-2567.22,-1.5949126386416665
0,-2188.73,-1209.75,-2197.23,-2570.97,-1.589912912501724
0,-2187.22,-1202.76,-2200.24,-2574.41,-1.5849131863617814
0,-2189.67,-1209.24,-2197.27,-2573.5,-1.5799134602218388
0,-2186.11,-1199.39,-2196.55,-2564.08,-1.5749137340818962
0,-2178.88,-1208.62,-2196.57,-2566.79,-1.5699140079419536
0,-2184.64,-1213.77,-2197.11,-2565.4,-1.564914281802011
0,-2178.49,-1206.68,-2197.66,-2562.37,-1.5599145556620684
0,-2183.15,-1206.29,-2199.02,-2561.12,-1.5549148295221258
0,-2184.45,-1212.94,-2195.48,-2565.08,-1.5499151033821832
0,-2185.77,-1208.61,-2199.83,-2569.58,-1.5449153772422406
0,-2177.56,-1206.66,-2189.72,-2563.79,-1.539915651102298
0,-2176.68,-1198.94,-2188.26,-2559.4,-1.5349159249623554
0,-2179.48,-1195.65,-2185.66,-2553.71,-1.5299161988224128
0,-2182.48,-1192.41,-2189.94,-2560.41,-1.5249164726824702
0,-2174.31,-1205.22,-2190.37,-2558.19,-1.5199167465425276
0,-2184.49,-1207.08,-2195.51,-2565.16,-1.514917020402585
0,-2188.37,-1211.72,-2200.23,-2569.67,-1.5099172942626424
0,-2188.09,-1203.68,-2201.96,-2571.63,-1.5049175681226998
0,-2183.92,-1203.57,-2198.87,-2568.23,-1.4999178419827572
0,-2180.79,-1202.55,-2195.98,-2558.73,-1.4949181158428146
0,-2182.72,-1206.62,-2191.82,-2566.72,-1.489918389702872
0,-2180.88,-1204.86,-2196.63,-2563.53,-1.4849186635629295
0,-2178.5,-1205.66,-2191.9,-2566.94,-1.4799189374229869
0,-2184.89,-1206.13,-2195.64,-2564.22,-1.4749192112830443
0,-2169.74,-1187.33,-2185.76,-2553.3,-1.4699194851431017
0,-2174.94,-1199.35,-2187.53,-2557.03,-1.464919759003159
0,-2175.01,-1210.4,-2191.24,-2559.8,-1.4599200328632165
0,-2186.68,-1203.79,-2189.92,-2564.42,-1.4549203067232739
0,-2187.17,-1200.75,-2188.92,-2567.25,-1.4499205805833313
0,-2188.8,-1208.49,-2197.07,-2567.89,-1.4449208544433887
0,-2186.41,-1205.06,-2198.6,-2572.07,-1.439921128303446
0,-2186.96,-1208.99,-2200.35,-2572.02,-1.4349214021635035
0,-2189.05,-1215.16,-2197.37,-2567.93,-1.429921676023561
0,-2192.12,-1219.37,-2206.68,-2571.49,-1.4249219498836183
0,-2187.13,-1207.61,-2202.62,-2569.06,-1.4199222237436757
0,-2191.48,-1192.93,-2197.79,-2567.95,-1.4149224976037331
0,-2184.1,-1200.29,-2191.22,-2559.6,-1.4099227714637905
0,-2182.91,-1210.72,-2191.24,-2554.87,-1.404923045323848
0,-2195.08,-1220.06,-2201.91,-2568.8,-1.3999233191839053
0,-2182.77,-1207.74,-2197.4,-2572.95,-1.3949235930439627
0,-2179.22,-1217.67,-2197.81,-2572.88,-1.3899238669040201
0,-2190.04,-1210.53,-2198.82,-2573.56,-1.3849241407640775
0,-2184.6,-1206.18,-2194.25,-2572.92,-1.379924414624135
0,-2181.95,-1199.21,-2191.77,-2566.0,-1.3749246884841924
0,-2180.34,-1193.35,-2190.3,-2567.21,-1.3699249623442533
0,-2185.77,-1208.38,-2200.67,-2575.77,-1.3649252362043107
0,-2188.51,-1213.58,-2204.45,-2573.93,-1.3599255100643681
0,-2188.56,-1215.4,-2198.16,-2575.05,-1.3549257839244255
0,-2186.92,-1216.38,-2202.12,-2572.27,-1.349926057784483
0,-2182.07,-1217.93,-2203.32,-2567.01,-1.3449263316445403
0,-2187.38,-1208.24,-2199.64,-2575.4,-1.3399266055045977
0,-2183.32,-1199.96,-2194.73,-2566.65,-1.3349268793646552
0,-2188.28,-1211.35,-2195.39,-2569.39,-1.3299271532247126
0,-2187.91,-1213.99,-2202.42,-2575.32,-1.32492742708477
0,-2185.57,-1211.33,-2202.64,-2573.51,-1.3199277009448274
0,-2189.25,-1198.27,-2193.35,-2570.43,-1.3149279748048848
0,-2188.26,-1201.42,-2195.7,-2573.04,-1.3099282486649422
0,-2185.24,-1213.04,-2202.81,-2572.2,-1.3049285225249996
0,-2185.26,-1208.23,-2196.92,-2570.15,-1.299928796385057
0,-2189.02,-1204.66,-2198.57,-2569.11,-1.2949290702451144
0,-2184.97,-1202.6,-2193.0,-2565.86,-1.2899293441051718
0,-2180.43,-1212.41,-2195.44,-2562.7,-1.2849296179652292
0,-2184.5,-1205.41,-2196.09,-2560.34,-1.2799298918252866
0,-2189.6,-1209.42,-2202.02,-2563.13,-1.274930165685344
0,-2188.43,-1210.08,-2195.71,-2566.13,-1.2699304395454014
0,-2185.06,-1205.44,-2200.31,-2566.73,-1.2649307134054588
0,-2186.45,-1205.71,-2198.36,-2568.58,-1.2599309872655162
0,-2181.03,-1205.34,-2192.55,-2562.13,-1.2549312611255736
0,-2182.62,-1201.44,-2192.35,-2557.9,-1.249931534985631
0,-2174.82,-1199.61,-2192.18,-2559.16,-1.2449318088456884
0,-2179.82,-1199.13,-2189.0,-2564.0,-1.2399320827057458
0,-2175.45,-1197.7,-2178.46,-2557.57,-1.2349323565658032
0,-2174.66,-1193.22,-2177.0,-2556.33,-1.2299326304258607
0,-2167.83,-1192.1,-2177.82,-2557.49,-1.224932904285918
0,-2173.45,-1201.29,-2182.69,-2563.13,-1.2199331781459755
0,-2170.93,-1194.51,-2185.67,-2566.84,-1.2149334520060329
0,-2168.48,-1205.82,-2179.49,-2554.06,-1.2099337258660903
0,-2173.74,-1192.42,-2178.11,-2553.87,-1.2049339997261477
0,-2167.03,-1190.95,-2177.6,-2555.25,-1.199934273586205
0,-2172.01,-1200.17,-2183.01,-2553.0,-1.1949345474462625
0,-2169.98,-1198.39,-2187.14,-2570.13,-1.18993482130632
0,-2179.81,-1201.6,-2191.96,-2569.35,-1.1849350951663773
0,-2184.31,-1202.04,-2196.78,-2573.19,-1.1799353690264347
0,-2176.56,-1204.01,-2197.48,-2572.05,-1.174935642886492
0,-2174.89,-1197.97,-2192.21,-2567.59,-1.1699359167465495
0,-2184.71,-1209.57,-2200.8,-2572.74,-1.164936190606607
0,-2185.64,-1213.6,-2202.09,-2571.98,-1.1599364644666643
0,-2180.92,-1212.02,-2202.93,-2566.36,-1.1549367383267217
0,-2176.22,-1207.93,-2194.78,-2565.74,-1.1499370121867791
0,-2178.97,-1203.75,-2191.83,-2557.81,-1.1449372860468365
0,-2177.86,-1202.5,-2190.6,-2558.14,-1.139937559906894
0,-2183.43,-1193.41,-2186.54,-2555.1,-1.134937833766955
0,-2178.86,-1199.36,-2191.0,-2561.07,-1.1299381076270123
0,-2174.11,-1205.66,-2195.11,-2561.29,-1.1249383814870697
0,-2186.22,-1211.17,-2205.53,-2570.09,-1.119938655347127
0,-2183.11,-1202.32,-2197.22,-2559.71,-1.1149389292071845
0,-2178.93,-1205.34,-2194.79,-2565.47,-1.109939203067242
0,-2181.68,-1202.97,-2199.65,-2566.08,-1.1049394769272993
0,-2187.3,-1210.71,-2201.7,-2575.16,-1.0999397507873567
0,-2187.73,-1211.07,-2202.12,-2572.42,-1.0949400246474141
0,-2186.56,-1208.87,-2199.45,-2573.32,-1.0899402985074715
0,-2176.43,-1207.1,-2194.98,-2570.98,-1.084940572367529
0,-2176.49,-1206.23,-2196.22,-2569.38,-1.0799408462275863
0,-2184.89,-1205.43,-2197.68,-2564.51,-1.0749411200876438
0,-2184.67,-1211.91,-2195.49,-2569.17,-1.0699413939477012
0,-2187.86,-1211.33,-2197.82,-2571.26,-1.0649416678077586
0,-2183.07,-1202.59,-2191.59,-2564.81,-1.059941941667816
0,-2173.04,-1190.27,-2185.34,-2557.95,-1.0549422155278734
0,-2182.84,-1205.29,-2193.37,-2559.53,-1.0499424893879308
0,-2180.97,-1203.63,-2191.86,-2558.15,-1.0449427632479882
0,-2179.62,-1197.27,-2191.78,-2561.17,-1.0399430371080456
0,-2179.5,-1193.27,-2187.45,-2557.91,-1.034943310968103
0,-2173.57,-1196.53,-2183.88,-2556.74,-1.0299435848281604
0,-2168.89,-1199.43,-2185.03,-2553.64,-1.0249438586882178
0,-2177.48,-1200.24,-2193.27,-2561.09,-1.0199441325482752
0,-2182.43,-1204.24,-2185.87,-2560.93,-1.0149444064083326
0,-2180.81,-1189.66,-2193.93,-2565.79,-1.00994468026839
0,-2178.01,-1203.95,-2193.42,-2560.84,-1.0049449541284474
0,-2180.72,-1201.26,-2191.02,-2560.98,-0.9999452279885048
0,-2185.04,-1203.24,-2195.55,-2569.32,-0.9949455018485622
0,-2179.36,-1196.27,-2189.59,-2563.32,-0.9899457757086196
0,-2179.42,-1202.45,-2190.33,-2558.23,-0.984946049568677
0,-2177.64,-1207.94,-2192.34,-2564.51,-0.9799463234287344
0,-2179.93,-1196.04,-2190.03,-2563.57,-0.9749465972887918
0,-2177.28,-1198.05,-2181.64,-2554.83,-0.9699468711488493
0,-2171.41,-1199.83,-2183.56,-2558.91,-0.9649471450089067
0,-2172.81,-1196.17,-2189.46,-2559.95,-0.9599474188689641
0,-2175.39,-1202.44,-2188.05,-2560.59,-0.9549476927290215
0,-2178.92,-1205.31,-2192.59,-2564.1,-0.9499479665890789
0,-2185.73,-1201.78,-2194.64,-2570.42,-0.9449482404491363
0,-2183.26,-1207.52,-2198.99,-2567.6,-0.9399485143091937
0,-2189.75,-1204.0,-2203.65,-2568.24,-0.9349487881692511
0,-2185.2,-1202.02,-2199.24,-2561.48,-0.9299490620293085
0,-2186.09,-1205.68,-2196.55,-2567.46,-0.9249493358893659
0,-2184.58,-1213.12,-2201.31,-2571.64,-0.9199496097494233
0,-2192.0,-1213.86,-2204.31,-2574.35,-0.9149498836094807
0,-2194.34,-1213.49,-2206.46,-2579.1,-0.9099501574695381
0,-2195.82,-1206.86,-2198.5,-2577.47,-0.9049504313295955
0,-2191.56,-1212.39,-2201.78,-2571.26,-0.8999507051896529
0,-2195.19,-1211.46,-2201.27,-2574.78,-0.8949509790497139
0,-2192.28,-1217.63,-2206.12,-2578.83,-0.8899512529097713
0,-2189.03,-1218.36,-2203.74,-2575.59,-0.8849515267698287
0,-2185.89,-1211.86,-2200.39,-2574.63,-0.8799518006298861
0,-2181.55,-1195.81,-2197.98,-2568.77,-0.8749520744899435
0,-2183.88,-1205.58,-2195.42,-2570.71,-0.8699523483500009
0,-2186.56,-1203.91,-2196.05,-2561.54,-0.8649526222100583
0,-2189.17,-1203.51,-2195.02,-2568.17,-0.8599528960701157
0,-2187.22,-1208.49,-2196.96,-2568.21,-0.8549531699301731
0,-2190.75,-1211.49,-2204.2,-2571.27,-0.8499534437902305
0,-2185.61,-1207.33,-2202.89,-2572.26,-0.8449537176502879
0,-2178.99,-1207.1,-2196.39,-2567.14,-0.8399539915103453
0,-2176.99,-1194.98,-2189.16,-2561.86,-0.8349542653704027
0,-2188.46,-1216.41,-2203.44,-2569.32,-0.8299545392304601
0,-2185.81,-1208.29,-2196.7,-2566.35,-0.8249548130905175
0,-2189.94,-1210.71,-2202.56,-2569.7,-0.819955086950575
0,-2188.65,-1212.61,-2206.63,-2572.08,-0.8149553608106324
0,-2189.51,-1211.73,-2206.05,-2570.88,-0.8099556346706898
0,-2196.14,-1216.55,-2203.96,-2575.66,-0.8049559085307472
0,-2186.64,-1203.86,-2198.39,-2568.34,-0.7999561823908046
0,-2189.87,-1211.44,-2200.27,-2563.88,-0.794956456250862
0,-2190.09,-1214.58,-2199.77,-2569.54,-0.7899567301109194
0,-2183.99,-1210.27,-2200.3,-2565.45,-0.7849570039709768
0,-2186.12,-1202.88,-2196.08,-2560.76,-0.7799572778310342
0,-2174.93,-1197.66,-2185.52,-2556.81,-0.7749575516910916
0,-2171.32,-1199.15,-2180.46,-2560.28,-0.769957825551149
0,-2177.26,-1192.04,-2180.86,-2559.26,-0.7649580994112064
0,-2175.54,-1192.51,-2183.39,-2552.88,-0.7599583732712638
0,-2175.52,-1192.27,-2183.84,-2555.01,-0.7549586471313212
0,-2177.61,-1197.84,-2190.42,-2562.2,-0.7499589209913786
0,-2189.12,-1199.4,-2195.01,-2566.16,-0.744959194851436
0,-2187.43,-1200.4,-2198.29,-2568.28,-0.7399594687114934
0,-2184.55,-1207.94,-2193.25,-2568.51,-0.7349597425715508
0,-2185.91,-1213.93,-2197.78,-2572.44,-0.7299600164316082
0,-2189.98,-1219.6,-2201.96,-2578.66,-0.7249602902916656
0,-2184.82,-1212.16,-2195.43,-2573.88,-0.719960564151723
0,-2190.9,-1206.47,-2200.64,-2574.17,-0.7149608380117805
0,-2186.05,-1212.23,-2200.03,-2565.79,-0.7099611118718379
0,-2183.74,-1206.8,-2193.26,-2567.75,-0.7049613857318953
0,-2179.46,-1205.84,-2196.44,-2565.27,-0.6999616595919527
0,-2177.11,-1202.33,-2184.74,-2557.95,-0.6949619334520101
0,-2172.38,-1198.84,-2187.08,-2560.0,-0.6899622073120675
0,-2176.06,-1189.91,-2183.2,-2552.38,-0.6849624811721249
0,-2171.98,-1181.78,-2175.07,-2550.43,-0.6799627550321823
0,-2166.35,-1189.02,-2181.29,-2545.91,-0.6749630288922397
0,-2164.72,-1197.27,-2173.73,-2545.89,-0.6699633027522971
0,-2166.12,-1198.77,-2177.55,-2548.64,-0.6649635766123545
0,-2172.05,-1188.13,-2182.53,-2554.16,-0.6599638504724155
0,-2169.47,-1195.83,-2180.37,-2556.52,-0.6549641243324729
0,-2180.39,-1201.52,-2191.61,-2565.33,-0.6499643981925303
0,-2176.1,-1208.46,-2190.32,-2562.4,-0.6449646720525877
0,-2168.49,-1192.54,-2181.39,-2552.01,-0.6399649459126451
0,-2183.4,-1199.39,-2195.72,-2558.73,-0.6349652197727025
0,-2181.8,-1198.98,-2189.36,-2563.92,-0.6299654936327599
0,-2179.93,-1198.84,-2194.5,-2564.89,-0.6249657674928173
0,-2170.2,-1199.35,-2188.11,-2562.73,-0.6199660413528747
0,-2176.3,-1202.03,-2190.07,-2560.08,-0.6149663152129321
0,-2173.89,-1197.82,-2186.35,-2557.51,-0.6099665890729895
0,-2173.51,-1200.54,-2186.86,-2560.13,-0.6049668629330469
0,-2173.26,-1201.35,-2188.37,-2561.93,-0.5999671367931043
0,-2176.61,-1201.4,-2189.89,-2560.55,-0.5949674106531617
0,-2170.82,-1195.39,-2183.62,-2556.91,-0.5899676845132191
0,-2177.74,-1208.41,-2190.57,-2563.29,-0.5849679583732765
0,-2180.78,-1204.53,-2197.37,-2559.59,-0.5799682322333339
0,-2185.21,-1215.08,-2199.58,-2570.17,-0.5749685060933913
0,-2178.29,-1209.27,-2190.96,-2561.28,-0.5699687799534487
0,-2184.18,-1210.34,-2195.38,-2561.95,-0.5649690538135062
0,-2182.63,-1201.23,-2192.18,-2561.61,-0.5599693276735636
0,-2179.44,-1200.75,-2198.37,-2560.42,-0.554969601533621
0,-2180.74,-1203.46,-2193.49,-2565.45,-0.5499698753936784
0,-2179.76,-1205.85,-2194.41,-2562.55,-0.5449701492537358
0,-2183.66,-1199.39,-2196.56,-2561.45,-0.5399704231137932
0,-2183.55,-1203.63,-2194.42,-2558.9,-0.5349706969738506
0,-2185.84,-1204.23,-2199.66,-2566.49,-0.529970970833908
0,-2188.55,-1209.75,-2203.41,-2570.73,-0.5249712446939654
0,-2179.49,-1211.41,-2197.13,-2566.15,-0.5199715185540228
0,-2178.45,-1205.59,-2193.09,-2565.39,-0.5149717924140802
0,-2190.82,-1208.97,-2199.5,-2572.96,-0.5099720662741376
0,-2187.18,-1212.1,-2201.06,-2572.27,-0.504972340134195
0,-2181.75,-1201.86,-2195.19,-2564.54,-0.4999726139942524
0,-2184.73,-1199.91,-2192.9,-2563.76,-0.4949728878543098
0,-2184.14,-1211.38,-2199.14,-2572.01,-0.4899731617143672
0,-2185.58,-1198.55,-2201.62,-2573.13,-0.4849734355744246
0,-2187.16,-1210.35,-2201.49,-2569.29,-0.47997370943448203
0,-2185.11,-1209.87,-2196.93,-2567.34,-0.47497398329453944
0,-2183.57,-1199.15,-2192.94,-2565.95,-0.46997425715459684
0,-2178.21,-1206.83,-2192.32,-2565.6,-0.46497453101465425
0,-2181.47,-1214.09,-2198.71,-2568.48,-0.45997480487471165
0,-2182.76,-1218.97,-2202.66,-2570.54,-0.45497507873476906
0,-2184.76,-1218.37,-2204.07,-2573.63,-0.44997535259482646
0,-2191.42,-1214.69,-2202.06,-2572.69,-0.44497562645488387
0,-2181.84,-1201.28,-2194.63,-2566.9,-0.43997590031494127
0,-2178.55,-1212.14,-2195.43,-2562.55,-0.4349761741749987
0,-2171.76,-1196.87,-2193.91,-2564.86,-0.4299764480350561
0,-2180.35,-1203.47,-2195.65,-2559.49,-0.42497672189511704
0,-2180.06,-1202.53,-2191.76,-2564.63,-0.41997699575517444
0,-2176.95,-1199.99,-2185.45,-2559.41,-0.41497726961523185
0,-2177.77,-1192.78,-2188.03,-2559.08,-0.40997754347528925
0,-2184.05,-1208.25,-2187.54,-2566.89,-0.40497781733534666
0,-2181.45,-1200.25,-2187.5,-2570.2,-0.39997809119540406
0,-2191.63,-1201.41,-2194.73,-2570.11,-0.39497836505546147
0,-2184.33,-1205.79,-2197.01,-2567.43,-0.38997863891551887
0,-2189.41,-1212.33,-2199.89,-2571.76,-0.3849789127755763
0,-2179.55,-1197.55,-2191.99,-2568.39,-0.3799791866356337
0,-2176.86,-1198.97,-2187.77,-2562.73,-0.3749794604956911
0,-2173.37,-1200.51,-2191.59,-2561.38,-0.3699797343557485
0,-2177.52,-1203.39,-2196.63,-2561.53,-0.3649800082158059
0,-2179.17,-1199.82,-2192.86,-2566.93,-0.3599802820758633
0,-2180.57,-1199.92,-2191.53,-2565.22,-0.3549805559359207
0,-2176.53,-1206.3,-2187.96,-2551.99,-0.3499808297959781
0,-2181.58,-1209.17,-2197.45,-2557.71,-0.3449811036560355
0,-2177.54,-1201.82,-2193.4,-2563.32,-0.3399813775160929
0,-2178.63,-1197.47,-2190.72,-2567.37,-0.3349816513761503
0,-2171.12,-1191.7,-2184.1,-2555.29,-0.32998192523620773
0,-2176.35,-1197.93,-2189.69,-2556.58,-0.32498219909626513
0,-2182.3,-1202.59,-2191.99,-2567.75,-0.31998247295632254
0,-2182.22,-1196.52,-2192.11,-2568.55,-0.31498274681637994
0,-2178.85,-1206.36,-2193.91,-2563.77,-0.30998302067643735
0,-2183.3,-1205.58,-2194.94,-2565.77,-0.30498329453649475
0,-2189.63,-1215.41,-2200.47,-2574.53,-0.29998356839655216
0,-2192.53,-1213.92,-2203.83,-2575.18,-0.29498384225660956
0,-2186.77,-1206.94,-2197.12,-2575.52,-0.28998411611666697
0,-2183.35,-1196.57,-2198.23,-2576.04,-0.2849843899767244
0,-2180.37,-1204.21,-2194.78,-2567.31,-0.2799846638367818
0,-2183.37,-1203.07,-2194.11,-2568.87,-0.2749849376968392
0,-2173.03,-1208.87,-2184.64,-2559.71,-0.2699852115568966
0,-2177.86,-1206.03,-2191.38,-2560.79,-0.264985485416954
0,-2181.86,-1203.13,-2191.68,-2560.57,-0.2599857592770114
0,-2178.68,-1199.22,-2188.93,-2559.76,-0.2549860331370688
0,-2184.6,-1196.66,-2188.23,-2559.99,-0.2499863069971262
0,-2177.37,-1194.97,-2193.14,-2566.75,-0.2449865808571836
0,-2168.97,-1191.82,-2183.29,-2559.15,-0.23998685471724102
0,-2177.13,-1202.85,-2190.19,-2566.63,-0.23498712857729842
0,-2175.68,-1198.28,-2194.11,-2562.62,-0.22998740243735583
0,-2182.67,-1204.69,-2203.41,-2569.15,-0.22498767629741323
0,-2187.28,-1216.08,-2198.8,-2569.43,-0.21998795015747064
0,-2185.93,-1219.24,-2206.3,-2571.56,-0.21498822401752804
0,-2182.94,-1200.68,-2188.85,-2566.23,-0.20998849787758544
0,-2182.22,-1195.11,-2191.47,-2568.51,-0.20498877173764285
0,-2184.69,-1216.02,-2200.39,-2573.05,-0.19998904559770025
0,-2189.43,-1217.24,-2204.25,-2572.87,-0.19498931945775766
0,-2185.44,-1207.07,-2197.02,-2572.15,-0.18998959331781506
0,-2183.14,-1201.96,-2195.57,-2570.57,-0.18498986717787602
0,-2189.14,-1216.85,-2202.55,-2567.28,-0.17999014103793343
0,-2188.34,-1204.15,-2199.21,-2570.94,-0.17499041489799083
0,-2177.13,-1213.31,-2197.63,-2568.73,-0.16999068875804824
0,-2183.67,-1203.44,-2194.4,-2565.13,-0.16499096261810564
0,-2179.91,-1196.76,-2188.05,-2563.59,-0.15999123647816305
0,-2177.42,-1194.31,-2191.45,-2568.04,-0.15499151033822045
0,-2181.28,-1209.19,-2193.36,-2569.38,-0.14999178419827786
0,-2176.06,-1200.9,-2187.13,-2557.04,-0.14499205805833526
0,-2177.16,-1187.9,-2185.33,-2556.83,-0.13999233191839267
0,-2164.84,-1190.02,-2181.47,-2552.78,-0.13499260577845007
0,-2171.41,-1193.01,-2181.34,-2555.82,-0.12999287963850747
0,-2165.98,-1189.0,-2175.86,-2561.47,-0.12499315349856488
0,-2171.08,-1202.57,-2187.97,-2559.51,-0.11999342735862228
0,-2181.9,-1212.04,-2198.84,-2567.1,-0.11499370121867969
0,-2188.95,-1211.94,-2199.5,-2564.45,-0.1099939750787371
0,-2185.31,-1209.65,-2195.06,-2572.75,-0.1049942489387945
0,-2196.04,-1210.1,-2201.85,-2573.18,-0.0999945227988519
0,-2202.04,-1213.85,-2203.59,-2573.3,-0.09499479665890931
0,-2197.89,-1220.14,-2208.92,-2570.44,-0.08999507051896671
0,-2198.63,-1224.35,-2209.16,-2568.38,-0.08499534437902412
0,-2194.65,-1208.57,-2202.0,-2570.09,-0.07999561823908152
0,-2191.74,-1195.16,-2201.51,-2568.69,-0.07499589209913893
0,-2193.03,-1208.45,-2201.45,-2571.0,-0.06999616595919633
0,-2189.08,-1216.94,-2200.37,-2564.83,-0.06499643981925374
0,-2182.28,-1214.01,-2193.55,-2562.79,-0.05999671367931114
0,-2179.32,-1203.62,-2195.55,-2563.91,-0.05499698753936855
0,-2176.38,-1202.91,-2191.41,-2563.23,-0.04999726139942595
0,-2180.58,-1199.68,-2187.88,-2556.2,-0.04499753525948336
0,-2175.52,-1191.98,-2184.73,-2556.12,-0.03999780911954076
0,-2182.47,-1208.3,-2190.55,-2561.33,-0.034998082979598166
0,-2178.91,-1205.44,-2190.08,-2559.53,-0.02999835683965557
0,-2178.38,-1203.33,-2188.05,-2563.14,-0.024998630699712976
0,-2180.32,-1201.52,-2190.93,-2566.48,-0.01999890455977038
0,-2184.66,-1200.99,-2195.06,-2571.38,-0.014999178419827786
0,-2184.91,-1214.45,-2200.22,-2571.86,-0.00999945227988519
0,-2185.58,-1212.16,-2200.56,-2573.23,-0.004999726139942595
0,-2190.03,-1209.64,-2200.76,-2572.42,0.0
0,-2187.4,-1201.68,-2197.66,-2564.55,0.004999726139942595
0,-2187.22,-1205.06,-2196.5,-2569.09,0.00999945227988519
0,-2179.88,-1201.57,-2194.54,-2565.92,0.014999178419827786
0,-2182.33,-1207.5,-2193.5,-2564.98,0.01999890455977038
0,-2173.92,-1190.77,-2182.49,-2561.23,0.024998630699712976
0,-2178.52,-1188.18,-2189.79,-2565.81,0.02999835683965557
0,-2172.95,-1207.4,-2190.74,-2562.07,0.034998082979598166
0,-2169.92,-1204.81,-2185.33,-2559.27,0.03999780911954076
0,-2171.55,-1197.07,-2185.92,-2554.74,0.04499753525948336
0,-2162.37,-1195.88,-2180.88,-2556.07,0.0499972613994224
0,-2173.83,-1200.7,-2188.35,-2560.33,0.054996987539364994
0,-2178.87,-1208.74,-2195.24,-2558.88,0.05999671367930759
0,-2178.54,-1213.41,-2194.54,-2560.34,0.06499643981925018
0,-2184.37,-1211.53,-2203.37,-2567.05,0.06999616595919278
0,-2186.66,-1224.84,-2207.05,-2573.75,0.07499589209913538
0,-2182.65,-1209.62,-2201.44,-2566.19,0.07999561823907797
0,-2185.39,-1209.53,-2198.0,-2564.31,0.08499534437902057
0,-2178.67,-1201.17,-2193.58,-2559.5,0.08999507051896316
0,-2176.5,-1200.92,-2192.27,-2563.14,0.09499479665890576
0,-2180.31,-1191.41,-2187.96,-2562.1,0.09999452279884835
0,-2176.54,-1201.16,-2188.93,-2559.73,0.10499424893879095
0,-2179.68,-1194.86,-2191.04,-2558.89,0.10999397507873354
0,-2180.92,-1195.73,-2189.05,-2557.19,0.11499370121867614
0,-2178.71,-1196.22,-2188.15,-2553.06,0.11999342735861873
0,-2169.87,-1191.98,-2185.94,-2555.0,0.12499315349856133
0,-2174.59,-1181.54,-2182.94,-2557.41,0.12999287963850392
0,-2182.3,-1204.09,-2190.97,-2564.28,0.13499260577844652
0,-2184.96,-1216.01,-2198.57,-2569.0,0.1399923319183891
0,-2186.01,-1209.58,-2202.95,-2576.84,0.1449920580583317
0,-2187.7,-1205.27,-2199.39,-2567.94,0.1499917841982743
0,-2183.49,-1201.47,-2197.07,-2565.56,0.1549915103382169
0,-2181.11,-1199.62,-2197.83,-2568.95,0.1599912364781595
0,-2187.27,-1201.81,-2192.26,-2569.48,0.1649909626181021
0,-2180.83,-1202.65,-2192.68,-2573.42,0.16999068875804468
0,-2187.06,-1199.11,-2197.77,-2574.1,0.17499041489798728
0,-2177.49,-1210.27,-2197.94,-2574.4,0.17999014103792987
0,-2177.01,-1193.53,-2191.81,-2568.02,0.18498986717787247
0,-2186.56,-1216.74,-2203.82,-2575.77,0.18998959331781506
0,-2190.24,-1215.9,-2203.32,-2574.69,0.19498931945775766
0,-2189.15,-1211.36,-2203.56,-2573.01,0.19998904559770025
0,-2193.96,-1208.04,-2200.6,-2565.58,0.20498877173764285
0,-2185.48,-1210.75,-2197.76,-2565.65,0.20998849787758544
0,-2190.05,-1211.31,-2203.45,-2571.69,0.21498822401752804
0,-2185.5,-1211.82,-2202.47,-2565.45,0.21998795015747064
0,-2192.06,-1208.42,-2195.07,-2562.47,0.22498767629741323
0,-2190.63,-1203.08,-2198.7,-2565.38,0.22998740243735583
0,-2190.86,-1207.36,-2199.06,-2567.14,0.23498712857729842
0,-2187.55,-1207.57,-2195.55,-2563.56,0.23998685471724102
0,-2181.1,-1200.44,-2198.15,-2561.0,0.2449865808571836
0,-2182.11,-1202.74,-2189.07,-2562.04,0.2499863069971262
0,-2188.67,-1208.03,-2197.18,-2565.1,0.2549860331370688
0,-2179.77,-1213.27,-2195.4,-2567.78,0.2599857592770114
0,-2176.59,-1204.08,-2197.97,-2564.1,0.264985485416954
0,-2173.39,-1205.74,-2192.21,-2558.17,0.2699852115568966
0,-2171.12,-1199.78,-2190.45,-2556.91,0.2749849376968392
0,-2174.84,-1207.87,-2191.15,-2553.74,0.2799846638367818
0,-2176.52,-1204.22,-2190.12,-2556.12,0.2849843899767208
0,-2175.19,-1194.49,-2183.88,-2556.99,0.2899841161166634
0,-2177.46,-1185.1,-2183.04,-2561.0,0.294983842256606
0,-2187.22,-1205.78,-2192.87,-2566.71,0.2999835683965486
0,-2185.53,-1208.24,-2197.75,-2566.92,0.3049832945364912
0,-2183.56,-1208.73,-2195.7,-2566.26,0.3099830206764338
0,-2186.27,-1216.19,-2202.4,-2571.83,0.3149827468163764
0,-2181.06,-1219.78,-2197.88,-2571.77,0.319982472956319
0,-2187.55,-1208.4,-2204.97,-2570.17,0.3249821990962616
0,-2191.1,-1216.14,-2202.3,-2571.53,0.3299819252362042
0,-2186.77,-1213.28,-2204.22,-2567.66,0.33498165137614677
0,-2187.29,-1204.0,-2195.1,-2564.32,0.33998137751608937
0,-2184.64,-1199.96,-2196.62,-2557.53,0.34498110365603196
0,-2178.61,-1199.54,-2186.64,-2554.5,0.34998082979597456
0,-2184.82,-1202.4,-2183.3,-2556.73,0.35498055593591715
0,-2178.95,-1191.26,-2183.63,-2564.39,0.35998028207585975
0,-2180.82,-1192.44,-2189.83,-2563.38,0.36498000821580234
0,-2179.38,-1189.22,-2183.7,-2558.72,0.36997973435574494
0,-2172.26,-1196.76,-2179.63,-2561.38,0.37497946049568753
0,-2175.54,-1208.46,-2186.7,-2559.2,0.37997918663563013
0,-2179.59,-1202.11,-2191.33,-2564.37,0.3849789127755727
0,-2183.52,-1199.23,-2198.26,-2570.69,0.3899786389155153
0,-2180.44,-1209.75,-2196.59,-2573.52,0.3949783650554579
0,-2186.34,-1209.02,-2203.72,-2577.7,0.3999780911954005
0,-2188.6,-1198.52,-2200.31,-2575.34,0.4049778173353431
0,-2192.54,-1207.52,-2205.72,-2581.8,0.4099775434752857
0,-2188.3,-1212.95,-2204.02,-2572.7,0.4149772696152283
0,-2188.65,-1206.73,-2200.49,-2570.26,0.4199769957551709
0,-2182.15,-1200.96,-2199.1,-2570.72,0.4249767218951135
0,-2183.11,-1210.83,-2199.31,-2571.56,0.4299764480350561
0,-2185.65,-1216.28,-2199.49,-2566.65,0.4349761741749987
0,-2195.18,-1224.23,-2206.61,-2568.71,0.43997590031494127
0,-2194.06,-1218.98,-2205.39,-2574.85,0.44497562645488387
0,-2187.81,-1209.82,-2203.92,-2573.43,0.44997535259482646
0,-2185.1,-1210.99,-2196.43,-2567.54,0.45497507873476906
0,-2184.89,-1206.55,-2190.49,-2562.68,0.45997480487471165
0,-2187.0,-1212.77,-2202.28,-2571.51,0.46497453101465425
0,-2180.35,-1213.2,-2199.94,-2579.45,0.46997425715459684
0,-2174.07,-1211.85,-2193.74,-2568.45,0.47497398329453944
0,-2168.99,-1205.43,-2186.11,-2561.88,0.47997370943448203
0,-2165.39,-1205.6,-2188.97,-2565.9,0.4849734355744246
0,-2168.48,-1197.4,-2183.68,-2563.6,0.4899731617143672
0,-2169.78,-1197.62,-2183.08,-2561.73,0.4949728878543098
0,-2172.33,-1193.0,-2186.62,-2561.44,0.4999726139942524
0,-2174.78,-1191.23,-2185.48,-2565.15,0.504972340134195
0,-2174.17,-1200.7,-2185.47,-2563.06,0.5099720662741376
0,-2176.73,-1196.59,-2188.75,-2560.39,0.5149717924140802
0,-2170.14,-1182.45,-2181.36,-2552.29,0.5199715185540192
0,-2177.63,-1191.33,-2180.38,-2553.79,0.5249712446939618
0,-2175.91,-1201.42,-2184.22,-2549.88,0.5299709708339044
0,-2178.65,-1206.65,-2193.43,-2557.77,0.534970696973847
0,-2181.39,-1207.74,-2191.97,-2561.09,0.5399704231137896
0,-2183.32,-1206.74,-2191.78,-2557.44,0.5449701492537322
0,-2177.75,-1203.14,-2198.67,-2561.2,0.5499698753936748
0,-2181.5,-1196.6,-2188.87,-2557.41,0.5549696015336174
0,-2180.0,-1211.07,-2196.04,-2560.05,0.55996932767356
0,-2184.55,-1212.35,-2200.92,-2562.69,0.5649690538135026
0,-2177.57,-1207.46,-2195.94,-2560.62,0.5699687799534452
0,-2176.25,-1196.77,-2188.67,-2554.07,0.5749685060933878
0,-2174.05,-1196.89,-2183.11,-2552.63,0.5799682322333304
0,-2171.0,-1192.52,-2182.01,-2556.28,0.584967958373273
0,-2174.78,-1191.35,-2181.57,-2552.75,0.5899676845132156
0,-2178.0,-1199.15,-2187.96,-2555.76,0.5949674106531582
0,-2177.84,-1198.63,-2185.05,-2554.79,0.5999671367931008
0,-2173.72,-1206.25,-2181.89,-2553.77,0.6049668629330434
0,-2175.02,-1192.47,-2184.22,-2555.02,0.609966589072986
0,-2168.99,-1192.44,-2184.33,-2556.5,0.6149663152129285
0,-2174.2,-1194.48,-2184.67,-2556.08,0.6199660413528711
0,-2184.08,-1203.3,-2194.45,-2560.91,0.6249657674928137
0,-2184.94,-1200.04,-2198.21,-2564.7,0.6299654936327563
0,-2181.16,-1205.82,-2195.54,-2563.17,0.6349652197726989
0,-2178.07,-1200.64,-2191.55,-2564.38,0.6399649459126415
0,-2172.6,-1196.72,-2182.64,-2540.88,0.6449646720525841
0,-2186.05,-1199.66,-2190.06,-2560.27,0.6499643981925267
0,-2184.29,-1196.12,-2192.98,-2572.3,0.6549641243324693
0,-2182.33,-1204.77,-2191.76,-2564.73,0.6599638504724119
0,-2176.69,-1201.94,-2189.73,-2569.27,0.6649635766123545
0,-2195.07,-1215.47,-2201.32,-2577.19,0.6699633027522971
0,-2184.74,-1207.69,-2198.33,-2572.16,0.6749630288922397
0,-2181.87,-1212.04,-2198.78,-2571.86,0.6799627550321823
0,-2194.25,-1211.43,-2201.87,-2572.99,0.6849624811721249
0,-2191.28,-1215.92,-2200.77,-2569.55,0.6899622073120675
0,-2177.91,-1193.38,-2194.67,-2566.39,0.6949619334520101
0,-2184.6,-1205.16,-2198.18,-2574.2,0.6999616595919527
0,-2192.1,-1215.14,-2205.4,-2576.97,0.7049613857318953
0,-2191.16,-1212.46,-2206.66,-2576.48,0.7099611118718379
0,-2195.42,-1222.1,-2207.99,-2574.55,0.7149608380117769
0,-2193.62,-1213.74,-2207.51,-2576.38,0.7199605641517195
0,-2189.4,-1214.57,-2209.98,-2575.56,0.7249602902916621
0,-2189.26,-1199.81,-2202.17,-2571.41,0.7299600164316047
0,-2189.53,-1206.84,-2197.46,-2571.38,0.7349597425715473
0,-2193.55,-1216.02,-2207.72,-2575.84,0.7399594687114899
0,-2195.57,-1216.72,-2212.68,-2576.97,0.7449591948514325
0,-2194.35,-1211.95,-2208.29,-2577.82,0.7499589209913751
0,-2192.38,-1205.54,-2203.17,-2574.63,0.7549586471313177
0,-2183.17,-1207.17,-2197.18,-2563.41,0.7599583732712603
0,-2179.66,-1207.91,-2195.44,-2561.4,0.7649580994112029
0,-2179.66,-1207.22,-2195.69,-2563.76,0.7699578255511454
0,-2177.67,-1205.32,-2195.36,-2564.53,0.774957551691088
0,-2178.38,-1208.16,-2193.47,-2562.39,0.7799572778310306
0,-2180.35,-1198.61,-2195.99,-2562.13,0.7849570039709732
0,-2185.26,-1203.48,-2196.27,-2563.99,0.7899567301109158
0,-2177.01,-1198.47,-2188.44,-2562.75,0.7949564562508584
0,-2177.72,-1201.12,-2188.28,-2563.47,0.799956182390801
0,-2180.69,-1195.72,-2188.54,-2562.71,0.8049559085307436
0,-2179.28,-1203.17,-2190.8,-2561.03,0.8099556346706862
0,-2185.22,-1203.87,-2199.34,-2563.83,0.8149553608106288
0,-2184.14,-1193.77,-2184.68,-2566.58,0.8199550869505714
0,-2175.08,-1202.8,-2188.65,-2563.57,0.824954813090514
0,-2176.87,-1203.07,-2192.65,-2564.28,0.8299545392304566
0,-2178.35,-1204.36,-2192.83,-2558.04,0.8349542653703992
0,-2181.46,-1203.94,-2196.36,-2561.09,0.8399539915103418
0,-2180.48,-1201.1,-2197.42,-2566.99,0.8449537176502844
0,-2179.17,-1196.11,-2190.18,-2569.38,0.849953443790227
0,-2180.01,-1186.12,-2184.89,-2558.13,0.8549531699301696
0,-2178.85,-1198.16,-2184.74,-2566.54,0.8599528960701122
0,-2175.87,-1195.28,-2188.09,-2560.36,0.8649526222100548
0,-2177.18,-1208.02,-2193.24,-2565.71,0.8699523483499974
0,-2171.79,-1200.13,-2186.24,-2557.11,0.87495207448994
0,-2180.95,-1207.41,-2193.93,-2558.5,0.8799518006298825
0,-2179.5,-1204.02,-2193.61,-2560.97,0.8849515267698251
0,-2185.44,-1208.58,-2191.13,-2556.57,0.8899512529097677
0,-2178.28,-1202.66,-2194.56,-2558.61,0.8949509790497103
0,-2182.96,-1202.87,-2193.39,-2570.95,0.8999507051896529
0,-2176.15,-1202.77,-2185.69,-2560.69,0.9049504313295955
0,-2171.22,-1197.86,-2189.34,-2560.54,0.9099501574695381
0,-2161.81,-1199.42,-2181.67,-2554.56,0.9149498836094807
0,-2171.51,-1200.78,-2190.04,-2560.67,0.9199496097494233
0,-2174.24,-1200.78,-2185.32,-2561.46,0.9249493358893659
0,-2179.08,-1200.52,-2191.92,-2572.07,0.9299490620293085
0,-2176.16,-1204.88,-2186.77,-2567.24,0.9349487881692511
0,-2176.06,-1196.94,-2189.52,-2564.43,0.9399485143091937
0,-2168.65,-1202.06,-2186.18,-2563.55,0.9449482404491363
0,-2170.55,-1192.77,-2183.47,-2553.08,0.9499479665890789
0,-2177.59,-1205.12,-2183.89,-2561.62,0.9549476927290215
0,-2175.68,-1201.41,-2192.06,-2564.88,0.9599474188689641
0,-2177.78,-1202.55,-2193.61,-2566.49,0.9649471450089067
0,-2178.56,-1207.12,-2194.07,-2567.39,0.9699468711488493
0,-2181.08,-1198.24,-2198.36,-2564.8,0.9749465972887918
0,-2184.43,-1203.21,-2198.26,-2561.37,0.9799463234287344
0,-2181.44,-1208.16,-2196.69,-2565.26,0.984946049568677
0,-2173.36,-1207.22,-2189.83,-2556.54,0.9899457757086196
0,-2178.49,-1203.0,-2187.97,-2560.42,0.9949455018485622
0,-2184.24,-1201.98,-2188.64,-2560.21,0.9999452279885048
0,-2177.57,-1203.59,-2190.02,-2555.77,1.0049449541284474
0,-2181.83,-1202.55,-2194.78,-2554.77,1.00994468026839
0,-2183.98,-1210.79,-2196.39,-2562.85,1.0149444064083326
0,-2182.84,-1203.99,-2195.63,-2560.96,1.0199441325482752
0,-2185.34,-1208.32,-2197.2,-2567.4,1.0249438586882178
0,-2178.7,-1209.42,-2195.94,-2562.1,1.0299435848281604
0,-2182.62,-1201.05,-2193.66,-2568.25,1.034943310968103
0,-2182.69,-1210.26,-2194.3,-2564.99,1.0399430371080456
0,-2180.11,-1203.06,-2192.27,-2563.27,1.0449427632479882
0,-2184.89,-1209.85,-2201.72,-2567.57,1.0499424893879308
0,-2187.37,-1211.08,-2204.67,-2570.17,1.0549422155278734
0,-2179.47,-1196.0,-2192.22,-2568.22,1.059941941667816
0,-2177.62,-1201.28,-2192.32,-2567.42,1.0649416678077586
0,-2182.84,-1192.27,-2191.24,-2563.28,1.0699413939477012
0,-2180.43,-1201.63,-2188.27,-2557.77,1.0749411200876438
0,-2179.62,-1197.18,-2190.01,-2558.34,1.0799408462275863
0,-2173.89,-1187.55,-2186.65,-2559.2,1.084940572367529
0,-2183.92,-1207.23,-2193.96,-2567.4,1.0899402985074715
0,-2179.78,-1195.93,-2190.89,-2561.28,1.0949400246474141
0,-2183.91,-1208.08,-2193.37,-2566.09,1.0999397507873567
0,-2180.66,-1208.29,-2194.32,-2557.79,1.1049394769272993
0,-2180.44,-1201.54,-2192.45,-2561.71,1.109939203067242
0,-2186.39,-1199.42,-2190.64,-2563.37,1.1149389292071774
0,-2194.38,-1213.49,-2194.44,-2565.74,1.11993865534712
0,-2186.17,-1202.03,-2195.07,-2568.93,1.1249383814870626
0,-2186.28,-1210.68,-2202.78,-2570.81,1.1299381076270052
0,-2186.38,-1197.3,-2197.37,-2566.32,1.1349378337669478
0,-2185.3,-1194.28,-2193.02,-2568.3,1.1399375599068904
0,-2174.32,-1204.14,-2193.05,-2559.83,1.144937286046833
0,-2183.39,-1218.34,-2197.75,-2566.07,1.1499370121867756
0,-2181.2,-1210.99,-2195.32,-2566.06,1.1549367383267182
0,-2185.56,-1208.79,-2197.72,-2568.26,1.1599364644666608
0,-2182.17,-1202.03,-2193.4,-2569.47,1.1649361906066034
0,-2181.2,-1198.31,-2194.43,-2566.48,1.169935916746546
0,-2182.97,-1200.47,-2197.45,-2565.72,1.1749356428864886
0,-2181.35,-1208.19,-2196.73,-2572.54,1.1799353690264311
0,-2183.16,-1214.69,-2196.67,-2576.3,1.1849350951663737
0,-2182.97,-1214.0,-2198.39,-2569.04,1.1899348213063163
0,-2190.89,-1208.23,-2200.95,-2573.23,1.194934547446259
0,-2191.66,-1204.94,-2196.96,-2571.98,1.1999342735862015
0,-2189.75,-1197.88,-2199.83,-2574.22,1.2049339997261441
0,-2190.34,-1210.77,-2201.59,-2582.75,1.2099337258660867
0,-2180.59,-1211.87,-2195.21,-2576.36,1.2149334520060293
0,-2178.34,-1206.74,-2193.23,-2573.29,1.219933178145972
0,-2181.68,-1196.98,-2188.96,-2570.27,1.2249329042859145
0,-2182.83,-1203.16,-2190.67,-2570.8,1.229932630425857
0,-2182.03,-1219.6,-2194.2,-2573.57,1.2349323565657997
0,-2175.67,-1209.38,-2191.48,-2568.12,1.2399320827057423
0,-2178.05,-1203.84,-2192.59,-2561.06,1.2449318088456849
0,-2182.64,-1194.6,-2185.16,-2558.51,1.2499315349856275
0,-2183.39,-1208.52,-2190.07,-2562.54,1.25493126112557
0,-2179.18,-1202.84,-2190.46,-2565.02,1.2599309872655127
0,-2173.6,-1195.7,-2193.27,-2561.12,1.2649307134054553
0,-2173.21,-1189.76,-2186.87,-2562.46,1.2699304395453979
0,-2176.18,-1190.14,-2186.01,-2556.77,1.2749301656853405
0,-2178.54,-1199.12,-2186.91,-2560.31,1.279929891825283
0,-2183.41,-1203.84,-2194.62,-2564.33,1.2849296179652256
0,-2185.44,-1218.2,-2203.22,-2567.65,1.2899293441051682
0,-2183.25,-1212.7,-2200.92,-2567.05,1.2949290702451108
0,-2193.25,-1210.74,-2198.83,-2569.86,1.2999287963850534
0,-2192.3,-1209.74,-2203.67,-2573.61,1.304928522524996
0,-2186.4,-1208.93,-2199.77,-2576.42,1.3099282486649386
0,-2185.15,-1193.39,-2195.34,-2569.92,1.3149279748048812
0,-2186.33,-1204.26,-2195.13,-2566.7,1.3199277009448238
0,-2193.09,-1219.88,-2195.45,-2569.19,1.3249274270847664
0,-2185.27,-1199.36,-2194.45,-2566.46,1.329927153224709
0,-2188.85,-1210.83,-2198.46,-2564.72,1.3349268793646516
0,-2183.27,-1215.55,-2200.93,-2565.93,1.3399266055045942
0,-2184.74,-1216.59,-2204.37,-2566.35,1.3449263316445368
0,-2191.54,-1214.5,-2204.35,-2566.59,1.3499260577844794
0,-2193.62,-1210.77,-2208.22,-2577.87,1.354925783924422
0,-2186.28,-1206.29,-2198.63,-2567.26,1.3599255100643646
0,-2185.53,-1191.78,-2196.88,-2565.39,1.3649252362043072
0,-2179.8,-1201.51,-2193.62,-2565.83,1.3699249623442498
0,-2177.47,-1207.74,-2192.26,-2560.72,1.3749246884841924
0,-2174.65,-1202.26,-2189.96,-2559.11,1.379924414624135
0,-2180.07,-1204.52,-2190.83,-2559.92,1.3849241407640775
0,-2180.57,-1201.63,-2196.78,-2554.28,1.3899238669040201
0,-2177.36,-1198.34,-2192.72,-2554.16,1.3949235930439627
0,-2178.81,-1196.01,-2189.2,-2556.93,1.3999233191839053
0,-2177.97,-1202.63,-2189.4,-2557.85,1.404923045323848
0,-2171.37,-1192.14,-2186.53,-2553.47,1.4099227714637905
0,-2169.38,-1186.79,-2179.88,-2547.15,1.4149224976037331
0,-2175.95,-1188.91,-2182.05,-2554.02,1.4199222237436757
0,-2171.8,-1187.53,-2177.66,-2561.64,1.4249219498836183
0,-2170.83,-1202.68,-2195.82,-2559.61,1.429921676023561
0,-2173.96,-1206.98,-2193.35,-2562.91,1.4349214021635035
0,-2172.39,-1199.83,-2187.99,-2561.1,1.439921128303446
0,-2179.07,-1198.9,-2193.12,-2561.75,1.4449208544433887
0,-2185.03,-1201.3,-2198.84,-2565.47,1.4499205805833313
0,-2182.12,-1201.85,-2193.46,-2569.67,1.4549203067232739
0,-2181.3,-1208.15,-2197.85,-2568.07,1.4599200328632165
0,-2179.67,-1191.6,-2194.1,-2567.5,1.464919759003159
0,-2174.6,-1207.47,-2191.28,-2565.8,1.4699194851431017
0,-2177.32,-1206.79,-2196.24,-2561.42,1.4749192112830443
0,-2177.16,-1209.28,-2195.99,-2559.74,1.4799189374229869
0,-2179.39,-1207.11,-2193.02,-2561.01,1.4849186635629295
0,-2173.18,-1191.89,-2180.34,-2558.6,1.489918389702872
0,-2179.16,-1201.19,-2186.01,-2549.58,1.4949181158428146
0,-2198.06,-1217.68,-2208.09,-2569.91,1.4999178419827572
0,-2201.03,-1216.68,-2213.53,-2578.71,1.5049175681226998
0,-2189.49,-1198.41,-2198.55,-2565.64,1.5099172942626424
0,-2189.37,-1201.97,-2194.06,-2562.6,1.514917020402585
0,-2184.66,-1201.9,-2192.36,-2567.59,1.5199167465425276
0,-2175.21,-1206.13,-2195.37,-2565.26,1.5249164726824702
0,-2174.23,-1200.35,-2185.99,-2554.78,1.5299161988224128
0,-2189.81,-1200.89,-2196.7,-2566.32,1.5349159249623554
0,-2195.66,-1199.71,-2202.21,-2568.5,1.539915651102298
0,-2191.98,-1215.61,-2207.64,-2577.54,1.5449153772422406
0,-2189.8,-1218.57,-2208.2,-2570.33,1.5499151033821832
0,-2191.06,-1214.87,-2203.54,-2568.35,1.5549148295221258
0,-2188.38,-1202.87,-2197.55,-2565.84,1.5599145556620684
0,-2188.66,-1205.86,-2204.3,-2569.04,1.564914281802011
0,-2194.05,-1215.85,-2204.73,-2574.92,1.5699140079419536
0,-2189.31,-1213.14,-2203.72,-2565.68,1.5749137340818962
0,-2178.36,-1211.29,-2198.51,-2567.46,1.5799134602218388
0,-2176.52,-1199.48,-2189.94,-2568.52,1.5849131863617743
0,-2178.94,-1190.55,-2194.81,-2563.95,1.5899129125017168
0,-2180.77,-1215.22,-2197.12,-2559.41,1.5949126386416594
0,-2190.93,-1216.22,-2202.19,-2565.6,1.599912364781602
0,-2182.14,-1202.41,-2196.65,-2565.18,1.6049120909215446
0,-2181.13,-1207.58,-2195.34,-2563.89,1.6099118170614872
0,-2193.02,-1216.49,-2200.7,-2571.35,1.6149115432014298
0,-2193.16,-1219.54,-2206.15,-2575.79,1.6199112693413724
0,-2190.76,-1205.53,-2198.6,-2565.58,1.624910995481315
0,-2187.24,-1204.2,-2201.49,-2565.64,1.6299107216212576
0,-2185.26,-1217.72,-2194.45,-2565.84,1.6349104477612002
0,-2185.32,-1204.33,-2196.51,-2559.44,1.6399101739011428
0,-2184.19,-1198.87,-2194.2,-2562.7,1.6449099000410854
0,-2190.38,-1198.2,-2191.05,-2572.58,1.649909626181028
0,-2187.65,-1207.89,-2198.38,-2565.24,1.6549093523209706
0,-2186.27,-1202.16,-2192.55,-2567.17,1.6599090784609132
0,-2176.12,-1196.72,-2185.5,-2562.09,1.6649088046008558
0,-2174.48,-1204.71,-2193.13,-2564.25,1.6699085307407984
0,-2171.69,-1196.2,-2184.99,-2557.01,1.674908256880741
0,-2176.57,-1202.78,-2190.54,-2560.58,1.6799079830206836
0,-2172.26,-1196.67,-2184.5,-2556.79,1.6849077091606262
0,-2170.36,-1195.09,-2177.67,-2555.16,1.6899074353005687
0,-2170.03,-1179.55,-2179.29,-2552.23,1.6949071614405113
0,-2168.9,-1191.38,-2179.21,-2551.97,1.699906887580454
0,-2167.23,-1196.4,-2180.83,-2548.45,1.7049066137203965
0,-2168.63,-1192.43,-2182.53,-2548.63,1.7099063398603391
0,-2171.23,-1194.84,-2186.64,-2556.0,1.7149060660002817
0,-2177.23,-1196.74,-2187.85,-2558.38,1.7199057921402243
0,-2168.35,-1195.62,-2184.07,-2552.09,1.724905518280167
0,-2165.88,-1189.38,-2181.92,-2552.82,1.7299052444201095
0,-2176.09,-1187.83,-2191.41,-2560.6,1.734904970560052
0,-2179.5,-1189.22,-2186.43,-2561.37,1.7399046966999947
0,-2180.43,-1210.81,-2190.07,-2564.3,1.7449044228399373
0,-2185.61,-1204.66,-2193.28,-2568.73,1.74990414897988
0,-2185.42,-1205.1,-2194.76,-2565.2,1.7549038751198225
0,-2184.12,-1209.75,-2194.9,-2559.54,1.759903601259765
0,-2178.33,-1213.89,-2196.52,-2564.46,1.7649033273997077
0,-2185.17,-1213.0,-2204.26,-2575.5,1.7699030535396503
0,-2180.9,-1206.92,-2199.75,-2565.75,1.7749027796795929
0,-2181.0,-1206.06,-2196.13,-2557.77,1.7799025058195355
0,-2179.33,-1209.67,-2192.3,-2558.59,1.784902231959478
0,-2180.67,-1201.38,-2188.34,-2559.72,1.7899019580994207
0,-2179.99,-1196.56,-2187.41,-2565.74,1.7949016842393632
0,-2180.04,-1208.63,-2193.33,-2566.54,1.7999014103793058
0,-2177.16,-1199.44,-2188.88,-2563.7,1.8049011365192484
0,-2179.88,-1199.3,-2195.3,-2565.19,1.809900862659191
0,-2188.7,-1215.37,-2200.59,-2568.56,1.8149005887991336
0,-2185.3,-1216.59,-2201.14,-2567.31,1.8199003149390762
0,-2182.53,-1217.86,-2202.22,-2564.97,1.8249000410790188
0,-2182.47,-1213.88,-2201.96,-2563.17,1.8298997672189614
0,-2183.33,-1210.62,-2197.59,-2565.1,1.834899493358904
0,-2182.93,-1201.47,-2192.45,-2562.43,1.8398992194988466
0,-2179.88,-1199.14,-2186.89,-2561.89,1.8448989456387892
0,-2168.3,-1185.0,-2178.76,-2557.09,1.8498986717787318
0,-2173.79,-1199.0,-2184.79,-2556.47,1.8548983979186744
0,-2174.85,-1203.57,-2188.76,-2559.02,1.859898124058617
0,-2180.51,-1196.17,-2189.86,-2562.01,1.8648978501985596
0,-2182.49,-1205.94,-2194.99,-2564.62,1.8698975763385022
0,-2186.31,-1201.98,-2197.86,-2567.59,1.8748973024784448
0,-2183.2,-1204.39,-2198.78,-2572.92,1.8798970286183874
0,-2183.98,-1205.21,-2199.69,-2569.24,1.88489675475833
0,-2184.85,-1209.14,-2203.98,-2568.64,1.8898964808982726
0,-2189.73,-1218.08,-2211.1,-2573.08,1.8948962070382152
0,-2197.91,-1216.29,-2209.27,-2579.13,1.8998959331781577
0,-2192.8,-1224.36,-2209.59,-2571.15,1.9048956593181003
0,-2192.23,-1204.84,-2201.99,-2570.28,1.909895385458043
0,-2192.23,-1214.21,-2202.62,-2575.15,1.9148951115979855
0,-2193.03,-1204.85,-2201.34,-2572.58,1.9198948377379281
0,-2182.13,-1205.65,-2195.98,-2570.29,1.9248945638778707
0,-2186.55,-1200.02,-2199.17,-2573.82,1.9298942900178133
0,-2181.28,-1203.03,-2196.27,-2568.49,1.934894016157756
0,-2180.09,-1216.27,-2202.99,-2571.31,1.9398937422976985
0,-2183.57,-1215.21,-2203.34,-2568.66,1.944893468437641
0,-2184.85,-1213.12,-2200.46,-2572.89,1.9498931945775837
0,-2184.19,-1209.82,-2196.28,-2565.91,1.9548929207175263
0,-2175.55,-1197.46,-2190.36,-2566.86,1.959892646857469
0,-2182.43,-1204.68,-2193.81,-2568.48,1.9648923729974115
0,-2186.63,-1197.95,-2193.87,-2570.2,1.969892099137354
0,-2181.87,-1208.65,-2194.18,-2575.18,1.9748918252772967
0,-2186.93,-1205.62,-2198.11,-2572.24,1.9798915514172393
0,-2191.05,-1204.99,-2202.46,-2578.61,1.9848912775571819
0,-2187.86,-1210.36,-2201.02,-2571.87,1.9898910036971245
0,-2184.34,-1214.31,-2201.1,-2580.15,1.994890729837067
0,-2183.14,-1210.84,-2200.07,-2572.46,1.9998904559770097
0,-2177.61,-1212.88,-2190.2,-2561.02,2.0048901821169522
0,-2183.68,-1208.73,-2191.52,-2560.57,2.009889908256895
0,-2194.25,-1206.58,-2204.24,-2580.05,2.0148896343968374
0,-2184.47,-1203.0,-2193.35,-2569.41,2.01988936053678
0,-2176.73,-1197.03,-2195.24,-2566.68,2.0248890866767226
0,-2181.33,-1201.86,-2196.78,-2567.21,2.0298888128166652
0,-2171.24,-1191.2,-2183.13,-2568.44,2.034888538956608
0,-2177.8,-1194.94,-2190.35,-2567.3,2.0398882650965504
0,-2177.12,-1195.89,-2192.93,-2568.55,2.044887991236493
0,-2179.74,-1196.84,-2191.85,-2560.03,2.0498877173764356
0,-2177.34,-1192.11,-2190.35,-2561.92,2.054887443516378
0,-2172.29,-1194.6,-2184.13,-2555.04,2.0598871696563137
0,-2180.44,-1199.82,-2192.67,-2561.63,2.0648868957962563
0,-2180.56,-1200.45,-2191.49,-2562.32,2.069886621936199
0,-2184.96,-1217.95,-2202.28,-2567.9,2.0748863480761415
0,-2188.09,-1212.64,-2201.68,-2566.81,2.079886074216084
0,-2185.49,-1209.98,-2199.56,-2562.25,2.0848858003560267
0,-2186.41,-1204.54,-2200.44,-2563.24,2.0898855264959693
0,-2183.49,-1198.7,-2201.27,-2566.15,2.094885252635912
0,-2190.8,-1192.83,-2195.33,-2568.99,2.0998849787758544
0,-2184.12,-1200.12,-2189.21,-2567.99,2.104884704915797
0,-2181.83,-1209.33,-2196.04,-2563.98,2.1098844310557396
0,-2186.89,-1207.38,-2193.34,-2562.64,2.1148841571956822
0,-2185.43,-1199.6,-2195.61,-2562.89,2.119883883335625
0,-2183.54,-1206.32,-2196.83,-2565.26,2.1248836094755674
0,-2179.72,-1195.8,-2190.46,-2561.03,2.12988333561551
0,-2176.14,-1206.99,-2189.93,-2560.68,2.1348830617554526
0,-2168.32,-1190.6,-2181.61,-2554.26,2.139882787895395
0,-2177.73,-1187.7,-2181.74,-2553.88,2.144882514035338
0,-2183.71,-1203.76,-2195.66,-2563.12,2.1498822401752804
0,-2180.1,-1199.14,-2193.27,-2564.64,2.154881966315223
0,-2178.88,-1198.05,-2191.12,-2562.09,2.1598816924551656
0,-2185.31,-1201.06,-2191.21,-2565.07,2.164881418595108
0,-2179.84,-1200.56,-2189.06,-2559.97,2.169881144735051
0,-2180.61,-1205.44,-2192.64,-2564.26,2.1748808708749934
0,-2182.47,-1200.85,-2192.05,-2564.27,2.179880597014936
0,-2184.6,-1200.23,-2189.75,-2563.29,2.1848803231548786
0,-2182.65,-1215.96,-2200.47,-2563.88,2.189880049294821
0,-2182.75,-1209.32,-2205.97,-2567.86,2.1948797754347638
0,-2177.17,-1197.34,-2195.47,-2564.6,2.1998795015747064
0,-2184.77,-1214.43,-2199.7,-2570.86,2.204879227714649
0,-2173.91,-1200.08,-2196.05,-2566.47,2.2098789538545915
0,-2179.34,-1209.99,-2193.7,-2566.78,2.214878679994534
0,-2182.85,-1208.14,-2193.18,-2568.7,2.2198784061344767
0,-2186.11,-1208.13,-2197.66,-2568.89,2.2248781322744193
0,-2178.22,-1208.21,-2192.15,-2562.73,2.229877858414362
0,-2186.98,-1210.15,-2200.41,-2569.26,2.2348775845543045
0,-2183.71,-1208.56,-2199.64,-2571.04,2.239877310694247
0,-2186.65,-1204.66,-2199.76,-2571.93,2.2448770368341897
0,-2185.97,-1201.03,-2195.66,-2568.89,2.2498767629741323
0,-2180.94,-1208.82,-2198.05,-2569.69,2.254876489114075
0,-2180.9,-1198.89,-2191.25,-2568.9,2.2598762152540175
0,-2187.28,-1208.21,-2199.21,-2563.99,2.26487594139396
0,-2186.79,-1201.58,-2192.08,-2557.64,2.2698756675339027
0,-2177.09,-1202.03,-2185.92,-2554.23,2.2748753936738453
0,-2179.02,-1208.13,-2198.71,-2571.62,2.279875119813788
0,-2181.53,-1211.56,-2203.01,-2573.67,2.2848748459537305
0,-2182.94,-1213.61,-2202.54,-2569.97,2.289874572093673
0,-2173.48,-1204.63,-2196.75,-2559.06,2.2948742982336157
0,-2179.95,-1207.94,-2199.4,-2566.63,2.2998740243735583
0,-2178.22,-1207.34,-2197.74,-2571.31,2.304873750513501
0,-2182.86,-1205.85,-2194.56,-2570.18,2.3098734766534434
0,-2179.0,-1207.73,-2193.87,-2570.15,2.314873202793386
0,-2182.18,-1203.43,-2200.11,-2572.28,2.3198729289333286
0,-2177.72,-1198.12,-2191.01,-2560.53,2.3248726550732712
0,-2181.12,-1201.84,-2189.73,-2557.51,2.329872381213214
0,-2177.99,-1199.49,-2194.04,-2560.8,2.3348721073531564
0,-2181.69,-1210.76,-2194.37,-2561.47,2.339871833493099
0,-2184.71,-1213.07,-2200.58,-2564.37,2.3448715596330416
0,-2186.8,-1220.14,-2199.31,-2569.61,2.349871285772984
0,-2184.68,-1205.49,-2198.0,-2571.04,2.354871011912927
0,-2182.83,-1207.29,-2200.86,-2576.7,2.3598707380528694
0,-2180.26,-1205.59,-2196.39,-2569.39,2.364870464192812
0,-2181.43,-1207.62,-2195.66,-2571.04,2.3698701903327546
0,-2179.41,-1205.94,-2192.04,-2570.39,2.374869916472697
0,-2178.75,-1198.9,-2191.97,-2565.33,2.37986964261264
0,-2175.21,-1202.27,-2194.65,-2563.08,2.3848693687525824
0,-2168.92,-1190.41,-2182.86,-2559.82,2.389869094892525
0,-2164.4,-1188.54,-2176.9,-2550.17,2.3948688210324676
0,-2174.03,-1192.32,-2182.33,-2549.84,2.39986854717241
0,-2182.21,-1200.13,-2187.38,-2556.26,2.4048682733123528
0,-2187.73,-1212.14,-2198.0,-2563.98,2.4098679994522954
0,-2181.17,-1206.24,-2190.65,-2561.6,2.414867725592238
0,-2183.56,-1199.54,-2193.11,-2557.52,2.4198674517321805
0,-2180.12,-1197.6,-2188.13,-2558.61,2.424867177872123
0,-2182.6,-1185.76,-2178.76,-2552.46,2.4298669040120657
0,-2181.72,-1199.17,-2183.9,-2555.95,2.4348666301520083
0,-2174.25,-1203.62,-2186.79,-2555.89,2.439866356291951
0,-2177.0,-1204.97,-2190.72,-2556.77,2.4448660824318935
0,-2173.54,-1200.1,-2186.41,-2559.59,2.449865808571836
0,-2176.44,-1196.68,-2185.26,-2554.36,2.4548655347117787
0,-2170.2,-1193.76,-2180.21,-2551.86,2.4598652608517213
0,-2174.21,-1186.04,-2181.17,-2550.98,2.464864986991664
0,-2170.66,-1190.28,-2179.3,-2551.7,2.4698647131316065
0,-2174.0,-1188.89,-2180.96,-2555.94,2.474864439271549
0,-2181.23,-1213.4,-2191.69,-2565.42,2.4798641654114917
0,-2177.66,-1207.35,-2190.44,-2556.74,2.4848638915514343
0,-2178.5,-1202.72,-2192.5,-2562.2,2.489863617691377
0,-2180.35,-1194.0,-2197.59,-2559.97,2.4948633438313195
0,-2182.17,-1199.67,-2192.39,-2568.52,2.499863069971262
0,-2178.91,-1204.92,-2191.48,-2569.86,2.5048627961112047
0,-2178.48,-1199.8,-2192.79,-2568.4,2.5098625222511473
0,-2183.6,-1205.67,-2196.21,-2572.3,2.51486224839109
0,-2183.48,-1205.34,-2195.22,-2573.8,2.5198619745310324
0,-2182.61,-1189.62,-2192.12,-2572.96,2.524861700670975
0,-2186.27,-1207.9,-2198.38,-2576.13,2.5298614268109176
0,-2191.93,-1217.71,-2212.64,-2576.12,2.534861152950853
0,-2187.25,-1209.68,-2206.81,-2570.67,2.5398608790907957
0,-2188.53,-1209.97,-2202.57,-2566.45,2.5448606052307383
0,-2182.74,-1207.57,-2195.54,-2567.95,2.549860331370681
0,-2175.44,-1201.41,-2188.82,-2564.21,2.5548600575106235
0,-2172.54,-1194.36,-2185.94,-2555.87,2.559859783650566
0,-2185.38,-1209.13,-2196.0,-2565.14,2.5648595097905087
0,-2193.41,-1206.65,-2203.56,-2569.29,2.5698592359304513
0,-2187.16,-1206.99,-2203.77,-2572.45,2.574858962070394
0,-2179.17,-1206.28,-2198.52,-2569.72,2.5798586882103365
0,-2186.8,-1205.74,-2193.94,-2565.19,2.584858414350279
0,-2188.2,-1213.63,-2194.79,-2572.3,2.5898581404902217
0,-2188.46,-1210.21,-2200.11,-2564.91,2.5948578666301643
0,-2176.78,-1204.07,-2197.16,-2564.71,2.599857592770107
0,-2181.81,-1214.84,-2196.99,-2566.47,2.6048573189100495
0,-2188.01,-1209.07,-2201.54,-2570.95,2.609857045049992
0,-2183.59,-1200.74,-2197.35,-2569.48,2.6148567711899346
0,-2185.29,-1202.75,-2201.19,-2571.77,2.6198564973298772
0,-2180.44,-1199.34,-2191.7,-2563.96,2.62485622346982
0,-2194.89,-1209.21,-2203.96,-2566.65,2.6298559496097624
0,-2187.34,-1204.87,-2202.24,-2573.96,2.634855675749705
0,-2181.15,-1206.39,-2193.03,-2560.88,2.6398554018896476
0,-2187.42,-1208.86,-2193.95,-2563.47,2.64485512802959
0,-2184.64,-1206.59,-2194.26,-2563.34,2.649854854169533
0,-2181.04,-1197.07,-2190.52,-2558.82,2.6548545803094754
0,-2176.52,-1200.84,-2195.96,-2556.65,2.659854306449418
0,-2169.21,-1201.14,-2186.06,-2554.5,2.6648540325893606
0,-2182.68,-1200.37,-2188.4,-2564.46,2.669853758729303
0,-2175.48,-1203.69,-2195.33,-2558.33,2.674853484869246
0,-2177.04,-1201.18,-2195.48,-2562.9,2.6798532110091884
0,-2183.26,-1207.92,-2191.55,-2567.72,2.684852937149131
0,-2175.81,-1197.46,-2186.69,-2560.12,2.6898526632890736
0,-2181.58,-1207.24,-2193.65,-2566.81,2.694852389429016
0,-2187.7,-1213.17,-2198.58,-2571.08,2.6998521155689588
0,-2182.89,-1196.42,-2196.31,-2566.41,2.7048518417089014
0,-2176.51,-1201.91,-2194.72,-2562.95,2.709851567848844
0,-2177.27,-1197.66,-2195.81,-2561.87,2.7148512939887866
0,-2180.64,-1196.04,-2192.67,-2563.97,2.719851020128729
0,-2180.31,-1203.52,-2191.08,-2565.31,2.7248507462686717
0,-2186.0,-1209.4,-2202.32,-2566.27,2.7298504724086143
0,-2187.11,-1213.68,-2199.89,-2568.7,2.734850198548557
0,-2183.43,-1207.85,-2199.43,-2568.61,2.7398499246884995
0,-2177.92,-1203.56,-2191.07,-2565.37,2.744849650828442
0,-2171.5,-1201.83,-2195.48,-2564.41,2.7498493769683847
0,-2180.68,-1203.83,-2193.28,-2560.97,2.7548491031083273
0,-2185.25,-1204.53,-2196.3,-2561.13,2.75984882924827
0,-2183.89,-1206.76,-2200.89,-2567.7,2.7648485553882125
0,-2186.73,-1208.64,-2196.87,-2573.2,2.769848281528155
0,-2197.91,-1219.18,-2208.15,-2575.08,2.7748480076680977
0,-2200.51,-1223.17,-2217.99,-2587.31,2.7798477338080403
0,-2202.97,-1223.37,-2213.06,-2579.1,2.784847459947983
0,-2198.99,-1216.92,-2208.53,-2578.48,2.7898471860879255
0,-2197.72,-1215.23,-2215.15,-2581.9,2.794846912227868
0,-2199.81,-1221.05,-2215.61,-2583.21,2.7998466383678107
0,-2188.77,-1212.8,-2203.77,-2571.28,2.8048463645077533
0,-2187.41,-1202.18,-2198.57,-2569.35,2.809846090647696
0,-2187.43,-1205.87,-2205.25,-2571.9,2.8148458167876385
0,-2188.72,-1218.3,-2196.95,-2564.48,2.819845542927581
0,-2179.32,-1209.03,-2192.96,-2564.75,2.8248452690675236
0,-2174.83,-1204.36,-2194.55,-2558.01,2.8298449952074662
0,-2184.67,-1201.18,-2194.07,-2554.15,2.834844721347409
0,-2180.24,-1201.41,-2195.64,-2561.4,2.8398444474873514
0,-2181.84,-1195.49,-2189.1,-2559.66,2.844844173627294
0,-2186.46,-1207.4,-2198.12,-2560.05,2.8498438997672366
0,-2184.63,-1198.34,-2197.83,-2559.02,2.854843625907179
0,-2184.75,-1206.14,-2197.75,-2562.28,2.859843352047122
0,-2186.26,-1206.91,-2199.99,-2560.41,2.8648430781870644
0,-2187.41,-1205.47,-2197.06,-2563.63,2.869842804327007
0,-2190.39,-1211.1,-2200.49,-2566.56,2.8748425304669496
0,-2189.17,-1209.07,-2199.77,-2567.03,2.879842256606892
0,-2183.75,-1204.7,-2198.98,-2561.65,2.884841982746835
0,-2180.96,-1203.01,-2196.32,-2561.41,2.8898417088867774
0,-2186.11,-1207.65,-2199.13,-2561.74,2.89484143502672
0,-2183.4,-1206.8,-2194.74,-2562.65,2.8998411611666626
0,-2188.66,-1208.25,-2194.62,-2564.43,2.904840887306605
0,-2177.11,-1196.48,-2192.33,-2559.19,2.9098406134465478
0,-2181.87,-1191.95,-2186.11,-2560.91,2.9148403395864904
0,-2171.41,-1198.33,-2188.01,-2558.37,2.919840065726433
0,-2169.69,-1198.52,-2185.45,-2557.53,2.9248397918663755
0,-2169.94,-1194.21,-2183.21,-2560.99,2.929839518006318
0,-2176.14,-1189.38,-2182.85,-2563.85,2.9348392441462607
0,-2179.99,-1212.12,-2193.61,-2566.14,2.9398389702862033
0,-2178.38,-1205.78,-2195.37,-2570.46,2.944838696426146
0,-2185.8,-1201.77,-2195.94,-2572.57,2.9498384225660885
0,-2188.71,-1210.31,-2199.14,-2573.12,2.954838148706031
0,-2175.69,-1198.13,-2189.02,-2570.65,2.9598378748459737
0,-2180.59,-1197.59,-2184.34,-2556.09,2.9648376009859163
0,-2179.32,-1197.1,-2193.91,-2563.92,2.969837327125859
0,-2181.2,-1210.54,-2197.49,-2575.82,2.9748370532658015
0,-2182.59,-1223.29,-2201.97,-2566.83,2.979836779405744
0,-2182.14,-1214.61,-2195.17,-2567.9,2.9848365055456867
0,-2174.62,-1199.89,-2187.41,-2563.31,2.9898362316856293
0,-2173.27,-1201.88,-2191.45,-2564.95,2.994835957825572
0,-2168.87,-1198.0,-2190.63,-2565.32,2.9998356839655145
0,-2173.34,-1184.72,-2182.28,-2561.57,3.00483541010545
0,-2179.97,-1198.66,-2189.93,-2561.69,3.0098351362453926
0,-2176.21,-1203.69,-2191.27,-2561.19,3.014834862385335
0,-2171.57,-1207.32,-2185.47,-2556.41,3.0198345885252778
0,-2172.09,-1191.93,-2184.37,-2555.01,3.0248343146652203
0,-2183.94,-1195.41,-2186.65,-2559.28,3.029834040805163
0,-2190.58,-1210.69,-2197.08,-2561.55,3.0348337669451055
0,-2188.88,-1209.81,-2200.98,-2564.83,3.039833493085048
0,-2184.94,-1198.79,-2193.48,-2555.45,3.0448332192249907
0,-2188.18,-1207.11,-2190.66,-2559.17,3.0498329453649333
0,-2183.43,-1205.56,-2195.69,-2560.56,3.054832671504876
0,-2186.01,-1214.64,-2197.01,-2562.41,3.0598323976448185
0,-2191.77,-1214.6,-2205.74,-2564.53,3.064832123784761
0,-2188.53,-1214.22,-2204.92,-2563.62,3.0698318499247037
0,-2188.12,-1200.02,-2205.32,-2568.65,3.0748315760646463
0,-2185.77,-1196.66,-2197.05,-2563.5,3.079831302204589
0,-2189.26,-1209.41,-2185.84,-2566.87,3.0848310283445315
0,-2174.67,-1197.89,-2182.51,-2549.88,3.089830754484474
0,-2173.38,-1197.71,-2185.66,-2557.19,3.0948304806244167
0,-2178.99,-1202.17,-2189.27,-2559.87,3.0998302067643593
0,-2189.24,-1215.21,-2198.71,-2562.02,3.104829932904302
0,-2186.84,-1213.22,-2196.09,-2561.52,3.1098296590442445
0,-2193.13,-1207.93,-2201.1,-2566.84,3.114829385184187
0,-2180.63,-1206.24,-2194.14,-2563.62,3.1198291113241297
0,-2180.12,-1198.62,-2189.68,-2570.31,3.1248288374640723
0,-2174.83,-1187.73,-2186.62,-2567.61,3.129828563604015
0,-2184.08,-1201.55,-2194.87,-2573.63,3.1348282897439574
0,-2181.94,-1212.5,-2202.3,-2573.28,3.1398280158839
0,-2180.98,-1211.43,-2196.57,-2567.37,3.1448277420238426
0,-2178.53,-1207.77,-2186.92,-2564.33,3.1498274681637852
0,-2168.61,-1187.41,-2176.83,-2554.0,3.154827194303728
0,-2172.9,-1191.17,-2180.47,-2559.73,3.1598269204436704
0,-2181.03,-1196.06,-2185.68,-2556.54,3.164826646583613
0,-2174.73,-1197.52,-2190.36,-2560.39,3.1698263727235556
0,-2174.22,-1199.04,-2193.23,-2558.79,3.174826098863498
0,-2180.47,-1193.31,-2194.72,-2563.32,3.179825825003441
0,-2191.31,-1212.51,-2203.59,-2575.66,3.1848255511433834
0,-2186.19,-1213.46,-2199.91,-2569.37,3.189825277283326
0,-2188.0,-1206.23,-2202.05,-2563.49,3.1948250034232686
0,-2186.95,-1196.96,-2187.73,-2561.23,3.199824729563211
0,-2188.4,-1204.77,-2193.11,-2565.64,3.2048244557031538
0,-2194.48,-1205.11,-2200.98,-2581.14,3.2098241818430964
0,-2202.72,-1227.7,-2221.07,-2594.45,3.214823907983039
0,-2198.7,-1217.64,-2217.58,-2589.79,3.2198236341229816
0,-2191.77,-1208.04,-2205.15,-2580.46,3.224823360262924
0,-2194.4,-1212.41,-2208.26,-2589.49,3.2298230864028667
0,-2182.32,-1210.77,-2205.47,-2585.36,3.2348228125428093
0,-2185.89,-1213.2,-2203.57,-2577.34,3.239822538682752
0,-2193.05,-1218.8,-2206.9,-2577.18,3.2448222648226945
0,-2189.07,-1208.9,-2204.0,-2573.76,3.249821990962637
0,-2187.08,-1208.6,-2204.06,-2573.11,3.2548217171025797
0,-2193.02,-1206.93,-2199.98,-2573.47,3.2598214432425223
0,-2185.65,-1200.11,-2201.11,-2569.82,3.264821169382465
0,-2186.82,-1207.16,-2201.99,-2572.67,3.2698208955224075
0,-2185.79,-1218.31,-2197.89,-2566.49,3.27482062166235
0,-2176.83,-1226.06,-2200.21,-2567.04,3.2798203478022927
0,-2181.65,-1205.56,-2201.52,-2567.8,3.2848200739422353
0,-2167.54,-1185.39,-2183.08,-2552.14,3.289819800082178
0,-2164.74,-1199.11,-2185.29,-2554.26,3.2948195262221205
0,-2168.87,-1204.39,-2185.84,-2557.5,3.299819252362063
0,-2174.25,-1192.45,-2184.95,-2555.61,3.3048189785020057
0,-2184.51,-1198.33,-2190.83,-2559.01,3.3098187046419483
0,-2183.23,-1198.27,-2190.8,-2564.11,3.314818430781891
0,-2175.08,-1207.22,-2192.15,-2558.59,3.3198181569218335
0,-2172.89,-1211.7,-2193.46,-2555.38,3.324817883061776
0,-2170.28,-1196.88,-2186.4,-2552.49,3.3298176092017187
0,-2175.77,-1192.22,-2189.09,-2553.56,3.3348173353416612
0,-2177.4,-1205.89,-2188.57,-2557.82,3.339817061481604
0,-2182.94,-1200.58,-2190.36,-2555.17,3.3448167876215464
0,-2175.62,-1187.35,-2177.88,-2549.91,3.349816513761489
0,-2182.99,-1197.62,-2187.15,-2558.76,3.3548162399014316
0,-2175.92,-1202.15,-2192.95,-2553.1,3.3598159660413742
0,-2179.54,-1198.94,-2191.87,-2555.98,3.364815692181317
0,-2181.42,-1201.44,-2193.15,-2555.37,3.3698154183212594
0,-2179.89,-1201.86,-2188.97,-2558.76,3.374815144461202
0,-2181.12,-1206.36,-2195.41,-2557.81,3.3798148706011446
0,-2185.28,-1203.53,-2195.63,-2555.42,3.384814596741087
0,-2178.13,-1186.78,-2184.5,-2555.64,3.38981432288103
0,-2176.05,-1193.4,-2188.18,-2561.59,3.3948140490209724
0,-2184.87,-1196.71,-2198.85,-2563.22,3.399813775160915
0,-2179.39,-1204.41,-2193.37,-2561.74,3.4048135013008576
0,-2176.77,-1207.47,-2198.11,-2560.39,3.4098132274408
0,-2180.65,-1201.79,-2200.52,-2557.64,3.4148129535807428
0,-2179.56,-1207.83,-2202.63,-2563.43,3.4198126797206854
0,-2184.45,-1203.1,-2196.9,-2565.18,3.424812405860628
0,-2186.72,-1204.93,-2191.87,-2567.98,3.4298121320005706
0,-2185.53,-1201.23,-2196.67,-2571.49,3.434811858140513
0,-2182.63,-1218.85,-2199.13,-2571.87,3.4398115842804557
0,-2187.94,-1212.18,-2200.77,-2573.02,3.4448113104203983
0,-2183.79,-1212.43,-2198.23,-2561.96,3.449811036560341
0,-2183.13,-1203.71,-2199.97,-2569.02,3.4548107627002835
0,-2180.39,-1203.5,-2193.28,-2564.21,3.459810488840226
0,-2178.51,-1204.14,-2188.59,-2559.59,3.4648102149801687
0,-2178.3,-1208.81,-2198.43,-2562.21,3.4698099411201113
0,-2172.53,-1185.52,-2188.06,-2560.31,3.474809667260054
0,-2175.38,-1191.51,-2184.46,-2559.86,3.4798093933999894
0,-2173.12,-1213.24,-2183.57,-2558.18,3.484809119539932
0,-2176.83,-1200.9,-2189.26,-2556.21,3.4898088456798746
0,-2172.45,-1203.97,-2186.35,-2547.78,3.494808571819817
0,-2177.56,-1198.54,-2197.88,-2564.18,3.49980829795976
0,-2179.7,-1202.57,-2196.62,-2570.3,3.5048080240997024
0,-2181.27,-1203.65,-2197.81,-2567.44,3.509807750239645
0,-2175.4,-1206.94,-2194.56,-2566.03,3.5148074763795876
0,-2180.32,-1194.34,-2191.67,-2573.16,3.51980720251953
0,-2179.04,-1202.41,-2190.3,-2568.64,3.5248069286594728
0,-2185.97,-1197.63,-2195.62,-2564.45,3.5298066547994154
0,-2185.44,-1204.03,-2195.58,-2566.87,3.534806380939358
0,-2178.13,-1197.42,-2183.01,-2564.75,3.5398061070793005
0,-2179.77,-1202.85,-2189.8,-2559.49,3.544805833219243
0,-2184.19,-1202.47,-2193.95,-2562.72,3.5498055593591857
0,-2194.23,-1208.01,-2198.94,-2564.82,3.5548052854991283
0,-2191.0,-1215.06,-2200.64,-2562.18,3.559805011639071
0,-2185.31,-1212.7,-2197.5,-2565.88,3.5648047377790135
0,-2188.26,-1199.29,-2194.92,-2564.78,3.569804463918956
0,-2186.07,-1204.11,-2193.63,-2562.26,3.5748041900588987
0,-2179.73,-1192.22,-2196.5,-2562.04,3.5798039161988413
0,-2178.8,-1193.21,-2183.92,-2562.95,3.584803642338784
0,-2182.69,-1208.4,-2197.77,-2567.47,3.5898033684787265
0,-2186.88,-1204.31,-2198.75,-2568.0,3.594803094618669
0,-2184.89,-1211.66,-2195.01,-2570.53,3.5998028207586117
0,-2178.38,-1210.94,-2195.57,-2565.75,3.6048025468985543
0,-2179.31,-1205.77,-2189.17,-2562.52,3.609802273038497
0,-2183.29,-1206.36,-2194.82,-2557.75,3.6148019991784395
0,-2182.9,-1199.63,-2192.77,-2561.06,3.619801725318382
0,-2186.78,-1209.29,-2196.83,-2566.2,3.6248014514583247
0,-2190.84,-1201.82,-2198.95,-2569.42,3.6298011775982673
0,-2190.65,-1207.32,-2200.44,-2569.59,3.63480090373821
0,-2197.86,-1221.56,-2207.78,-2577.53,3.6398006298781524
0,-2195.84,-1209.28,-2213.02,-2575.13,3.644800356018095
0,-2196.53,-1212.1,-2208.4,-2575.46,3.6498000821580376
0,-2189.3,-1223.69,-2208.71,-2577.24,3.6547998082979802
0,-2187.52,-1213.95,-2202.49,-2571.18,3.659799534437923
0,-2190.43,-1208.63,-2196.88,-2569.73,3.6647992605778654
0,-2186.13,-1207.82,-2198.41,-2562.01,3.669798986717808
0,-2185.08,-1199.04,-2198.96,-2566.93,3.6747987128577506
0,-2181.96,-1212.97,-2196.64,-2563.97,3.679798438997693
0,-2181.01,-1197.3,-2194.75,-2563.0,3.684798165137636
0,-2186.74,-1203.95,-2196.58,-2570.48,3.6897978912775784
0,-2188.65,-1197.61,-2199.75,-2568.8,3.694797617417521
0,-2184.15,-1205.07,-2194.58,-2571.52,3.6997973435574636
0,-2172.15,-1199.7,-2185.8,-2561.19,3.704797069697406
0,-2172.54,-1203.72,-2190.69,-2557.04,3.709796795837349
0,-2177.55,-1192.89,-2191.06,-2562.71,3.7147965219772914
0,-2180.68,-1200.11,-2189.16,-2563.08,3.719796248117234
0,-2178.31,-1201.56,-2186.87,-2563.56,3.7247959742571766
0,-2178.05,-1203.36,-2187.76,-2557.52,3.729795700397119
0,-2178.69,-1198.6,-2187.66,-2561.88,3.7347954265370618
0,-2175.5,-1196.34,-2187.24,-2562.32,3.7397951526770044
0,-2173.31,-1202.11,-2185.33,-2562.93,3.744794878816947
0,-2175.05,-1192.5,-2191.24,-2568.05,3.7497946049568895
0,-2177.26,-1199.09,-2188.29,-2571.17,3.754794331096832
0,-2177.73,-1197.08,-2188.28,-2562.76,3.7597940572367747
0,-2178.85,-1200.74,-2195.68,-2570.25,3.7647937833767173
0,-2180.95,-1201.07,-2192.06,-2569.37,3.76979350951666
0,-2175.91,-1194.65,-2195.22,-2570.71,3.7747932356566025
0,-2186.24,-1207.95,-2200.42,-2571.97,3.779792961796545
0,-2190.15,-1203.61,-2199.58,-2567.91,3.7847926879364877
0,-2191.36,-1209.62,-2194.78,-2568.73,3.7897924140764303
0,-2189.97,-1215.27,-2201.06,-2564.39,3.794792140216373
0,-2185.99,-1206.75,-2202.51,-2572.5,3.7997918663563155
0,-2186.64,-1205.4,-2197.51,-2561.88,3.804791592496258
0,-2183.37,-1209.32,-2195.93,-2567.58,3.8097913186362007
0,-2183.33,-1211.58,-2200.99,-2566.71,3.8147910447761433
0,-2177.71,-1202.03,-2190.55,-2555.18,3.819790770916086
0,-2178.25,-1201.04,-2190.77,-2559.9,3.8247904970560285
0,-2181.69,-1212.06,-2196.76,-2566.6,3.829790223195971
0,-2177.24,-1206.12,-2185.5,-2559.15,3.8347899493359137
0,-2175.08,-1200.12,-2188.32,-2561.86,3.8397896754758563
0,-2172.8,-1203.33,-2190.23,-2563.81,3.844789401615799
0,-2172.83,-1203.31,-2187.66,-2558.42,3.8497891277557414
0,-2177.47,-1206.11,-2188.74,-2557.96,3.854788853895684
0,-2168.03,-1202.17,-2188.5,-2559.92,3.8597885800356266
0,-2186.05,-1206.18,-2195.0,-2566.42,3.8647883061755692
0,-2184.91,-1204.28,-2201.47,-2567.84,3.869788032315512
0,-2183.97,-1191.9,-2199.04,-2564.82,3.8747877584554544
0,-2178.18,-1209.13,-2194.17,-2556.39,3.879787484595397
0,-2179.19,-1214.81,-2201.64,-2560.82,3.8847872107353396
0,-2177.77,-1219.11,-2198.93,-2563.87,3.889786936875282
0,-2183.02,-1218.77,-2206.98,-2564.92,3.894786663015225
0,-2189.4,-1214.18,-2198.04,-2564.79,3.8997863891551674
0,-2185.68,-1213.4,-2202.24,-2568.12,3.90478611529511
0,-2190.9,-1205.57,-2196.74,-2565.91,3.9097858414350526
0,-2185.14,-1206.49,-2204.99,-2565.78,3.914785567574995
0,-2188.13,-1209.7,-2200.26,-2560.54,3.919785293714938
0,-2185.85,-1203.64,-2199.09,-2559.61,3.9247850198548804
0,-2177.41,-1195.62,-2192.79,-2551.47,3.929784745994823
0,-2175.46,-1200.6,-2190.11,-2556.13,3.9347844721347656
0,-2172.37,-1201.13,-2182.95,-2552.92,3.939784198274708
0,-2173.83,-1194.99,-2186.63,-2552.51,3.9447839244146508
0,-2173.08,-1207.23,-2190.02,-2552.29,3.9497836505545862
0,-2181.02,-1207.74,-2198.32,-2561.18,3.954783376694529
0,-2184.96,-1204.71,-2192.18,-2557.88,3.9597831028344714
0,-2183.04,-1190.22,-2193.66,-2560.46,3.964782828974414
0,-2183.17,-1199.37,-2195.32,-2565.63,3.9697825551143566
0,-2176.89,-1206.93,-2190.38,-2561.73,3.974782281254299
0,-2179.47,-1204.16,-2193.92,-2562.59,3.979782007394242
0,-2185.05,-1199.23,-2192.16,-2562.95,3.9847817335341844
0,-2176.87,-1188.53,-2184.15,-2558.83,3.989781459674127
0,-2178.02,-1202.53,-2191.8,-2563.44,3.9947811858140696
0,-2179.63,-1202.91,-2191.3,-2562.81,3.999780911954012
0,-2176.42,-1196.45,-2189.62,-2561.87,4.004780638093955
0,-2182.63,-1210.82,-2193.08,-2561.32,4.009780364233897
0,-2186.18,-1205.29,-2196.41,-2563.79,4.01478009037384
0,-2183.84,-1216.03,-2193.05,-2567.03,4.019779816513783
0,-2183.49,-1212.43,-2198.14,-2566.32,4.024779542653725
0,-2190.05,-1210.24,-2199.7,-2573.52,4.029779268793668
0,-2190.61,-1201.24,-2197.05,-2575.79,4.03477899493361
0,-2191.86,-1204.41,-2200.68,-2576.18,4.039778721073553
0,-2194.32,-1203.2,-2205.44,-2573.18,4.0447784472134956
0,-2185.21,-1204.32,-2195.09,-2565.64,4.049778173353438
0,-2181.03,-1210.69,-2194.75,-2564.12,4.054777899493381
0,-2177.5,-1205.77,-2192.39,-2567.09,4.059777625633323
0,-2174.44,-1198.86,-2188.48,-2569.21,4.064777351773266
0,-2179.14,-1201.34,-2193.08,-2564.29,4.0697770779132085
0,-2180.83,-1210.24,-2192.49,-2569.19,4.074776804053151
0,-2185.01,-1202.32,-2194.71,-2566.72,4.079776530193094
0,-2177.38,-1205.73,-2186.7,-2558.64,4.084776256333036
0,-2174.04,-1200.93,-2185.49,-2558.14,4.089775982472979
0,-2176.15,-1196.74,-2182.0,-2563.05,4.0947757086129215
0,-2180.32,-1203.87,-2192.17,-2570.8,4.099775434752864
0,-2183.44,-1205.51,-2196.29,-2570.57,4.104775160892807
0,-2191.89,-1217.37,-2206.16,-2575.11,4.109774887032749
0,-2184.62,-1220.71,-2202.63,-2576.21,4.114774613172692
0,-2186.75,-1209.78,-2204.9,-2569.81,4.1197743393126345
0,-2187.58,-1205.17,-2194.64,-2566.09,4.124774065452577
0,-2183.39,-1202.82,-2187.79,-2562.13,4.12977379159252
0,-2185.45,-1202.39,-2193.71,-2558.24,4.134773517732462
0,-2183.48,-1207.73,-2190.53,-2552.9,4.139773243872405
0,-2191.64,-1210.28,-2202.83,-2559.48,4.1447729700123475
0,-2180.46,-1203.51,-2198.2,-2548.26,4.14977269615229
0,-2179.99,-1193.28,-2183.22,-2541.41,4.154772422292233
0,-2186.04,-1202.91,-2197.77,-2563.07,4.159772148432175
0,-2184.76,-1199.4,-2196.5,-2567.79,4.164771874572118
0,-2188.37,-1201.39,-2197.56,-2563.08,4.16977160071206
0,-2180.9,-1197.69,-2189.45,-2561.17,4.174771326852003
0,-2189.1,-1207.14,-2203.26,-2569.78,4.179771052991946
0,-2184.92,-1194.85,-2194.39,-2572.34,4.184770779131888
0,-2179.2,-1194.02,-2192.35,-2563.32,4.189770505271831
0,-2189.24,-1209.28,-2200.34,-2565.78,4.194770231411773
0,-2179.97,-1205.71,-2194.39,-2567.03,4.199769957551716
0,-2183.24,-1197.37,-2192.2,-2562.37,4.204769683691659
0,-2187.11,-1188.33,-2194.81,-2565.95,4.209769409831601
0,-2191.06,-1214.21,-2201.0,-2568.13,4.214769135971544
0,-2193.11,-1208.75,-2202.12,-2568.45,4.219768862111486
0,-2183.9,-1200.02,-2194.45,-2563.07,4.224768588251429
0,-2178.49,-1203.57,-2194.11,-2557.67,4.229768314391372
0,-2182.74,-1207.89,-2197.29,-2561.24,4.234768040531314
0,-2173.39,-1191.93,-2187.48,-2552.23,4.239767766671257
0,-2175.23,-1191.13,-2187.01,-2556.52,4.244767492811199
0,-2172.0,-1191.6,-2181.45,-2556.27,4.249767218951142
0,-2175.1,-1197.62,-2184.42,-2562.72,4.2547669450910846
0,-2172.53,-1200.97,-2186.28,-2555.49,4.259766671231027
0,-2175.38,-1194.73,-2184.77,-2561.25,4.26476639737097
0,-2175.78,-1207.12,-2194.59,-2568.73,4.269766123510912
0,-2173.35,-1198.41,-2187.64,-2560.97,4.274765849650855
0,-2177.01,-1192.94,-2190.09,-2563.56,4.2797655757907975
0,-2182.81,-1210.08,-2196.45,-2565.09,4.28476530193074
0,-2187.23,-1211.01,-2202.36,-2574.67,4.289765028070683
0,-2202.3,-1222.24,-2209.41,-2579.1,4.294764754210625
0,-2188.14,-1220.18,-2207.72,-2576.16,4.299764480350568
0,-2182.68,-1209.61,-2198.76,-2570.93,4.3047642064905105
0,-2185.25,-1209.68,-2199.3,-2569.77,4.309763932630453
0,-2191.56,-1205.98,-2200.4,-2568.78,4.314763658770396
0,-2190.61,-1200.31,-2195.37,-2568.22,4.319763384910338
0,-2188.1,-1200.06,-2189.93,-2565.26,4.324763111050281
0,-2192.72,-1201.92,-2195.64,-2571.21,4.3297628371902235
0,-2199.16,-1210.91,-2207.18,-2576.9,4.334762563330166
0,-2189.56,-1218.24,-2208.01,-2577.02,4.339762289470109
0,-2188.46,-1212.28,-2208.43,-2573.3,4.344762015610051
0,-2187.48,-1202.58,-2203.96,-2570.42,4.349761741749994
0,-2194.79,-1219.4,-2205.23,-2569.5,4.3547614678899365
0,-2190.02,-1213.98,-2198.37,-2566.24,4.359761194029879
0,-2190.84,-1215.33,-2201.87,-2574.22,4.364760920169822
0,-2192.29,-1216.68,-2203.16,-2577.46,4.369760646309764
0,-2183.82,-1216.16,-2203.57,-2573.67,4.374760372449707
0,-2184.41,-1210.54,-2199.7,-2564.43,4.379760098589649
0,-2173.7,-1195.7,-2191.34,-2563.89,4.384759824729592
0,-2166.46,-1184.45,-2179.96,-2558.11,4.389759550869535
0,-2165.8,-1180.56,-2179.56,-2554.14,4.394759277009477
0,-2174.82,-1179.95,-2184.08,-2558.69,4.39975900314942
0,-2177.57,-1198.13,-2186.12,-2557.22,4.404758729289362
0,-2176.48,-1199.47,-2189.03,-2553.35,4.409758455429305
0,-2176.32,-1211.03,-2194.76,-2558.8,4.414758181569248
0,-2183.88,-1219.34,-2199.52,-2573.03,4.41975790770919
0,-2186.08,-1210.41,-2202.92,-2566.36,4.424757633849126
0,-2182.21,-1194.32,-2193.49,-2566.01,4.429757359989068
0,-2189.17,-1210.47,-2197.37,-2562.95,4.434757086129011
0,-2186.82,-1205.4,-2196.63,-2566.87,4.4397568122689535
0,-2184.41,-1204.44,-2202.02,-2570.62,4.444756538408896
0,-2185.12,-1201.86,-2197.61,-2569.49,4.449756264548839
0,-2180.07,-1201.14,-2194.69,-2566.19,4.454755990688781
0,-2187.84,-1209.13,-2201.61,-2562.29,4.459755716828724
0,-2180.81,-1203.34,-2192.67,-2558.53,4.464755442968666
0,-2173.84,-1201.94,-2184.91,-2554.74,4.469755169108609
0,-2165.53,-1198.2,-2179.71,-2546.14,4.474754895248552
0,-2175.78,-1199.45,-2189.9,-2554.95,4.479754621388494
0,-2183.69,-1202.82,-2195.95,-2554.1,4.484754347528437
0,-2174.17,-1198.09,-2191.9,-2556.81,4.489754073668379
0,-2171.89,-1201.74,-2188.22,-2557.43,4.494753799808322
0,-2182.29,-1207.07,-2197.08,-2564.28,4.499753525948265
0,-2189.13,-1206.41,-2202.26,-2562.61,4.504753252088207
0,-2186.67,-1212.55,-2195.81,-2555.54,4.50975297822815
0,-2190.19,-1209.3,-2195.52,-2555.99,4.514752704368092
0,-2191.17,-1207.98,-2199.6,-2561.74,4.519752430508035
0,-2183.3,-1206.61,-2199.15,-2559.96,4.524752156647978
0,-2186.03,-1208.13,-2192.69,-2565.24,4.52975188278792
0,-2181.61,-1207.96,-2189.7,-2564.35,4.534751608927863
0,-2184.53,-1205.06,-2192.76,-2565.81,4.539751335067805
0,-2176.62,-1199.92,-2192.99,-2567.65,4.544751061207748
0,-2180.51,-1193.76,-2185.14,-2561.88,4.549750787347691
0,-2178.92,-1195.37,-2190.06,-2562.52,4.554750513487633
0,-2179.37,-1204.71,-2197.78,-2564.83,4.559750239627576
0,-2173.79,-1204.19,-2185.14,-2556.78,4.564749965767518
0,-2179.91,-1201.4,-2193.41,-2565.39,4.569749691907461
0,-2182.49,-1203.75,-2189.68,-2564.89,4.5747494180474035
0,-2193.12,-1210.84,-2197.78,-2568.49,4.579749144187346
0,-2184.89,-1204.21,-2199.03,-2569.13,4.584748870327289
0,-2183.49,-1203.96,-2195.73,-2569.84,4.589748596467231
0,-2185.43,-1198.16,-2196.93,-2572.22,4.594748322607174
0,-2186.64,-1206.81,-2190.54,-2577.93,4.5997480487471165
0,-2186.88,-1211.81,-2204.79,-2577.55,4.604747774887059
0,-2193.39,-1223.48,-2209.16,-2575.66,4.609747501027002
0,-2191.32,-1220.16,-2209.83,-2576.28,4.614747227166944
0,-2184.8,-1207.35,-2201.52,-2570.19,4.619746953306887
0,-2180.62,-1193.01,-2192.5,-2567.43,4.6247466794468295
0,-2181.67,-1197.72,-2189.01,-2567.79,4.629746405586772
0,-2185.58,-1211.24,-2201.59,-2566.17,4.634746131726715
0,-2181.83,-1212.31,-2198.12,-2565.02,4.639745857866657
0,-2180.52,-1205.95,-2194.84,-2564.57,4.6447455840066
0,-2182.45,-1206.81,-2196.07,-2563.15,4.6497453101465425
0,-2178.8,-1207.06,-2189.77,-2560.81,4.654745036286485
0,-2180.08,-1202.42,-2194.84,-2567.11,4.659744762426428
0,-2185.0,-1187.39,-2192.98,-2562.64,4.66474448856637
0,-2183.17,-1201.49,-2192.42,-2564.03,4.669744214706313
0,-2186.12,-1201.92,-2193.08,-2559.05,4.674743940846255
0,-2184.44,-1210.86,-2201.03,-2565.11,4.679743666986198
0,-2191.97,-1215.66,-2206.79,-2570.53,4.684743393126141
0,-2189.31,-1216.34,-2204.53,-2572.59,4.689743119266083
0,-2189.37,-1203.71,-2197.8,-2572.87,4.694742845406026
0,-2184.43,-1203.41,-2195.73,-2569.62,4.699742571545968
0,-2184.11,-1211.05,-2199.22,-2563.49,4.704742297685911
0,-2189.5,-1213.69,-2197.41,-2566.71,4.709742023825854
0,-2196.59,-1204.77,-2197.14,-2562.82,4.714741749965796
0,-2186.53,-1197.25,-2193.49,-2561.03,4.719741476105739
0,-2186.18,-1205.19,-2199.95,-2571.34,4.724741202245681
0,-2175.73,-1201.28,-2191.68,-2563.97,4.729740928385624
0,-2177.2,-1207.07,-2190.9,-2560.96,4.734740654525567
0,-2174.71,-1203.53,-2188.21,-2562.58,4.739740380665509
0,-2173.6,-1199.34,-2190.69,-2557.89,4.744740106805452
0,-2167.12,-1194.17,-2181.01,-2552.73,4.749739832945394
0,-2175.41,-1196.79,-2188.59,-2553.4,4.754739559085337
0,-2170.51,-1189.0,-2182.93,-2556.32,4.75973928522528
0,-2180.21,-1194.41,-2195.39,-2558.97,4.764739011365222
0,-2178.61,-1192.22,-2194.5,-2560.54,4.769738737505165
0,-2178.73,-1193.1,-2188.09,-2561.56,4.774738463645107
0,-2182.08,-1203.37,-2195.6,-2565.44,4.77973818978505
0,-2192.74,-1218.46,-2206.68,-2567.62,4.7847379159249925
0,-2189.61,-1223.68,-2205.36,-2574.56,4.789737642064935
0,-2190.65,-1213.05,-2208.33,-2574.86,4.794737368204878
0,-2188.26,-1214.54,-2204.25,-2575.03,4.79973709434482
0,-2181.95,-1204.27,-2196.24,-2569.49,4.804736820484763
0,-2176.54,-1197.14,-2189.27,-2564.27,4.8097365466247055
0,-2179.57,-1209.1,-2194.99,-2568.54,4.814736272764648
0,-2177.52,-1212.28,-2195.87,-2566.52,4.819735998904591
0,-2174.32,-1204.01,-2190.99,-2568.32,4.824735725044533
0,-2182.84,-1196.54,-2202.4,-2568.05,4.829735451184476
0,-2180.86,-1203.48,-2198.81,-2560.17,4.8347351773244185
0,-2175.17,-1205.59,-2187.72,-2550.84,4.839734903464361
0,-2180.64,-1200.71,-2176.94,-2552.36,4.844734629604304
0,-2184.46,-1198.36,-2190.26,-2556.42,4.849734355744246
0,-2191.42,-1200.14,-2199.69,-2558.94,4.854734081884189
0,-2184.68,-1205.1,-2201.6,-2568.01,4.8597338080241315
0,-2184.73,-1219.45,-2200.13,-2565.15,4.864733534164074
0,-2190.11,-1213.92,-2208.77,-2575.18,4.869733260304017
0,-2196.5,-1205.74,-2204.73,-2573.91,4.874732986443959
0,-2199.08,-1215.04,-2205.65,-2570.82,4.879732712583902
0,-2196.86,-1216.2,-2209.27,-2572.84,4.884732438723844
0,-2189.65,-1214.17,-2201.49,-2570.61,4.889732164863787
0,-2189.05,-1192.1,-2189.04,-2561.98,4.89473189100373
0,-2182.21,-1206.78,-2191.49,-2563.18,4.899731617143665
0,-2181.03,-1214.08,-2196.93,-2573.31,4.904731343283608
0,-2184.65,-1209.07,-2202.89,-2571.25,4.90973106942355
0,-2171.88,-1196.19,-2193.09,-2564.33,4.914730795563493
0,-2173.47,-1202.07,-2185.73,-2561.46,4.9197305217034355
0,-2175.6,-1195.34,-2186.73,-2562.04,4.924730247843378
0,-2178.54,-1194.97,-2186.01,-2563.05,4.929729973983321
0,-2169.74,-1192.91,-2184.51,-2563.76,4.934729700123263
0,-2169.99,-1190.28,-2187.17,-2558.56,4.939729426263206
0,-2181.68,-1206.5,-2194.67,-2565.42,4.9447291524031485
0,-2186.68,-1207.17,-2188.06,-2560.83,4.949728878543091
0,-2182.03,-1211.04,-2199.61,-2556.95,4.954728604683034
0,-2184.2,-1201.64,-2193.61,-2555.38,4.959728330822976
0,-2181.06,-1200.58,-2190.58,-2556.98,4.964728056962919
0,-2185.45,-1205.02,-2190.79,-2564.0,4.9697277831028615
0,-2188.43,-1205.51,-2200.27,-2565.32,4.974727509242804
0,-2188.26,-1207.93,-2194.8,-2565.65,4.979727235382747
0,-2189.05,-1211.28,-2200.77,-2564.03,4.984726961522689
0,-2193.48,-1209.21,-2203.79,-2570.47,4.989726687662632
0,-2197.15,-1219.79,-2206.19,-2568.86,4.994726413802574
0,-2192.96,-1218.22,-2201.7,-2567.51,4.999726139942517
0,-2198.59,-1214.47,-2201.36,-2568.68,5.00472586608246
0,-2182.81,-1198.1,-2197.77,-2568.71,5.009725592222402
0,-2186.6,-1203.08,-2200.28,-2570.9,5.014725318362345
0,-2180.71,-1202.07,-2189.63,-2575.83,5.019725044502287
0,-2184.0,-1207.26,-2198.08,-2575.03,5.02472477064223
0,-2187.24,-1213.79,-2202.3,-2575.25,5.029724496782173
0,-2186.39,-1206.83,-2196.63,-2571.76,5.034724222922115
0,-2177.98,-1207.11,-2195.58,-2564.29,5.039723949062058
0,-2185.88,-1204.57,-2194.17,-2555.15,5.044723675202
0,-2198.6,-1216.65,-2202.78,-2569.13,5.049723401341943
0,-2184.38,-1206.19,-2204.04,-2576.02,5.054723127481886
0,-2180.27,-1202.08,-2196.5,-2566.61,5.059722853621828
0,-2181.7,-1208.96,-2190.96,-2562.9,5.064722579761771
0,-2175.37,-1192.21,-2183.77,-2559.19,5.069722305901713
0,-2174.39,-1195.76,-2184.07,-2551.23,5.074722032041656
0,-2176.27,-1189.06,-2188.92,-2550.23,5.0797217581815985
0,-2178.66,-1204.48,-2189.3,-2549.86,5.084721484321541
0,-2180.8,-1203.65,-2190.15,-2554.28,5.089721210461484
0,-2187.79,-1209.17,-2195.57,-2560.83,5.094720936601426
0,-2188.22,-1215.19,-2198.95,-2568.54,5.099720662741369
0,-2186.45,-1211.42,-2199.1,-2570.78,5.1047203888813115
0,-2183.97,-1206.85,-2195.5,-2571.0,5.109720115021254
0,-2178.5,-1211.75,-2194.01,-2564.24,5.114719841161197
0,-2182.91,-1210.05,-2197.45,-2561.67,5.119719567301139
0,-2173.75,-1199.98,-2193.22,-2562.52,5.124719293441082
0,-2169.96,-1196.09,-2185.48,-2557.8,5.1297190195810245
0,-2171.41,-1182.56,-2187.35,-2562.09,5.134718745720967
0,-2174.91,-1196.08,-2188.01,-2556.34,5.13971847186091
0,-2180.55,-1201.22,-2191.22,-2559.1,5.144718198000852
0,-2180.09,-1197.33,-2199.17,-2563.18,5.149717924140795
0,-2177.53,-1203.31,-2199.6,-2561.55,5.1547176502807375
0,-2170.94,-1198.66,-2187.52,-2555.31,5.15971737642068
0,-2177.6,-1200.7,-2195.49,-2557.79,5.164717102560623
0,-2180.0,-1197.4,-2190.27,-2561.55,5.169716828700565
0,-2173.58,-1191.27,-2180.1,-2556.57,5.174716554840508
0,-2174.34,-1195.8,-2191.64,-2566.55,5.1797162809804504
0,-2181.38,-1197.89,-2192.88,-2561.04,5.184716007120393
0,-2178.91,-1203.64,-2191.43,-2559.02,5.189715733260336
0,-2182.38,-1209.3,-2195.37,-2561.08,5.194715459400278
0,-2185.91,-1210.34,-2202.03,-2565.14,5.199715185540221
0,-2188.84,-1208.72,-2195.08,-2556.62,5.204714911680163
0,-2185.17,-1207.7,-2196.9,-2568.85,5.209714637820106
0,-2190.28,-1195.8,-2198.8,-2566.6,5.214714363960049
0,-2187.49,-1195.42,-2192.53,-2571.35,5.219714090099991
0,-2182.34,-1206.48,-2199.91,-2575.67,5.224713816239934
0,-2189.27,-1210.99,-2204.39,-2573.95,5.229713542379876
0,-2194.71,-1208.18,-2210.17,-2577.28,5.234713268519819
0,-2194.87,-1210.53,-2204.16,-2569.92,5.239712994659762
0,-2188.14,-1217.22,-2206.53,-2574.53,5.244712720799704
0,-2194.59,-1214.48,-2204.44,-2573.89,5.249712446939647
0,-2198.46,-1227.39,-2213.21,-2571.4,5.254712173079589
0,-2199.59,-1217.18,-2210.59,-2581.44,5.259711899219532
0,-2194.49,-1217.76,-2210.92,-2578.49,5.264711625359475
0,-2186.34,-1209.85,-2203.29,-2579.6,5.269711351499417
0,-2187.31,-1203.47,-2202.2,-2569.96,5.27471107763936
0,-2187.89,-1202.06,-2195.93,-2578.55,5.279710803779302
0,-2182.21,-1193.33,-2193.02,-2568.49,5.284710529919245
0,-2175.85,-1191.12,-2180.83,-2566.36,5.2897102560591875
0,-2176.24,-1207.79,-2189.38,-2562.26,5.29470998219913
0,-2167.8,-1193.02,-2183.68,-2558.97,5.299709708339073
0,-2176.07,-1202.31,-2187.5,-2563.53,5.304709434479015
0,-2175.55,-1199.91,-2189.64,-2562.18,5.309709160618958
0,-2174.53,-1199.13,-2185.74,-2556.66,5.3147088867589005
0,-2165.17,-1185.54,-2178.5,-2554.38,5.319708612898843
0,-2158.81,-1183.24,-2177.2,-2549.04,5.324708339038786
0,-2171.49,-1190.53,-2185.65,-2553.61,5.329708065178728
0,-2184.25,-1206.36,-2190.09,-2558.3,5.334707791318671
0,-2179.31,-1194.82,-2188.26,-2559.1,5.3397075174586135
0,-2182.86,-1211.07,-2196.16,-2563.85,5.344707243598556
0,-2180.45,-1219.82,-2201.74,-2560.82,5.349706969738499
0,-2184.05,-1220.25,-2199.96,-2564.92,5.354706695878441
0,-2183.82,-1212.76,-2202.92,-2560.35,5.359706422018384
0,-2190.78,-1211.05,-2206.44,-2567.18,5.3647061481583265
0,-2190.43,-1214.64,-2208.06,-2563.78,5.369705874298262
0,-2183.91,-1210.24,-2198.1,-2566.91,5.3747056004382046
0,-2188.18,-1207.65,-2198.37,-2569.63,5.379705326578147
0,-2193.4,-1203.0,-2201.02,-2569.43,5.38470505271809
0,-2187.34,-1202.12,-2189.19,-2565.76,5.389704778858032
0,-2185.15,-1207.73,-2197.99,-2565.42,5.394704504997975
0,-2182.89,-1205.72,-2202.0,-2571.73,5.3997042311379175
0,-2185.83,-1199.13,-2199.85,-2568.56,5.40470395727786
0,-2179.23,-1199.58,-2193.34,-2567.65,5.409703683417803
0,-2186.8,-1204.25,-2197.43,-2570.06,5.414703409557745
0,-2181.17,-1207.7,-2199.12,-2565.51,5.419703135697688
0,-2183.02,-1204.74,-2195.46,-2568.29,5.4247028618376305
0,-2181.28,-1204.43,-2194.79,-2567.69,5.429702587977573
0,-2181.76,-1204.38,-2192.94,-2570.66,5.434702314117516
0,-2182.61,-1198.76,-2193.37,-2566.28,5.439702040257458
0,-2176.42,-1194.96,-2180.54,-2562.67,5.444701766397401
0,-2176.51,-1200.36,-2189.69,-2561.01,5.4497014925373435
0,-2179.07,-1200.24,-2189.07,-2559.6,5.454701218677286
0,-2189.8,-1208.42,-2199.06,-2569.84,5.459700944817229
0,-2189.14,-1214.15,-2204.82,-2570.21,5.464700670957171
0,-2190.79,-1209.99,-2204.1,-2570.34,5.469700397097114
0,-2187.27,-1213.6,-2203.53,-2562.92,5.4747001232370565
0,-2188.01,-1211.72,-2200.82,-2563.51,5.479699849376999
0,-2189.55,-1208.99,-2200.23,-2566.07,5.484699575516942
0,-2180.46,-1207.98,-2193.22,-2561.91,5.489699301656884
0,-2183.66,-1210.93,-2193.04,-2565.31,5.494699027796827
0,-2179.39,-1206.68,-2195.15,-2564.84,5.499698753936769
0,-2176.29,-1204.49,-2192.98,-2570.61,5.504698480076712
0,-2185.06,-1203.74,-2192.55,-2564.03,5.509698206216655
0,-2183.39,-1209.8,-2199.78,-2568.41,5.514697932356597
0,-2186.1,-1213.22,-2200.27,-2573.59,5.51969765849654
0,-2186.91,-1208.86,-2203.41,-2572.95,5.524697384636482
0,-2185.44,-1185.22,-2191.13,-2566.95,5.529697110776425
0,-2188.86,-1204.75,-2195.54,-2569.4,5.534696836916368
0,-2180.19,-1195.78,-2188.68,-2563.2,5.53969656305631
0,-2182.44,-1206.98,-2197.68,-2561.96,5.544696289196253
0,-2178.63,-1203.82,-2192.85,-2560.06,5.549696015336195
0,-2175.26,-1207.34,-2190.84,-2560.38,5.554695741476138
0,-2182.49,-1201.27,-2191.9,-2558.45,5.559695467616081
0,-2176.89,-1198.94,-2192.18,-2557.72,5.564695193756023
0,-2183.83,-1191.95,-2190.65,-2561.17,5.569694919895966
0,-2180.9,-1213.0,-2199.4,-2564.35,5.574694646035908
0,-2179.87,-1202.54,-2190.47,-2561.28,5.579694372175851
0,-2178.87,-1200.32,-2193.33,-2564.88,5.5846940983157936
0,-2186.27,-1189.29,-2193.87,-2565.51,5.589693824455736
0,-2181.03,-1195.7,-2188.34,-2565.34,5.594693550595679
0,-2183.77,-1210.37,-2192.33,-2564.9,5.599693276735621
0,-2181.21,-1210.32,-2191.9,-2562.37,5.604693002875564
0,-2181.5,-1198.64,-2187.62,-2568.03,5.6096927290155065
0,-2178.39,-1199.5,-2184.77,-2554.95,5.614692455155449
0,-2182.96,-1209.0,-2203.6,-2558.71,5.619692181295392
0,-2187.35,-1217.11,-2203.44,-2571.08,5.624691907435334
0,-2182.85,-1201.68,-2192.4,-2572.66,5.629691633575277
0,-2191.01,-1214.95,-2207.23,-2574.44,5.6346913597152195
0,-2180.44,-1214.84,-2196.56,-2566.66,5.639691085855162
0,-2180.84,-1213.19,-2195.44,-2566.29,5.644690811995105
0,-2180.33,-1207.36,-2195.4,-2565.09,5.649690538135047
0,-2180.87,-1208.36,-2198.51,-2568.85,5.65469026427499
0,-2180.67,-1201.53,-2193.29,-2564.92,5.6596899904149325
0,-2184.76,-1202.65,-2202.98,-2572.69,5.664689716554875
0,-2187.02,-1196.69,-2198.43,-2568.55,5.669689442694818
0,-2181.24,-1206.24,-2196.56,-2562.44,5.67468916883476
0,-2183.05,-1213.8,-2196.52,-2568.87,5.679688894974703
0,-2187.83,-1212.79,-2204.63,-2566.92,5.6846886211146455
0,-2182.16,-1207.24,-2191.68,-2563.94,5.689688347254588
0,-2174.64,-1204.6,-2182.33,-2558.2,5.694688073394531
0,-2179.97,-1203.99,-2186.58,-2557.82,5.699687799534473
0,-2182.05,-1207.22,-2191.89,-2564.03,5.704687525674416
0,-2174.62,-1196.72,-2190.84,-2562.28,5.709687251814358
0,-2177.08,-1206.73,-2199.28,-2565.86,5.714686977954301
0,-2183.5,-1209.55,-2206.43,-2565.14,5.719686704094244
0,-2189.81,-1214.61,-2201.36,-2566.7,5.724686430234186
0,-2184.55,-1212.09,-2197.12,-2566.1,5.729686156374129
0,-2178.35,-1200.52,-2191.74,-2561.31,5.734685882514071
0,-2180.12,-1204.05,-2195.02,-2561.6,5.739685608654014
0,-2192.12,-1202.58,-2197.57,-2565.03,5.744685334793957
0,-2187.42,-1204.06,-2196.98,-2563.7,5.749685060933899
0,-2189.88,-1204.2,-2199.23,-2568.48,5.754684787073842
0,-2176.68,-1191.85,-2186.47,-2557.44,5.759684513213784
0,-2173.78,-1187.79,-2182.68,-2558.76,5.764684239353727
0,-2176.88,-1200.02,-2186.47,-2557.99,5.76968396549367
0,-2177.72,-1204.94,-2195.51,-2563.05,5.774683691633612
0,-2179.22,-1203.26,-2199.4,-2561.93,5.779683417773555
0,-2179.6,-1201.35,-2197.47,-2565.63,5.784683143913497
0,-2180.9,-1206.23,-2199.49,-2567.15,5.78968287005344
0,-2181.33,-1222.71,-2202.99,-2571.24,5.7946825961933826
0,-2185.01,-1212.4,-2200.09,-2567.08,5.799682322333325
0,-2179.18,-1208.62,-2191.37,-2567.11,5.804682048473268
0,-2179.88,-1196.29,-2192.15,-2557.91,5.80968177461321
0,-2176.44,-1201.26,-2187.99,-2559.84,5.814681500753153
0,-2180.99,-1201.3,-2191.08,-2560.13,5.8196812268930955
0,-2186.21,-1199.46,-2195.91,-2564.29,5.824680953033038
0,-2184.79,-1207.99,-2195.81,-2567.19,5.829680679172981
0,-2179.89,-1197.43,-2196.67,-2565.51,5.834680405312923
0,-2177.76,-1199.28,-2188.21,-2557.41,5.839680131452866
0,-2171.86,-1200.06,-2185.64,-2562.42,5.844679857592801
0,-2178.11,-1202.54,-2192.24,-2567.46,5.849679583732744
0,-2179.06,-1190.69,-2188.81,-2567.94,5.854679309872687
0,-2178.7,-1191.61,-2184.99,-2563.36,5.859679036012629
0,-2182.46,-1198.36,-2193.09,-2561.72,5.864678762152572
0,-2182.7,-1210.05,-2194.4,-2561.79,5.869678488292514
0,-2180.98,-1209.35,-2190.67,-2563.17,5.874678214432457
0,-2181.75,-1196.9,-2191.51,-2562.36,5.8796779405724
0,-2176.47,-1203.73,-2186.59,-2559.38,5.884677666712342
0,-2181.2,-1198.04,-2189.77,-2556.01,5.889677392852285
0,-2177.23,-1197.61,-2191.38,-2558.23,5.894677118992227
0,-2177.75,-1206.13,-2193.74,-2566.19,5.89967684513217
0,-2182.97,-1215.33,-2200.17,-2567.72,5.9046765712721125
0,-2189.68,-1208.57,-2201.12,-2570.92,5.909676297412055
0,-2194.92,-1212.0,-2205.13,-2575.41,5.914676023551998
0,-2187.06,-1202.37,-2198.03,-2567.47,5.91967574969194
0,-2190.76,-1196.99,-2196.59,-2566.03,5.924675475831883
0,-2181.46,-1204.42,-2196.98,-2556.05,5.9296752019718255
0,-2181.25,-1205.15,-2191.17,-2549.55,5.934674928111768
0,-2181.43,-1204.39,-2190.3,-2554.19,5.939674654251711
0,-2184.61,-1218.8,-2201.13,-2567.42,5.944674380391653
0,-2186.1,-1206.81,-2198.75,-2571.65,5.949674106531596
0,-2178.69,-1205.76,-2193.65,-2562.97,5.9546738326715385
0,-2184.08,-1205.98,-2194.84,-2561.55,5.959673558811481
0,-2181.41,-1208.38,-2191.67,-2566.09,5.964673284951424
0,-2189.09,-1205.85,-2201.55,-2575.71,5.969673011091366
0,-2187.64,-1212.3,-2198.46,-2567.95,5.974672737231309
0,-2184.89,-1214.79,-2201.81,-2569.49,5.9796724633712515
0,-2183.77,-1212.67,-2196.44,-2566.3,5.984672189511194
0,-2172.14,-1194.06,-2188.67,-2560.09,5.989671915651137
0,-2174.39,-1198.96,-2192.89,-2565.42,5.994671641791079
0,-2187.85,-1204.89,-2200.07,-2566.16,5.999671367931022
0,-2176.34,-1202.31,-2188.82,-2568.1,6.004671094070964
0,-2183.19,-1194.58,-2195.06,-2570.16,6.009670820210907
0,-2176.09,-1200.02,-2193.4,-2566.66,6.01467054635085
0,-2184.96,-1206.18,-2191.4,-2570.51,6.019670272490792
0,-2184.38,-1218.41,-2198.3,-2568.85,6.024669998630735
0,-2188.23,-1212.69,-2200.95,-2572.16,6.029669724770677
0,-2184.21,-1199.79,-2198.12,-2568.53,6.03466945091062
0,-2184.89,-1197.56,-2195.7,-2573.51,6.039669177050563
0,-2178.67,-1198.54,-2197.52,-2563.65,6.044668903190505
0,-2184.12,-1214.4,-2200.24,-2565.82,6.049668629330448
0,-2180.79,-1200.6,-2195.98,-2564.14,6.05466835547039
0,-2184.67,-1215.96,-2202.32,-2567.72,6.059668081610333
0,-2182.71,-1210.87,-2200.96,-2567.87,6.064667807750276
0,-2188.98,-1218.15,-2201.46,-2568.18,6.069667533890218
0,-2184.1,-1213.0,-2198.71,-2563.73,6.074667260030161
0,-2183.81,-1204.14,-2199.63,-2561.1,6.079666986170103
0,-2175.71,-1198.98,-2191.59,-2559.24,6.084666712310046
0,-2173.36,-1201.63,-2187.02,-2558.75,6.089666438449989
0,-2168.45,-1198.59,-2185.06,-2551.21,6.094666164589931
0,-2174.62,-1199.08,-2185.47,-2554.84,6.099665890729874
0,-2180.06,-1193.97,-2183.82,-2554.59,6.104665616869816
0,-2172.13,-1190.19,-2186.81,-2552.74,6.109665343009759
0,-2174.62,-1201.14,-2192.81,-2556.93,6.1146650691497015
0,-2179.95,-1207.09,-2190.58,-2559.59,6.119664795289644
0,-2179.58,-1206.74,-2192.06,-2559.77,6.124664521429587
0,-2183.45,-1206.11,-2195.82,-2568.02,6.129664247569529
0,-2187.07,-1209.12,-2201.56,-2570.13,6.134663973709472
0,-2190.18,-1212.03,-2204.67,-2576.09,6.1396636998494145
0,-2191.06,-1210.68,-2202.63,-2577.53,6.144663425989357
0,-2196.41,-1208.73,-2201.36,-2574.55,6.1496631521293
0,-2188.26,-1199.85,-2193.65,-2564.73,6.154662878269242
0,-2179.9,-1201.94,-2193.13,-2567.42,6.159662604409185
0,-2185.83,-1201.98,-2194.84,-2575.06,6.1646623305491275
0,-2192.11,-1208.7,-2200.5,-2572.68,6.16966205668907
0,-2182.2,-1205.96,-2193.21,-2565.24,6.174661782829013
0,-2188.82,-1204.88,-2197.25,-2564.71,6.179661508968955
0,-2188.54,-1213.05,-2195.96,-2568.67,6.184661235108898
0,-2179.68,-1211.5,-2196.52,-2565.79,6.1896609612488405
0,-2175.29,-1196.8,-2193.68,-2557.55,6.194660687388783
0,-2182.31,-1206.15,-2199.81,-2564.86,6.199660413528726
0,-2176.81,-1199.98,-2184.46,-2549.06,6.204660139668668
0,-2179.05,-1194.66,-2185.99,-2548.8,6.209659865808611
0,-2188.8,-1203.73,-2200.2,-2572.54,6.214659591948553
0,-2194.67,-1210.24,-2202.02,-2578.78,6.219659318088496
0,-2197.64,-1210.39,-2207.31,-2581.8,6.224659044228439
0,-2190.06,-1210.53,-2201.33,-2576.16,6.229658770368381
0,-2192.59,-1194.18,-2195.52,-2580.99,6.234658496508324
0,-2187.24,-1196.63,-2194.71,-2574.27,6.239658222648266
0,-2182.83,-1198.11,-2192.19,-2570.99,6.244657948788209
0,-2179.33,-1197.9,-2190.94,-2566.44,6.249657674928152
0,-2187.47,-1212.56,-2201.81,-2566.63,6.254657401068094
0,-2193.42,-1216.23,-2207.38,-2568.34,6.259657127208037
0,-2203.64,-1224.43,-2217.13,-2580.72,6.264656853347979
0,-2203.82,-1210.52,-2215.58,-2579.64,6.269656579487922
0,-2200.83,-1215.53,-2209.59,-2574.61,6.274656305627865
0,-2203.83,-1222.92,-2214.46,-2578.0,6.279656031767807
0,-2196.63,-1222.71,-2213.75,-2580.49,6.28465575790775
0,-2186.48,-1201.31,-2198.03,-2569.03,6.289655484047692
0,-2189.47,-1209.18,-2196.99,-2565.71,6.294655210187635
0,-2191.26,-1203.86,-2198.4,-2566.2,6.299654936327578
0,-2187.32,-1217.32,-2203.17,-2569.54,6.30465466246752
0,-2192.38,-1217.03,-2200.37,-2564.6,6.309654388607463
0,-2185.93,-1207.35,-2195.99,-2560.66,6.314654114747398
0,-2186.65,-1207.84,-2203.07,-2559.5,6.319653840887341
0,-2179.13,-1199.24,-2192.97,-2560.09,6.324653567027283
0,-2182.37,-1196.68,-2194.6,-2557.75,6.329653293167226
0,-2174.64,-1200.33,-2190.75,-2557.79,6.334653019307169
0,-2179.8,-1191.7,-2189.52,-2556.38,6.339652745447111
0,-2183.61,-1211.45,-2200.03,-2561.36,6.344652471587054
0,-2186.24,-1209.87,-2193.12,-2556.23,6.349652197726996
0,-2184.19,-1201.11,-2192.29,-2564.34,6.354651923866939
0,-2175.37,-1194.54,-2188.71,-2556.68,6.359651650006882
0,-2176.74,-1211.24,-2192.35,-2560.3,6.364651376146824
0,-2172.66,-1197.27,-2188.3,-2558.73,6.369651102286767
0,-2169.55,-1189.74,-2183.51,-2559.05,6.374650828426709
0,-2174.32,-1195.89,-2185.97,-2557.11,6.379650554566652
0,-2174.25,-1198.62,-2190.71,-2557.71,6.384650280706595
0,-2181.46,-1192.93,-2189.12,-2566.77,6.389650006846537
0,-2182.99,-1207.33,-2192.72,-2567.83,6.39464973298648
0,-2182.97,-1207.24,-2195.27,-2559.82,6.399649459126422
0,-2186.78,-1209.64,-2200.81,-2559.03,6.404649185266365
0,-2179.49,-1206.29,-2196.05,-2567.56,6.4096489114063075
0,-2186.62,-1213.5,-2202.56,-2575.87,6.41464863754625
0,-2183.65,-1212.4,-2204.37,-2574.65,6.419648363686193
0,-2175.73,-1203.81,-2194.2,-2567.13,6.424648089826135
0,-2176.91,-1205.51,-2192.02,-2566.83,6.429647815966078
0,-2174.78,-1197.63,-2189.33,-2562.93,6.4346475421060205
0,-2177.22,-1196.89,-2183.89,-2554.59,6.439647268245963
0,-2172.56,-1203.71,-2188.42,-2563.26,6.444646994385906
0,-2170.14,-1197.07,-2184.69,-2554.21,6.449646720525848
0,-2174.71,-1202.76,-2191.63,-2561.46,6.454646446665791
0,-2171.91,-1198.88,-2184.64,-2552.43,6.4596461728057335
0,-2173.74,-1199.74,-2190.01,-2561.27,6.464645898945676
0,-2180.82,-1198.43,-2194.41,-2556.67,6.469645625085619
0,-2177.24,-1196.95,-2190.77,-2560.57,6.474645351225561
0,-2179.09,-1205.06,-2191.29,-2564.19,6.479645077365504
0,-2179.06,-1191.1,-2185.64,-2557.79,6.4846448035054465
0,-2171.73,-1188.6,-2186.7,-2557.19,6.489644529645389
0,-2177.56,-1202.53,-2190.45,-2559.6,6.494644255785332
0,-2184.77,-1205.72,-2189.7,-2560.74,6.499643981925274
0,-2178.61,-1199.68,-2193.06,-2563.71,6.504643708065217
0,-2178.13,-1206.84,-2193.98,-2560.48,6.5096434342051595
0,-2173.55,-1199.11,-2189.53,-2551.72,6.514643160345102
0,-2179.48,-1208.2,-2196.04,-2561.02,6.519642886485045
0,-2181.33,-1203.91,-2192.49,-2562.62,6.524642612624987
0,-2183.49,-1200.66,-2192.2,-2564.78,6.52964233876493
0,-2177.59,-1202.03,-2188.13,-2558.85,6.534642064904872
0,-2177.43,-1193.34,-2183.91,-2561.52,6.539641791044815
0,-2177.16,-1200.03,-2196.06,-2564.78,6.544641517184758
0,-2181.3,-1206.87,-2198.96,-2572.28,6.5496412433247
0,-2183.56,-1213.51,-2204.47,-2570.21,6.554640969464643
0,-2184.48,-1201.63,-2199.87,-2568.04,6.559640695604585
0,-2185.71,-1201.97,-2194.16,-2570.63,6.564640421744528
0,-2190.42,-1208.13,-2203.09,-2574.18,6.569640147884471
0,-2193.12,-1213.79,-2204.77,-2570.74,6.574639874024413
0,-2189.65,-1208.26,-2204.15,-2567.65,6.579639600164356
0,-2191.38,-1207.27,-2201.03,-2566.8,6.584639326304298
0,-2185.23,-1198.57,-2196.91,-2562.79,6.589639052444241
0,-2189.45,-1208.14,-2197.18,-2561.68,6.594638778584184
0,-2189.73,-1214.33,-2200.7,-2566.73,6.599638504724126
0,-2187.47,-1206.95,-2195.52,-2562.04,6.604638230864069
0,-2187.15,-1202.01,-2196.37,-2559.34,6.609637957004011
0,-2184.93,-1200.12,-2193.86,-2559.17,6.614637683143954
0,-2185.07,-1200.91,-2195.74,-2568.57,6.6196374092838965
0,-2181.44,-1198.49,-2191.81,-2559.62,6.624637135423839
0,-2183.78,-1201.34,-2194.73,-2561.74,6.629636861563782
0,-2182.84,-1191.51,-2189.5,-2561.16,6.634636587703724
0,-2181.96,-1205.12,-2191.3,-2561.61,6.639636313843667
0,-2185.46,-1209.37,-2200.44,-2558.67,6.6446360399836095
0,-2188.42,-1214.98,-2205.28,-2567.49,6.649635766123552
0,-2181.64,-1209.14,-2193.36,-2568.7,6.654635492263495
0,-2181.82,-1196.31,-2190.38,-2560.8,6.659635218403437
0,-2178.69,-1202.42,-2190.2,-2561.28,6.66463494454338
0,-2169.13,-1201.42,-2186.7,-2555.05,6.6696346706833225
0,-2174.58,-1205.46,-2188.64,-2561.49,6.674634396823265
0,-2175.57,-1202.22,-2190.44,-2554.25,6.679634122963208
0,-2176.57,-1203.36,-2187.54,-2561.54,6.68463384910315
0,-2166.9,-1188.44,-2181.94,-2553.84,6.689633575243093
0,-2175.85,-1199.96,-2180.63,-2559.39,6.6946333013830355
0,-2176.99,-1206.66,-2192.29,-2566.14,6.699633027522978
0,-2181.78,-1194.53,-2194.52,-2561.46,6.704632753662921
0,-2184.23,-1201.93,-2192.29,-2569.06,6.709632479802863
0,-2185.32,-1207.12,-2197.75,-2567.62,6.714632205942806
0,-2190.87,-1208.97,-2204.63,-2569.91,6.7196319320827484
0,-2180.14,-1203.77,-2196.59,-2564.13,6.724631658222691
0,-2183.64,-1197.98,-2195.89,-2568.31,6.729631384362634
0,-2177.07,-1209.46,-2191.36,-2558.69,6.734631110502576
0,-2177.39,-1201.23,-2192.02,-2559.77,6.739630836642519
0,-2178.72,-1204.11,-2191.11,-2570.15,6.744630562782461
0,-2181.42,-1204.22,-2196.5,-2571.39,6.749630288922404
0,-2174.27,-1201.18,-2189.7,-2569.43,6.754630015062347
0,-2181.6,-1200.82,-2194.26,-2563.78,6.759629741202289
0,-2186.76,-1195.9,-2193.79,-2569.53,6.764629467342232
0,-2182.36,-1200.8,-2194.76,-2563.79,6.769629193482174
0,-2180.46,-1199.26,-2186.25,-2563.08,6.774628919622117
0,-2178.38,-1197.78,-2184.21,-2562.76,6.77962864576206
0,-2175.93,-1207.78,-2183.77,-2553.62,6.784628371902002
0,-2180.76,-1201.37,-2194.7,-2559.82,6.789628098041938
0,-2183.94,-1207.08,-2196.34,-2562.62,6.79462782418188
0,-2179.05,-1200.92,-2187.63,-2560.6,6.799627550321823
0,-2173.63,-1191.09,-2186.76,-2558.18,6.8046272764617655
0,-2174.06,-1194.61,-2186.38,-2560.81,6.809627002601708
0,-2172.03,-1202.06,-2192.96,-2563.87,6.814626728741651
0,-2179.41,-1209.79,-2193.18,-2566.06,6.819626454881593
0,-2182.97,-1207.53,-2193.77,-2561.75,6.824626181021536
0,-2174.66,-1207.04,-2195.2,-2564.69,6.829625907161478
0,-2184.64,-1203.88,-2191.08,-2570.57,6.834625633301421
0,-2188.33,-1208.45,-2199.79,-2572.96,6.839625359441364
0,-2186.86,-1210.34,-2200.48,-2571.2,6.844625085581306
0,-2186.48,-1206.58,-2198.0,-2571.16,6.849624811721249
0,-2185.4,-1199.5,-2198.75,-2571.45,6.854624537861191
0,-2192.09,-1214.3,-2201.38,-2573.71,6.859624264001134
0,-2193.19,-1215.36,-2204.96,-2565.51,6.864623990141077
0,-2195.16,-1216.29,-2208.64,-2570.24,6.869623716281019
0,-2190.09,-1203.82,-2203.85,-2563.89,6.874623442420962
0,-2185.83,-1206.19,-2200.51,-2561.24,6.879623168560904
0,-2190.87,-1207.9,-2199.04,-2567.74,6.884622894700847
0,-2192.5,-1215.11,-2206.06,-2570.57,6.88962262084079
0,-2197.42,-1209.27,-2203.75,-2566.24,6.894622346980732
0,-2192.11,-1205.11,-2192.64,-2567.08,6.899622073120675
0,-2187.15,-1211.54,-2199.99,-2565.74,6.904621799260617
0,-2184.2,-1199.21,-2192.66,-2563.48,6.90962152540056
0,-2189.6,-1208.74,-2199.7,-2564.19,6.9146212515405026
0,-2186.51,-1215.57,-2200.02,-2560.06,6.919620977680445
0,-2182.69,-1212.53,-2204.22,-2566.48,6.924620703820388
0,-2183.5,-1209.14,-2199.02,-2568.13,6.92962042996033
0,-2183.29,-1198.14,-2196.46,-2561.0,6.934620156100273
0,-2187.77,-1195.21,-2202.68,-2568.05,6.9396198822402155
0,-2190.98,-1207.39,-2202.53,-2573.01,6.944619608380158
0,-2189.83,-1208.51,-2204.33,-2571.53,6.949619334520101
0,-2184.46,-1211.94,-2202.99,-2569.71,6.954619060660043
0,-2186.81,-1214.84,-2207.54,-2569.6,6.959618786799986
0,-2180.85,-1208.31,-2195.97,-2558.6,6.9646185129399285
0,-2180.24,-1207.95,-2190.55,-2561.13,6.969618239079871
0,-2177.63,-1200.23,-2195.11,-2555.98,6.974617965219814
0,-2178.06,-1205.31,-2198.02,-2555.58,6.979617691359756
0,-2175.1,-1200.35,-2191.37,-2554.78,6.984617417499699
0,-2176.18,-1194.89,-2195.1,-2554.47,6.9896171436396415
0,-2174.27,-1192.67,-2188.73,-2553.95,6.994616869779584
0,-2176.52,-1208.34,-2202.65,-2564.35,6.999616595919527
0,-2184.18,-1199.95,-2196.21,-2570.19,7.004616322059469
0,-2176.71,-1209.48,-2195.86,-2570.3,7.009616048199412
0,-2186.45,-1203.83,-2196.46,-2572.77,7.0146157743393545
0,-2185.83,-1212.39,-2201.3,-2576.96,7.019615500479297
0,-2188.49,-1209.41,-2201.8,-2580.67,7.02461522661924
0,-2190.7,-1210.94,-2208.79,-2575.54,7.029614952759182
0,-2190.22,-1213.7,-2203.96,-2583.17,7.034614678899125
0,-2189.08,-1210.21,-2204.49,-2584.71,7.039614405039067
0,-2182.02,-1202.83,-2199.39,-2580.14,7.04461413117901
0,-2188.05,-1211.08,-2203.87,-2580.53,7.049613857318953
0,-2186.25,-1202.34,-2194.33,-2576.22,7.054613583458895
0,-2184.11,-1206.26,-2193.3,-2571.36,7.059613309598838
0,-2187.47,-1209.44,-2198.93,-2572.0,7.06461303573878
0,-2182.71,-1206.76,-2196.14,-2566.33,7.069612761878723
0,-2184.5,-1204.32,-2197.53,-2567.88,7.074612488018666
0,-2186.35,-1207.86,-2197.76,-2568.84,7.079612214158608
0,-2188.82,-1208.19,-2198.69,-2567.22,7.084611940298551
0,-2187.89,-1202.26,-2193.59,-2563.6,7.089611666438493
0,-2184.47,-1204.32,-2198.58,-2566.09,7.094611392578436
0,-2184.71,-1206.14,-2198.53,-2571.01,7.099611118718379
0,-2181.57,-1192.02,-2193.79,-2562.01,7.104610844858321
0,-2181.9,-1201.91,-2192.36,-2568.31,7.109610570998264
0,-2184.1,-1203.05,-2198.89,-2566.55,7.114610297138206
0,-2183.79,-1207.32,-2196.83,-2567.37,7.119610023278149
0,-2187.44,-1215.4,-2196.44,-2568.46,7.1246097494180916
0,-2188.07,-1208.31,-2199.77,-2569.78,7.129609475558034
0,-2187.95,-1208.23,-2194.15,-2568.96,7.134609201697977
0,-2188.52,-1210.94,-2199.69,-2572.64,7.139608927837919
0,-2191.18,-1206.91,-2197.8,-2569.04,7.144608653977862
0,-2178.27,-1189.74,-2187.27,-2564.06,7.1496083801178045
0,-2175.78,-1199.77,-2186.99,-2564.2,7.154608106257747
0,-2180.34,-1203.86,-2189.49,-2565.89,7.15960783239769
0,-2185.36,-1206.66,-2197.16,-2568.71,7.164607558537632
0,-2186.84,-1207.21,-2192.56,-2567.18,7.169607284677575
0,-2185.53,-1209.42,-2202.25,-2570.22,7.1746070108175175
0,-2183.99,-1199.96,-2195.67,-2566.64,7.17960673695746
0,-2187.97,-1213.82,-2208.16,-2572.32,7.184606463097403
0,-2181.14,-1214.41,-2199.4,-2565.34,7.189606189237345
0,-2182.02,-1212.35,-2201.46,-2572.71,7.194605915377288
0,-2183.29,-1210.23,-2194.2,-2568.74,7.1996056415172305
0,-2178.32,-1197.92,-2189.54,-2560.66,7.204605367657173
0,-2175.84,-1197.1,-2189.42,-2564.62,7.209605093797116
0,-2176.54,-1193.07,-2188.85,-2559.43,7.214604819937058
0,-2175.41,-1199.25,-2188.35,-2560.39,7.219604546077001
0,-2177.14,-1203.65,-2189.14,-2562.49,7.2246042722169435
0,-2182.81,-1198.35,-2190.46,-2567.45,7.229603998356886
0,-2176.52,-1207.63,-2196.43,-2563.0,7.234603724496829
0,-2168.78,-1194.77,-2184.29,-2559.03,7.239603450636771
0,-2170.47,-1198.58,-2184.9,-2561.79,7.244603176776714
0,-2171.46,-1199.67,-2185.76,-2562.61,7.249602902916656
0,-2180.93,-1204.97,-2192.55,-2565.73,7.254602629056599
0,-2184.79,-1200.72,-2188.94,-2558.38,7.259602355196542
0,-2182.82,-1198.07,-2189.77,-2562.0,7.264602081336477
0,-2188.67,-1201.35,-2193.82,-2562.92,7.26960180747642
0,-2185.32,-1203.49,-2192.8,-2562.74,7.274601533616362
0,-2174.29,-1194.94,-2185.48,-2553.7,7.279601259756305
0,-2172.64,-1191.62,-2178.82,-2553.15,7.2846009858962475
0,-2170.61,-1193.89,-2179.82,-2545.42,7.28960071203619
0,-2174.03,-1195.28,-2189.21,-2549.48,7.294600438176133
0,-2174.68,-1200.0,-2192.04,-2559.07,7.299600164316075
0,-2180.98,-1205.47,-2193.07,-2562.28,7.304599890456018
0,-2186.56,-1202.84,-2189.7,-2565.43,7.3095996165959605
0,-2186.43,-1199.76,-2195.49,-2564.19,7.314599342735903
0,-2183.74,-1199.24,-2190.97,-2562.61,7.319599068875846
0,-2178.67,-1201.09,-2190.04,-2564.15,7.324598795015788
0,-2178.52,-1205.82,-2198.89,-2563.27,7.329598521155731
0,-2179.35,-1207.07,-2193.49,-2559.63,7.3345982472956734
0,-2181.01,-1188.09,-2185.72,-2557.32,7.339597973435616
0,-2182.53,-1196.93,-2191.57,-2561.27,7.344597699575559
0,-2180.41,-1214.38,-2191.65,-2565.05,7.349597425715501
0,-2180.57,-1210.94,-2194.61,-2564.6,7.354597151855444
0,-2189.92,-1206.7,-2197.77,-2562.61,7.359596877995386
0,-2188.06,-1198.59,-2197.56,-2561.32,7.364596604135329
0,-2181.75,-1205.32,-2194.72,-2564.45,7.369596330275272
0,-2190.76,-1209.28,-2204.88,-2567.88,7.374596056415214
0,-2202.04,-1224.74,-2211.57,-2576.63,7.379595782555157
0,-2197.83,-1220.41,-2207.0,-2573.8,7.384595508695099
0,-2189.91,-1200.0,-2200.19,-2569.48,7.389595234835042
0,-2179.87,-1197.82,-2194.32,-2558.5,7.394594960974985
0,-2180.28,-1208.25,-2199.89,-2562.68,7.399594687114927
0,-2181.19,-1200.72,-2196.79,-2562.68,7.40459441325487
0,-2186.51,-1207.51,-2196.59,-2561.85,7.409594139394812
0,-2196.7,-1213.73,-2208.45,-2569.54,7.414593865534755
0,-2186.7,-1204.62,-2201.7,-2561.42,7.419593591674698
0,-2188.0,-1203.01,-2198.5,-2560.21,7.42459331781464
0,-2188.27,-1217.72,-2194.71,-2563.48,7.429593043954583
0,-2184.19,-1209.65,-2195.45,-2565.33,7.434592770094525
0,-2193.88,-1211.1,-2203.47,-2569.94,7.439592496234468
0,-2195.78,-1203.69,-2200.12,-2572.59,7.4445922223744105
0,-2185.7,-1201.99,-2198.3,-2568.74,7.449591948514353
0,-2184.31,-1204.03,-2192.25,-2561.38,7.454591674654296
0,-2185.61,-1208.15,-2199.28,-2565.66,7.459591400794238
0,-2184.99,-1210.52,-2204.77,-2568.92,7.464591126934181
0,-2195.99,-1220.52,-2207.35,-2570.69,7.4695908530741235
0,-2185.54,-1203.27,-2196.72,-2568.33,7.474590579214066
0,-2184.86,-1207.81,-2195.53,-2565.78,7.479590305354009
0,-2181.2,-1203.62,-2197.49,-2567.63,7.484590031493951
0,-2181.71,-1202.63,-2192.71,-2562.34,7.489589757633894
0,-2186.96,-1209.64,-2193.5,-2565.91,7.4945894837738365
0,-2189.67,-1213.58,-2201.54,-2572.54,7.499589209913779
0,-2188.96,-1204.05,-2197.37,-2574.13,7.504588936053722
0,-2190.56,-1208.93,-2203.76,-2572.47,7.509588662193664
0,-2189.75,-1209.73,-2203.3,-2563.41,7.514588388333607
0,-2185.48,-1208.93,-2205.03,-2571.0,7.5195881144735495
0,-2186.41,-1209.99,-2203.06,-2570.85,7.524587840613492
0,-2187.09,-1218.89,-2199.94,-2569.75,7.529587566753435
0,-2182.15,-1203.21,-2193.59,-2559.91,7.534587292893377
0,-2181.97,-1193.61,-2193.26,-2559.47,7.53958701903332
0,-2185.65,-1205.36,-2199.04,-2561.37,7.544586745173262
0,-2179.9,-1209.04,-2194.79,-2563.91,7.549586471313205
0,-2181.49,-1203.33,-2193.32,-2559.49,7.554586197453148
0,-2177.81,-1200.07,-2198.0,-2556.73,7.55958592359309
0,-2184.02,-1210.54,-2200.83,-2566.77,7.564585649733033
0,-2175.08,-1194.17,-2192.7,-2561.87,7.569585375872975
0,-2181.84,-1205.03,-2196.82,-2559.75,7.574585102012918
0,-2177.95,-1202.17,-2195.33,-2559.93,7.579584828152861
0,-2169.7,-1203.29,-2191.16,-2558.99,7.584584554292803
0,-2178.88,-1203.54,-2189.91,-2557.65,7.589584280432746
0,-2176.89,-1205.63,-2193.35,-2556.9,7.594584006572688
0,-2169.97,-1197.5,-2184.67,-2551.76,7.599583732712631
0,-2174.71,-1196.37,-2184.97,-2551.94,7.604583458852574
0,-2170.32,-1200.14,-2187.08,-2555.69,7.609583184992516
0,-2176.68,-1195.09,-2189.73,-2559.5,7.614582911132459
0,-2180.68,-1195.16,-2188.93,-2561.92,7.619582637272401
0,-2173.59,-1197.63,-2185.19,-2560.47,7.624582363412344
0,-2170.4,-1193.32,-2182.02,-2556.29,7.629582089552287
0,-2180.11,-1191.79,-2185.77,-2556.01,7.634581815692229
0,-2179.93,-1191.36,-2189.04,-2557.1,7.639581541832172
0,-2178.11,-1194.58,-2187.87,-2556.08,7.644581267972114
0,-2181.35,-1202.94,-2185.53,-2558.57,7.649580994112057
0,-2181.18,-1198.97,-2188.69,-2556.89,7.6545807202519995
0,-2181.71,-1187.27,-2187.56,-2555.82,7.659580446391942
0,-2177.19,-1200.52,-2191.07,-2555.54,7.664580172531885
0,-2193.46,-1212.73,-2198.34,-2569.17,7.669579898671827
0,-2191.74,-1208.83,-2195.48,-2574.13,7.67457962481177
0,-2185.21,-1211.26,-2194.8,-2572.53,7.6795793509517125
0,-2190.08,-1206.37,-2196.91,-2575.06,7.684579077091655
0,-2177.5,-1199.85,-2195.7,-2570.84,7.689578803231598
0,-2183.13,-1204.06,-2189.83,-2564.35,7.69457852937154
0,-2182.16,-1210.44,-2197.78,-2568.92,7.699578255511483
0,-2189.79,-1208.55,-2199.33,-2575.21,7.7045779816514255
0,-2193.28,-1212.62,-2199.62,-2572.92,7.709577707791368
0,-2190.3,-1214.23,-2198.0,-2572.22,7.714577433931311
0,-2186.83,-1205.95,-2197.67,-2565.73,7.719577160071253
0,-2180.16,-1201.79,-2197.05,-2572.91,7.724576886211196
0,-2185.42,-1209.11,-2203.58,-2567.57,7.7295766123511385
0,-2190.01,-1202.42,-2198.76,-2569.58,7.734576338491074
0,-2197.43,-1203.53,-2200.15,-2569.6,7.7395760646310165
0,-2192.48,-1212.36,-2201.82,-2570.14,7.744575790770959
0,-2196.32,-1214.56,-2204.29,-2573.73,7.749575516910902
0,-2191.35,-1211.02,-2207.35,-2573.53,7.754575243050844
0,-2181.75,-1212.54,-2201.81,-2571.84,7.759574969190787
0,-2181.49,-1202.85,-2197.47,-2564.88,7.7645746953307295
0,-2184.75,-1205.03,-2200.14,-2567.02,7.769574421470672
0,-2188.08,-1208.93,-2199.98,-2566.36,7.774574147610615
0,-2188.86,-1212.5,-2201.32,-2568.85,7.779573873750557
0,-2181.23,-1199.89,-2195.37,-2562.49,7.7845735998905
0,-2177.03,-1200.18,-2189.26,-2560.83,7.7895733260304425
0,-2182.4,-1208.93,-2193.68,-2563.55,7.794573052170385
0,-2178.58,-1202.91,-2194.42,-2566.73,7.799572778310328
0,-2177.96,-1204.31,-2191.48,-2561.97,7.80457250445027
0,-2180.23,-1199.43,-2194.77,-2565.58,7.809572230590213
0,-2183.41,-1204.19,-2199.68,-2572.42,7.8145719567301555
0,-2185.02,-1210.11,-2201.32,-2573.13,7.819571682870098
0,-2180.03,-1205.32,-2195.95,-2562.61,7.824571409010041
0,-2175.21,-1203.6,-2197.25,-2564.84,7.829571135149983
0,-2176.75,-1201.78,-2191.46,-2560.46,7.834570861289926
0,-2175.51,-1203.15,-2195.69,-2563.93,7.8395705874298685
0,-2177.72,-1207.15,-2190.47,-2553.78,7.844570313569811
0,-2179.29,-1207.4,-2192.02,-2559.34,7.849570039709754
0,-2182.58,-1199.06,-2199.87,-2565.57,7.854569765849696
0,-2192.16,-1200.51,-2193.72,-2553.99,7.859569491989639
0,-2183.05,-1207.53,-2190.69,-2551.2,7.864569218129581
0,-2181.28,-1205.5,-2192.39,-2559.96,7.869568944269524
0,-2189.52,-1216.25,-2207.05,-2572.03,7.874568670409467
0,-2193.34,-1215.74,-2207.85,-2576.47,7.879568396549409
0,-2189.64,-1212.78,-2205.89,-2566.53,7.884568122689352
0,-2184.37,-1206.75,-2201.17,-2559.1,7.889567848829294
0,-2179.97,-1200.63,-2190.75,-2560.66,7.894567574969237
0,-2177.63,-1196.72,-2191.11,-2560.19,7.89956730110918
0,-2175.6,-1195.81,-2188.64,-2557.21,7.904567027249122
0,-2171.03,-1193.16,-2180.82,-2550.34,7.909566753389065
0,-2175.83,-1195.15,-2188.04,-2560.34,7.914566479529007
0,-2177.11,-1199.72,-2190.71,-2558.42,7.91956620566895
0,-2170.61,-1198.6,-2192.16,-2561.52,7.924565931808893
0,-2182.07,-1212.23,-2191.92,-2556.44,7.929565657948835
0,-2192.27,-1210.87,-2201.01,-2567.1,7.934565384088778
0,-2190.72,-1209.75,-2204.05,-2565.8,7.93956511022872
0,-2192.53,-1212.89,-2200.95,-2567.48,7.944564836368663
0,-2176.82,-1200.22,-2190.87,-2562.49,7.9495645625086055
0,-2178.81,-1193.64,-2190.62,-2554.57,7.954564288648548
0,-2181.72,-1187.26,-2193.16,-2557.37,7.959564014788491
0,-2178.72,-1207.69,-2191.91,-2558.16,7.964563740928433
0,-2182.49,-1206.01,-2192.16,-2560.34,7.969563467068376
0,-2181.68,-1205.08,-2200.0,-2563.45,7.9745631932083185
0,-2181.01,-1204.38,-2189.67,-2561.26,7.979562919348261
0,-2182.18,-1209.52,-2196.14,-2561.02,7.984562645488204
0,-2184.54,-1207.03,-2196.16,-2562.54,7.989562371628146
0,-2188.34,-1208.94,-2196.81,-2564.24,7.994562097768089
0,-2181.72,-1195.49,-2189.19,-2559.27,7.9995618239080315
0,-2182.65,-1202.21,-2195.12,-2565.26,8.004561550047974
0,-2186.95,-1205.5,-2194.18,-2570.06,8.009561276187917
0,-2185.43,-1210.55,-2198.42,-2572.35,8.01456100232786
0,-2188.72,-1218.3,-2209.93,-2574.96,8.019560728467802
0,-2190.61,-1217.37,-2208.85,-2581.67,8.024560454607744
0,-2184.45,-1193.03,-2195.47,-2571.83,8.029560180747687
0,-2181.93,-1210.14,-2196.41,-2570.17,8.03455990688763
0,-2177.92,-1209.69,-2196.19,-2565.18,8.039559633027572
0,-2186.08,-1207.44,-2199.37,-2562.83,8.044559359167515
0,-2194.88,-1213.47,-2202.14,-2569.73,8.049559085307457
0,-2187.76,-1210.16,-2203.9,-2568.4,8.0545588114474
0,-2189.75,-1213.75,-2203.41,-2565.68,8.059558537587343
0,-2183.45,-1211.19,-2194.2,-2560.41,8.064558263727285
0,-2184.03,-1201.54,-2193.2,-2566.88,8.069557989867228
0,-2181.63,-1199.35,-2195.33,-2565.25,8.07455771600717
0,-2192.47,-1205.19,-2199.83,-2576.25,8.079557442147113
0,-2191.41,-1204.47,-2200.95,-2568.44,8.084557168287056
0,-2185.47,-1198.36,-2192.7,-2563.59,8.089556894426998
0,-2184.69,-1207.99,-2193.1,-2564.86,8.09455662056694
0,-2182.37,-1206.36,-2199.07,-2561.84,8.099556346706883
0,-2182.16,-1203.03,-2195.75,-2558.54,8.104556072846826
0,-2180.27,-1192.36,-2189.06,-2555.76,8.109555798986769
0,-2175.93,-1201.71,-2192.8,-2561.94,8.114555525126711
0,-2180.26,-1206.44,-2192.45,-2565.64,8.119555251266654
0,-2180.94,-1208.22,-2196.7,-2572.09,8.124554977406596
0,-2181.57,-1210.73,-2201.79,-2570.78,8.129554703546539
0,-2181.93,-1193.93,-2192.16,-2558.22,8.134554429686482
0,-2174.67,-1197.29,-2188.82,-2556.58,8.139554155826424
0,-2178.28,-1206.25,-2192.7,-2562.61,8.144553881966367
0,-2181.57,-1203.56,-2195.14,-2566.41,8.14955360810631
0,-2175.68,-1199.75,-2187.54,-2552.38,8.154553334246252
0,-2180.2,-1202.03,-2188.41,-2544.49,8.159553060386195
0,-2174.49,-1210.0,-2191.62,-2557.19,8.164552786526137
0,-2174.43,-1201.7,-2190.61,-2569.82,8.16955251266608
0,-2169.73,-1201.44,-2189.57,-2563.39,8.174552238806022
0,-2162.87,-1205.14,-2194.4,-2556.78,8.179551964945965
0,-2169.0,-1203.87,-2186.57,-2565.61,8.184551691085908
0,-2168.59,-1196.46,-2185.35,-2564.2,8.18955141722585
0,-2163.98,-1197.45,-2185.56,-2552.79,8.194551143365793
0,-2164.38,-1193.76,-2183.53,-2555.96,8.199550869505735
0,-2169.62,-1193.8,-2181.99,-2556.26,8.204550595645678
0,-2171.32,-1189.62,-2182.96,-2556.8,8.209550321785613
0,-2172.4,-1202.47,-2188.55,-2562.05,8.214550047925556
0,-2176.41,-1203.0,-2192.82,-2561.6,8.219549774065499
0,-2179.72,-1200.79,-2189.1,-2565.79,8.224549500205441
0,-2176.28,-1201.42,-2188.91,-2567.96,8.229549226345384
0,-2176.81,-1198.19,-2190.81,-2557.76,8.234548952485326
0,-2187.35,-1209.8,-2198.99,-2562.94,8.239548678625269
0,-2181.79,-1202.76,-2198.62,-2559.98,8.244548404765212
0,-2182.61,-1202.42,-2198.18,-2559.94,8.249548130905154
0,-2173.18,-1203.4,-2195.35,-2562.11,8.254547857045097
0,-2173.57,-1201.91,-2193.08,-2555.44,8.25954758318504
0,-2178.12,-1200.52,-2189.7,-2556.79,8.264547309324982
0,-2173.87,-1194.15,-2183.46,-2552.97,8.269547035464925
0,-2167.78,-1193.5,-2186.47,-2556.84,8.274546761604867
0,-2175.88,-1204.87,-2191.43,-2564.24,8.27954648774481
0,-2176.49,-1203.37,-2195.39,-2562.01,8.284546213884752
0,-2185.89,-1204.3,-2200.2,-2565.62,8.289545940024695
0,-2183.38,-1205.69,-2198.73,-2564.26,8.294545666164638
0,-2186.85,-1199.13,-2196.16,-2563.08,8.29954539230458
0,-2180.28,-1194.24,-2192.74,-2555.86,8.304545118444523
0,-2185.08,-1199.2,-2196.88,-2564.16,8.309544844584465
0,-2184.7,-1203.61,-2201.18,-2564.55,8.314544570724408
0,-2188.9,-1214.74,-2203.57,-2568.46,8.31954429686435
0,-2188.55,-1202.25,-2199.02,-2569.68,8.324544023004293
0,-2183.76,-1202.5,-2198.81,-2567.99,8.329543749144236
0,-2180.54,-1210.08,-2198.19,-2567.91,8.334543475284178
0,-2176.89,-1204.32,-2193.05,-2565.67,8.33954320142412
0,-2175.89,-1205.08,-2190.11,-2563.67,8.344542927564063
0,-2179.51,-1204.48,-2192.36,-2562.03,8.349542653704006
0,-2182.46,-1209.74,-2194.96,-2570.03,8.354542379843949
0,-2176.8,-1206.3,-2186.73,-2565.33,8.359542105983891
0,-2181.78,-1208.33,-2199.76,-2565.22,8.364541832123834
0,-2183.16,-1207.13,-2192.68,-2555.68,8.369541558263776
0,-2181.99,-1210.09,-2196.86,-2561.52,8.374541284403719
0,-2182.49,-1208.79,-2206.36,-2573.55,8.379541010543662
0,-2176.48,-1202.26,-2191.93,-2566.55,8.384540736683604
0,-2175.76,-1195.61,-2191.65,-2561.4,8.389540462823547
0,-2180.03,-1206.18,-2192.91,-2564.91,8.39454018896349
0,-2178.52,-1201.08,-2190.41,-2561.61,8.399539915103432
0,-2188.68,-1209.61,-2194.11,-2572.39,8.404539641243375
0,-2188.27,-1215.41,-2205.72,-2574.11,8.409539367383317
0,-2191.46,-1218.45,-2204.37,-2574.9,8.41453909352326
0,-2187.84,-1205.37,-2201.9,-2566.06,8.419538819663202
0,-2190.96,-1205.71,-2202.69,-2564.83,8.424538545803145
0,-2183.77,-1211.93,-2208.75,-2564.73,8.429538271943088
0,-2187.04,-1212.18,-2205.86,-2564.9,8.43453799808303
0,-2189.27,-1209.77,-2197.33,-2565.32,8.439537724222973
0,-2191.3,-1202.34,-2203.72,-2571.2,8.444537450362915
0,-2193.77,-1202.88,-2204.97,-2567.13,8.449537176502858
0,-2195.68,-1215.26,-2213.19,-2576.59,8.4545369026428
0,-2196.85,-1218.35,-2212.51,-2576.96,8.459536628782743
0,-2188.85,-1204.05,-2206.97,-2571.41,8.464536354922686
0,-2190.86,-1209.75,-2200.26,-2574.09,8.469536081062628
0,-2187.5,-1206.6,-2202.62,-2565.96,8.474535807202571
0,-2186.28,-1200.9,-2196.78,-2560.38,8.479535533342514
0,-2183.83,-1208.95,-2195.59,-2559.92,8.484535259482456
0,-2186.24,-1212.26,-2199.37,-2566.48,8.489534985622399
0,-2182.47,-1206.76,-2195.49,-2573.34,8.494534711762341
0,-2184.16,-1221.53,-2199.08,-2566.44,8.499534437902284
0,-2184.77,-1215.09,-2203.29,-2572.62,8.504534164042227
0,-2182.72,-1205.79,-2198.57,-2571.12,8.509533890182169
0,-2180.81,-1204.3,-2195.31,-2564.11,8.514533616322112
0,-2183.49,-1207.92,-2197.13,-2557.83,8.519533342462054
0,-2179.55,-1202.65,-2192.33,-2554.55,8.524533068601997
0,-2183.56,-1201.85,-2190.46,-2558.01,8.52953279474194
0,-2182.09,-1198.21,-2191.61,-2555.37,8.534532520881882
0,-2178.59,-1195.12,-2192.08,-2558.42,8.539532247021825
0,-2178.95,-1199.09,-2187.36,-2555.06,8.544531973161767
0,-2187.54,-1212.03,-2200.43,-2563.61,8.54953169930171
0,-2183.29,-1207.57,-2196.11,-2569.16,8.554531425441652
0,-2188.63,-1208.2,-2196.45,-2571.54,8.559531151581595
0,-2182.18,-1194.92,-2189.93,-2563.19,8.564530877721538
0,-2189.5,-1206.07,-2197.77,-2567.68,8.56953060386148
0,-2186.48,-1204.5,-2199.09,-2566.92,8.574530330001423
0,-2183.29,-1188.79,-2188.47,-2568.58,8.579530056141365
0,-2180.23,-1194.21,-2189.94,-2562.52,8.584529782281308
0,-2180.67,-1195.56,-2186.01,-2558.32,8.58952950842125
0,-2185.15,-1194.82,-2191.91,-2558.96,8.594529234561193
0,-2188.13,-1207.4,-2196.91,-2563.7,8.599528960701136
0,-2185.88,-1204.04,-2194.24,-2565.42,8.604528686841078
0,-2182.81,-1201.53,-2192.35,-2562.9,8.609528412981021
0,-2175.03,-1193.51,-2186.03,-2558.68,8.614528139120964
0,-2175.43,-1199.52,-2185.38,-2558.15,8.619527865260906
0,-2179.59,-1195.44,-2189.35,-2567.54,8.624527591400849
0,-2184.92,-1202.8,-2195.51,-2570.64,8.629527317540791
0,-2183.67,-1196.16,-2194.78,-2569.75,8.634527043680734
0,-2182.28,-1199.7,-2191.6,-2564.4,8.639526769820677
0,-2176.95,-1208.07,-2188.69,-2567.72,8.64452649596062
0,-2188.27,-1202.93,-2196.33,-2572.71,8.649526222100562
0,-2181.68,-1204.94,-2198.59,-2568.63,8.654525948240504
