labels,F4,F3,Fz,Cz,timestamps
0,-7.862157090910305,-7.305194792240888,-9.20288051067714,-11.074693901991209,-2.000036347940682
0,10.498346701138704,0.7860969713814225,6.768546803197586,5.494565991948573,-1.9950362570708293
0,7.848856736203712,-0.9426102373386751,4.489973908262456,-4.646173953340312,-1.9900361662009765
0,15.62937300775354,15.48868355701331,13.531400789689037,5.513086255044661,-1.9850360753311271
0,14.689895508292603,8.04997832948537,11.132827431978756,3.832346609952077,-1.9800359844612743
0,20.76042422901512,19.221274054264903,21.71425381858491,12.921607103936669,-1.9750358935914214
0,26.570959159482946,26.172570704246322,24.095679931521786,21.810867728859726,-1.970035802721572
0,19.02150028728403,13.313868250613185,17.987105750960684,12.150128475378745,-1.9650357118517192
0,25.012047597825003,30.35516666256691,20.93853125503068,13.129389332640304,-1.9600356209818663
0,35.58260107421848,34.04646590712165,29.769956419793644,12.13865028834408,-1.955035530112017
0,34.78316069696034,17.957765948760745,33.60138121903234,21.34791132885578,-1.9500354392421642
0,32.85372644347461,28.669066749291748,26.59280562384249,25.26717243903008,-1.9450353483723113
0,37.02429828787045,35.610368267937375,33.184229602390374,30.02643360176856,-1.940035257502462
0,33.09487620089011,36.02167046114197,30.925653119874923,26.265694797564645,-1.935035166632609
0,36.13546014988564,36.30297328214343,34.34707613846854,32.78495600423058,-1.9300350757627562
0,25.516050098863374,19.844276680817128,25.218498617253957,24.954217196783755,-1.925034984892907
0,7.816646008809083,-3.4144193958440567,8.23992051243986,-3.3965216523655384,-1.920034894023054
0,6.12724783846755,12.076884997334128,9.371341778031285,4.552739427378301,-1.9150348031532012
0,-2.0821444546799137,1.6681898046421035,0.37276236667855867,1.302000405808796,-1.9100347122833519
0,-8.01153091362209,-7.700505030102297,-10.115817769611994,-9.188738747491936,-1.905034621413499
0,-12.980911581194228,-15.149199563135674,-9.60439867882123,-7.9994780628067925,-1.9000345305436461
0,-10.800286499543974,-9.947893850098039,-8.892980408338595,-6.070217569911033,-1.8950344396737968
0,-10.489655709809782,-9.626587945597784,-9.50156300468421,-8.510957297871991,-1.890034348803944
0,-15.569019252020638,-14.885281903139074,-15.780146513430413,-19.081697274961076,-1.885034257934091
0,-12.658377165024087,-20.133975775054896,-15.728730979047388,-11.132437528409971,-1.8800341670642418
0,-13.627729486386668,-20.882669612221985,-20.107316444637927,-10.92317808417133,-1.8750340761943889
0,-7.257076252393281,-9.701363463792985,-13.505902951716235,-10.293918966946094,-1.870033985324536
0,-7.64641749820464,-9.500057377282689,-12.484490540178045,-11.414660200328877,-1.8650338944546867
0,-10.10575325806,-10.438751398925467,-13.2030792484559,-8.725401806873185,-1.8600338035848338
0,-11.265083565344607,-11.147445573923221,-15.991669113656108,-12.316143808110922,-1.855033712714981
0,-13.374408452488767,-14.636139946445585,-14.250260171540221,-9.376886224557673,-1.8500336218451316
0,-18.433727950780302,-17.98483455947699,-21.05885245641291,-12.867629075690397,-1.8450335309752788
0,-8.533042090182137,-6.9335294546520245,-6.487446001036121,-10.88837237991104,-1.840033440105426
0,-11.332350899312535,-1.3122246723472268,-11.356040836731085,-6.209116154544932,-1.8350333492355766
0,-18.321654405560366,-20.96092025199918,-16.714636993604127,-10.029860415937137,-1.8300332583657237
0,-19.24095263501714,-20.049616232085693,-22.713234500515256,-15.780605179522048,-1.8250331674958709
0,-21.000245612180667,-19.31831264963886,-19.061833384728686,-13.201350459685596,-1.8200330766260215
0,-13.04953335974008,-19.037009539853628,-16.94043367163547,-13.61209626955062,-1.8150329857561687
0,-14.478815898631174,-16.155706936041458,-14.739035384773176,-9.792842620921562,-1.8100328948863158
0,-14.088093248246242,-15.754404869736543,-12.667638546022046,-9.06358952439424,-1.8050328040164665
0,-17.257365426555037,-17.30310337081272,-13.50624317580462,-9.944336989513761,-1.8000327131466136
0,-22.00663245002627,-19.18180246752091,-23.774849293145003,-11.095085024862907,-1.7950326222767607
0,-19.475894333412565,-22.420502186394277,-20.233456915473525,-8.785833638057357,-1.7900325314069114
0,-16.145151089584015,-18.9992025520864,-15.332066058359993,-17.616582835688938,-1.7850324405370586
0,-18.84440272955074,-15.917903587299815,-21.990676735466646,-14.707332623179108,-1.7800323496672057
0,-9.583649262606997,-11.276605312923932,-12.409288958647096,-10.988083004599423,-1.7750322587973564
0,-9.942890696553654,-12.695307748315708,-7.4679027381074805,0.5511660172624849,-1.7700321679275035
0,-3.3021270380216725,-8.004010911558934,-12.356518082714672,-0.4695855595244764,-1.7650320770576506
0,-21.791358292717714,-21.13271481957857,-26.52513500016429,-17.020337736439732,-1.7600319861878013
0,-10.280584465334089,-9.601419488056306,-7.643753496750667,-2.721090514460764,-1.7550318953179485
0,-15.849805559279279,-18.460124931283474,-14.78237357717673,-13.521843893786745,-1.7500318044480956
0,-13.999021576564301,-10.428831162124297,-10.010995244724054,-10.902597873704533,-1.7450317135782463
0,-17.608232517790093,-10.517538192088178,-13.099618501463079,-16.103352452473516,-1.7400316227083934
0,-10.907438382102374,-9.776246031479927,-9.758243348313606,-12.644107627139842,-1.7350315318385405
0,-17.76663916719242,-17.124954689511473,-16.27686978504643,-13.144863393425773,-1.7300314409686912
0,-14.90583486931593,-19.703664174181057,-12.68549781022229,-13.165619745732666,-1.7250313500988383
0,-4.8650254833136515,-7.812374492031831,-1.774127421170287,-8.506376677203644,-1.7200312592289855
0,0.9457889971293959,-4.0010856481960815,1.6972413857325468,-1.6171341798866614,-1.7150311683591326
0,-5.383391421012979,-2.349797646824898,-1.1413913854523894,-2.677892245062615,-1.7100310774892833
0,-7.552566730415123,-11.778510491483978,-7.090025730534296,-8.978650863546337,-1.7050309866194304
0,-12.021736923291149,-10.667224185156527,-13.02866164505923,-11.099410025677122,-1.7000308957495776
0,-6.6209019911207765,-10.455938729990415,-5.947299123943306,-7.200169721077327,-1.6950308048797282
0,-5.760061924531794,-9.33465412713128,-7.695938161255453,-11.580929938483065,-1.6900307140098754
0,-4.479216713403678,-7.043370376741145,-3.5045787502781334,-12.411690665684862,-1.6850306231400225
0,-3.3083663470417832,-3.232087478130301,-3.7732208836802372,-3.142451889485851,-1.6800305322701732
0,-6.217510814289194,-5.120805429950848,-4.061864553662395,-9.033213595778474,-1.6750304414003203
0,-8.406650103520953,-3.439524230362846,-5.18050975202475,-3.4039757697268795,-1.6700303505304674
0,-8.31578420252207,-16.328243877034545,-6.749156470138605,-5.894738395894286,-1.6650302596606181
0,-3.654913098374151,-7.906964366918368,-3.327804698879519,1.8444985416515691,-1.6600301687907653
0,-3.7340367775006524,-0.8456856960577188,-3.786454428621542,-7.856264940800508,-1.6550300779209124
0,-6.293155225808681,5.325592140199593,-7.4251056492838465,-12.947028826595075,-1.650029987051063
0,-5.322268428743618,-8.133130853251538,-5.473758350311015,-5.157793098451805,-1.6450298961812102
0,3.6186236286999285,-1.9118546714323128,-0.6524125206266675,-2.008557738299456,-1.6400298053113573
0,-2.6004790381746905,-5.060579309114063,-4.581068148706834,-1.8493227274554602,-1.635029714441508
0,-1.879576413953608,3.3506952392702214,-0.9297252227079743,2.109911953073239,-1.6300296235716552
0,5.85133151682654,2.611968979470989,3.8316162694293077,6.989146322333217,-1.6250295327018023
0,12.352244769521315,11.743241917116045,15.352956339727129,19.878380399060344,-1.620029441831953
0,17.243163358928363,22.674514057263007,14.724294999654633,15.477614201116463,-1.6150293509621
0,17.644087298735847,11.16578540383632,18.18563225956324,14.286847744990528,-1.6100292600922472
0,19.785016601115395,21.47705595922767,19.756968128306127,11.47608104566159,-1.605029169222398
0,20.835951276490363,24.62832572412418,23.098302612998403,20.92531411668214,-1.600029078352545
0,22.75689133338082,18.26959469730758,22.779635718799785,21.77454697010101,-1.5950289874826922
0,19.94783677828068,12.890862875545519,19.820967448758996,14.913779616215429,-1.5900288966128429
0,19.46878761562078,17.412130253787872,20.21229780380412,18.523012063471462,-1.58502880574299
0,21.419743847817408,20.533396825369746,21.89362678281836,17.292244318556715,-1.5800287148731371
0,13.420705475348239,5.374662582032273,12.71495438271462,13.211476386484591,-1.5750286240032878
0,13.501672496903812,8.485927514081526,17.31628059857815,9.980708270712764,-1.570028533133435
0,18.002644909605994,16.877191610711773,20.81760542382506,13.389939973357597,-1.565028442263582
0,23.543622709044428,20.758454860014037,20.698928850163043,16.139171495319708,-1.5600283513937327
0,11.974605889094269,13.009717248638726,14.370250867448686,4.948402836263885,-1.5550282605238799
0,9.955594441898125,11.820978761626543,10.291571463757483,6.357633994719352,-1.550028169654027
0,17.336588358129926,19.222239382529818,17.692890625650875,12.866864968326828,-1.5450280787841777
0,11.477587627173241,19.623499093438273,3.654208338385263,2.576095753946996,-1.5400279879143248
0,5.348592237150705,8.684757874841655,2.3155245861295928,-3.6346736522549064,-1.535027897044472
0,7.9496021751043,10.886015705695113,6.846839352327705,3.5345567455072144,-1.5300278061746226
0,-0.529382572694669,4.697272563747827,-5.491847379991146,-3.3362130570548514,-1.5250277153047698
0,8.72163797949425,6.088528425869036,2.2494643719936134,-3.69698306418149,-1.520027624434917
0,1.3226638169842548,-3.6502167316877197,-0.7292254089280237,-0.7377532799609547,-1.5150275335650676
0,4.203694924676732,-3.4789629329618688,-1.3579167399301424,-1.998523708256525,-1.5100274426952147
0,7.554731287067279,0.8622897980431359,1.713390361841098,7.3707056472097765,-1.5050273518253618
0,19.975772888106782,18.493541437369093,20.554695879126342,16.70993478254795,-1.5000272609555125
0,18.746819710759382,13.524791960600595,19.765999794020257,15.819163693148786,-1.4950271700856597
0,20.637871736467723,11.496041342247509,15.67730208725644,11.568392373169816,-1.4900270792158068
0,14.128928944868594,18.197289555479294,11.758602737882091,13.967620815371964,-1.4850269883459575
0,9.259991313866246,12.548536572084002,9.359901723421938,3.376849011245945,-1.4800268974761046
0,11.971058819933917,12.639782362440123,11.871199020168854,12.616076951235375,-1.4750268066062517
0,12.012131438372018,11.591026895576244,8.712494603349871,10.835304624876528,-1.4700267157364024
0,9.803209143380066,10.852270139294568,12.13378844717283,11.11453202074605,-1.4650266248665496
0,8.264291908081749,8.373512060274372,9.645080524827033,5.943759126390305,-1.4600265339966967
0,2.795379704659115,6.324752624196934,3.646370808517025,3.2529859284442564,-1.4550264431268474
0,12.0564725045389,10.395991795885456,9.677659269598799,5.242212412878165,-1.4500263522569945
0,8.447570278439741,0.9872295394029542,9.268945878694284,-2.218561434783265,-1.4450262613871416
0,11.46867299624604,17.398465818097755,16.72023060559687,10.94066437066525,-1.4400261705172923
0,7.479780626898143,5.729700594531856,9.171513419040473,10.769889814030703,-1.4350260796474394
0,12.920893138377476,5.680933830370235,9.312794286583568,9.719114879420804,-1.4300259887775866
0,6.952010497704524,6.572165486460574,4.884073174729468,13.128339549980746,-1.4250258979077373
0,2.243132670993061,4.823395523008112,-0.294649950800975,2.217563807838195,-1.4200258070378844
0,1.3542596236796132,2.484623899672227,7.196624875215421,2.306787634271175,-1.4150257161680315
0,-7.1646086791185235,-11.974149424246114,-5.412102382305357,-9.763988989898905,-1.4100256252981822
0,-2.1734722722425746,-2.792924489385636,-4.480831758573661,-2.694766083814687,-1.4050255344283293
0,-4.8123311902367085,-6.361701335930705,-3.6695632886441656,-8.205543666216146,-1.4000254435584765
0,-20.23118546715899,-21.980480003398565,-19.998297007108775,-20.356321755197552,-1.3950253526886272
0,-6.710035136261585,-10.789260530332056,-9.007032947741411,-9.647100367873769,-1.3900252618187743
0,-10.828880229697871,-10.328042953973682,-10.445771143185945,-12.207879520090529,-1.3850251709489214
0,-6.537720778550703,-4.036827310321699,-5.504511624959973,-2.2686592264844383,-1.380025080079072
0,-10.766556812996143,-8.415613634450951,-8.083254423675175,-9.989439500771427,-1.3750249892092192
0,1.8946116375841113,6.595598039193121,1.0180004307577042,3.539779643993419,-1.3700248983393664
0,-5.894215455583974,-4.583192323499035,-8.700747091050998,0.28899819516154523,-1.365024807469517
0,-4.583038120869729,-8.021984756487917,-6.789497018044528,-4.3417838597686265,-1.3600247165996642
0,-3.0918563862775432,-3.2607792934608115,-9.798249378598923,-4.102566533203723,-1.3550246257298113
0,3.5493297205413423,-0.9095759676555253,5.482995799568737,-3.963349837296529,-1.350024534859962
0,7.1005201720663225,13.3016251879736,9.714238489124899,2.8158662161335415,-1.3450244439901091
0,8.071714940528436,13.88282414022533,11.915478662506581,10.315081615406715,-1.3400243531202563
0,11.102913997567462,21.244020854987056,15.206716291339339,10.564296348546359,-1.335024262250407
0,18.124117313953178,19.015215296687597,18.13795134606277,14.623510402808446,-1.330024171380554
0,21.115324859240072,19.84640742797682,20.539183795644945,17.47272376433206,-1.3250240805107012
0,8.176536601437082,7.087597209681633,2.010413607436088,4.671936417948206,-1.3200239896408483
0,7.317752507029168,3.37878460111843,2.501640747437716,-1.0488516526782796,-1.315023898770999
0,13.758972541316004,13.009969560584128,10.892865180840046,6.71035953541698,-1.3100238079011461
0,11.290196668598682,3.461152045620958,13.114086872222803,-0.17043003514584243,-1.3050237170312933
0,16.11142485207453,12.562332013009627,15.885305785278591,-0.5112203819873633,-1.300023626161444
0,11.822657053684658,10.543509418697004,13.566521882471037,-0.9920115228604873,-1.295023535291591
0,15.733893234039044,19.06468421763467,15.507735124873042,0.5471965244847229,-1.2900234444217382
0,11.075133352404382,9.405856363540593,14.038945472132115,4.926403742304502,-1.285023353551889
0,19.066377366700557,18.297025808762633,23.300152882418494,14.485610112654276,-1.280023262682036
0,11.817625233451752,6.248192504292995,14.49135731227369,6.23481561701158,-1.2750231718121832
0,20.518876907707412,11.279356399889554,21.42255871646851,6.784020236008213,-1.2700230809423338
0,10.580132342989348,4.440517444277424,11.71375704799849,12.9332239494217,-1.265022990072481
0,14.091391491322609,10.311675585335204,13.834952258212423,11.94242673615404,-1.260022899202628
0,13.952654303346158,19.962830770093944,8.496144297032647,13.461628574058668,-1.2550228083327788
0,11.133920728393967,5.913982944509039,12.107333113179838,21.050829439740802,-1.250022717462926
0,3.955190714587521,6.345132053345915,2.168518654348043,4.3400293084051,-1.245022626593073
0,0.09646420911930775,12.14627804037655,2.9197008674273524,3.4192281539603897,-1.2400225357232237
0,1.7777411586678649,9.59742084852138,5.350879698778377,5.538425949445283,-1.2350224448533709
0,-6.2409784902612,-0.4114395801645676,-2.2779449055878747,-5.552377332561501,-1.230022353983518
0,-2.629694791085421,-9.320303304244543,-5.376772999851944,-3.2431817196380264,-1.2250222631136687
0,-4.508407796946945,-13.359170382266095,-10.48560463806448,-4.35398723921001,-1.2200221722438158
0,-13.857117560556471,-17.478040872053025,-15.93443987370446,-13.794793918292983,-1.215022081373963
0,-14.065824133934928,-13.066914830206422,-12.763278759257293,-12.205601783220626,-1.2100219905041136
0,-10.95452756806203,-17.555792311881845,-11.83212134595539,-12.87641085932113,-1.2050218996342608
0,-4.933227912741951,-14.514673370734604,-5.3509676837923426,-0.797221170796043,-1.200021808764408
0,-6.53192521679195,-3.573558058978924,-9.999817821730526,-5.258032740943857,-1.1950217178945586
0,-3.1206195283185556,-9.142446427649107,-6.758671807886328,-4.628845592489938,-1.1900216270247057
0,-0.7493108949223939,-12.021338526892663,-4.007529689619536,-7.29965974771253,-1.1850215361548528
0,-1.2479993638750284,-7.900234406006939,-5.886391513633528,-1.3204752284019503,-1.1800214452850035
0,-3.6766849822523593,-11.97913411334049,-2.2952573261024924,-4.591292055877403,-1.1750213544151507
0,3.5746322030205846,2.641962303670823,8.895872827154873,5.837889748872747,-1.1700212635452978
0,8.055952145051823,7.4730547981844255,7.276998900310513,11.317070164893057,-1.1650211726754485
0,18.70727479660589,12.414143323343485,11.028120847058814,11.836249170787257,-1.1600210818055956
0,11.658600109561757,9.955227831663892,6.699238620316328,0.6854267443389035,-1.1550209909357427
0,12.359928034538116,2.0263082747552077,4.720352172173516,6.694602862530733,-1.1500209000658934
0,9.021258520866924,2.1573846034530364,2.5114614540330207,12.433777501724563,-1.1450208091960405
0,3.142591516792442,5.5784567681144654,-0.627433583162567,3.812950637622776,-1.1400207183261877
0,-1.5260730302101644,-0.9204752812224228,-3.316332988682662,4.502122245186136,-1.1350206274563384
0,-10.804735172972167,-7.039411594722889,-10.675236811717912,-6.308707701178485,-1.1300205365864855
0,-11.303394964068916,-13.078352222416562,-11.344145101008792,-5.01953922721325,-1.1250204457166326
0,-12.192052455313458,-18.867297213654084,-6.483057904505523,-9.650372358381563,-1.1200203548467833
0,-10.240707697474296,-18.77624661655756,-6.751975269264812,-2.501207119587227,-1.1150202639769304
0,-5.8293607402485765,-14.125200477655337,-3.30089724158076,-5.582043535125662,-1.1100201731070776
0,-8.448011632400359,-11.114158841839114,-8.079823867144327,-3.2728816287797358,-1.1050200822372283
0,-10.876660421885113,-10.723121752576631,-14.258755191038416,-12.16372142385489,-1.1000199913673754
0,-3.4453071558596964,-1.3920892522017252,-8.167691257532336,-4.454562943062695,-1.0950199004975225
0,-0.11395188075759588,-1.5710613822563837,-6.226632109920884,-1.8754062084365053,-1.0900198096276732
0,-1.7825946425568646,-1.0000381838586292,-0.8455777906472881,-1.8162512414744252,-1.0850197187578203
0,-0.3012354870357523,-0.44901969794279206,2.3354716583647517,-1.5870980633693328,-1.0800196278879675
0,-3.1898744598569495,-1.7480059653383808,1.306516195358953,-0.6579466951326101,-1.0750195370181181
0,4.571488393421845,13.023002973138675,4.627555778492239,4.961202842324053,-1.0700194461482653
0,10.462853027202362,17.934007076327013,11.998590365636336,11.200350527973582,-1.0650193552784124
0,5.594219395510359,4.645006302169862,4.009619914131285,7.289496340316225,-1.060019264408563
0,4.135587451735862,-10.20399939240215,-0.1093556193387708,0.6086402571451439,-1.0550191735387102
0,3.0169571486628923,-0.09301005089503511,-1.248336278546267,5.527782255635753,-1.0500190826688574
0,2.4383284386361437,9.87797428327773,2.0926778925873224,7.316922312516318,-1.045018991799008
0,-4.480298726276583,-13.431046433232467,-6.826313149845031,-0.06393959592374632,-1.0400189009291552
0,-5.388924394053682,-2.4900722437284553,-4.7753094496004085,-4.864803493769362,-1.0350188100593023
0,-10.407548612392572,-14.859103191111341,-8.574311050061421,-12.445669405120993,-1.030018719189453
0,-17.716171428338587,-20.13813931743983,-13.723317993990392,-15.94653735354387,-1.0250186283196001
0,-16.45479288786669,-13.537180663514684,-17.18233032323978,-15.907407361544841,-1.0200185374497472
0,-17.623413035510342,-7.5762272686482,-15.631348078409278,-11.548279450257791,-1.015018446579898
0,-12.922031914199472,-15.345279170799373,-11.650371298632969,-15.409153639396397,-1.010018355710045
0,-4.190649565371272,-5.74433640678954,-2.9294000216703875,-5.0100299473622005,-1.0050182648401922
0,-8.259266029309442,-14.173399012386438,-9.568434284240665,-9.480908391436042,-1.0000181739703429
0,-17.347881345415757,-12.742467022305341,-18.5474741222311,-14.241788987952804,-0.99501808310049
0,-9.81649555212733,-3.5015404701789397,-7.086519570542372,-8.4526717522868,-0.9900179922306371
0,0.014891313217900493,8.529380611239082,1.1844293370185288,9.566443301117024,-0.9850179013607878
0,-7.433720785841599,-12.399703810412758,-6.674627432574796,-6.124443841669024,-0.980017810490935
0,-6.692331885201581,-12.298793767267716,-16.483689911843612,-8.715333194427023,-0.9750177196210821
0,-9.70094202020479,-14.34788929080573,-13.602758132566835,-11.476224770614849,-0.9700176287512328
0,-6.4495512254931775,-1.3569904114497064,-7.901832125386573,-3.057118582983025,-0.9650175378813799
0,2.801840464994118,-1.7760971586796575,-2.9209119197957745,-2.858014643521579,-0.960017447011527
0,1.49323301775306,4.534790438513916,-3.5899975444741514,0.8910870362880683,-0.9550173561416777
0,0.9346263993513549,-1.2543276487769972,-1.6990890276216966,1.5201864451820715,-0.9500172652718248
0,-5.6539794237150405,-1.5934514495343017,-0.9781863971407017,-2.6507164280685727,-0.945017174401972
0,-3.5625844848784514,-3.0625809927362266,-5.607289680708226,-2.0716215946754692,-0.9400170835321227
0,-4.371188817283213,-4.121716307200203,-8.796398905712257,-6.7225290657047,-0.9350169926622698
0,-2.079792453692251,-0.6208574214812308,-8.785514099034089,0.92656114806694,-0.9300169017924169
0,-1.4583954265283072,1.4499956361068542,-3.724635286854576,2.585649036136245,-0.925016810922564
0,-2.6769977679579267,0.16084283735564864,-9.54376249463649,0.7847345880751181,-0.9200167200527147
0,-5.34559950991966,-3.9483158459359213,-0.03289574720642019,-2.646182206623949,-0.9150166291828619
0,-5.354200684043208,-7.617480441863769,-1.1820350688901697,5.082898641467971,-0.910016538313009
0,-1.0628013215520582,-0.5866509782033149,-1.7111804837180338,2.6919771217012,-0.9050164474431597
0,-1.9514014532900452,-5.565827482308329,-5.490332015543131,4.4010532232079544,-0.9000163565733068
0,-5.550001109817559,-8.20500998111611,-5.5294896879597175,4.060126934782395,-0.8950162657034539
0,-5.5286003213968264,1.7058014988894006,-0.05865352417761849,0.07919824486199983,-0.8900161748336046
0,1.4228008820927955,-0.8733930683731204,2.7521764529241137,5.508267141577177,-0.8850160839637518
0,-3.8257975288903436,-3.222593708772679,-5.046999779399643,-2.952666387186662,-0.8800159930938989
0,-4.474395583651104,-5.841800448023974,-3.1861822438171385,-5.163602353668554,-0.8750159022240496
0,4.25700668872739,0.32898668842717627,3.044629037180123,2.1754592299784665,-0.8700158113541967
0,3.0284092592879697,6.129767675386825,4.935434041218976,1.4645183517660736,-0.8650157204843438
0,3.04981209895773,10.380542487598403,3.1562327457839587,2.563574999719205,-0.8600156296144945
0,8.611215178350395,14.581311099267388,5.867025128012,2.3926291617105466,-0.8550155387446416
0,1.1026184676516844,4.352073483687248,2.4678111646281042,-0.28831917458605094,-0.8500154478747888
0,11.904021936541122,6.752829613181629,9.638590831917286,5.660729978316825,-0.8450153570049395
0,3.1254255541206133,-1.986420540655517,-1.4306358943137105,1.3397766076974202,-0.8400152661350866
0,0.3968292888994449,3.534322993355313,-1.4498690386623447,-0.7811792994082345,-0.8350151752652337
0,0.39823310896399056,-3.1849398137915568,0.22089137411037899,-3.4621377561091204,-0.8300150843953844
0,4.039636982203284,2.6857910088376453,7.711645319220254,7.0469012244886295,-0.8250149935255315
0,-5.748959123600052,-8.023484567797516,-6.317607228230325,-0.3840623707530372,-0.8200149026556787
0,-2.787555240666361,6.77723342737456,0.14313370673579628,-3.095028555112122,-0.8150148117858294
0,-2.9561514010208843,-0.7020550344882,-2.696131900849697,-3.5659973419064093,-0.8100147209159765
0,-4.31474763637319,-1.0113499822731349,-2.3854040757732538,-0.9269687442813332,-0.8050146300461236
0,-7.133343978073713,-0.2606514449319487,-5.434682842596691,-4.037942775127347,-0.8000145391762743
0,9.268059542891244,8.890040548548717,6.456031774363152,6.431080552863572,-0.7950144483064214
0,3.0594628956742898,6.7607259689629355,5.15673975087382,5.850101226999408,-0.7900143574365686
0,6.790866049174136,13.79140478654396,8.29744106243783,9.679119234255587,-0.7850142665667192
0,12.592268971753054,12.192076970653101,13.28813568396223,10.968134560959497,-0.7800141756968664
0,14.003671631002486,5.662742489597743,14.79882358947238,14.337147192548663,-0.7750140848270135
0,6.305073993490664,0.6334013107211532,7.039504751871565,-0.023842886560141774,-0.7700139939571642
0,13.106476024692702,2.7440534007467408,10.120179142915337,6.51516430716104,-0.7650139030873113
0,8.187877689066795,5.2846987260636515,9.930846733353887,7.704168756619437,-0.7600138122174585
0,8.82927895010049,8.175337252732394,10.401507493001066,12.973170444131087,-0.7550137213476091
0,6.410679770370655,11.815968946278776,4.472161390738119,1.1021693512494533,-0.7500136304777563
0,-0.9479198882980757,6.506593771457182,0.3228083946520153,2.2511654587860863,-0.7450135396079034
0,5.493479935409757,8.557211692148613,10.203448472282627,10.010158747034072,-0.7400134487380541
0,5.154879202469016,4.437822671423408,5.474081590703981,3.469149195833155,-0.7350133578682012
0,3.2162778734930253,14.818426671610698,8.86470771639504,3.8181367844883374,-0.7300132669983483
0,6.5576759086605065,16.08902365417064,2.8953268151508538,1.5171214918182825,-0.725013176128499
0,1.6690732677036326,4.469613579442957,-2.6840611478069376,-1.2938967036724267,-0.7200130852586462
0,-5.87953008999919,-1.2798035933092824,-8.163456207496598,-10.194917823555237,-0.7150129943887933
0,-3.24813420514702,-5.959227905400854,0.38714160123363495,-1.6959418891556899,-0.710012903518944
0,0.18326088177327504,-2.3286593981473187,2.5577322438564307,1.1230310786296467,-0.7050128126490911
0,-5.395344869445158,-12.328098112510776,-4.661684313988434,-1.5379989407954913,-0.7000127217792382
0,-4.243951498743602,-9.327544088858398,-4.271108106574807,-5.649031967893564,-0.6950126309093889
0,-9.822559045687866,-11.236997366718438,-12.870539167888538,-6.850068022908156,-0.690012540039536
0,-16.961167549216068,-18.296457984579035,-22.129977531213346,-10.581107125614945,-0.6850124491696832
0,-10.869777047292013,-13.205925979689662,-16.159423228593113,-10.922149295068133,-0.6800123582998339
0,-19.608387576610877,-19.77540138785907,-19.348876290412605,-15.563194549373543,-0.675012267429981
0,-8.366999172469477,-12.764884243340267,-13.718336745294328,-10.014242905498794,-0.6700121765601281
0,-8.815611868822884,-1.4343745789114108,-11.547804620221372,-9.45529437921084,-0.6650120856902788
0,-1.8942256985507577,1.7261275737020556,-9.407279940767664,-5.59634898520125,-0.6600119948204259
0,-9.182840693785455,0.04662218321604039,-11.346762731335248,-8.34740673729051,-0.6550119039505731
0,-12.1514568860271,-12.182890781530997,-16.01625301524399,-11.608467648529379,-0.6500118130807238
0,-4.9100743060145176,-3.162411351419554,-11.215750814641549,-7.789531731139851,-0.6450117222108709
0,-0.20869298368684897,-1.7819395568089806,-4.495256150456455,1.2794010034994718,-0.640011631341018
0,-5.727312948412036,-11.161475427535347,-8.414769042587723,-2.7616694553863095,-0.6350115404711687
0,-4.445934229190362,-8.371018992895642,-8.874289510140576,-3.732743118268595,-0.6300114496013158
0,0.44544314532784557,-5.34057028148015,-5.79381757148373,-0.3138199954086557,-0.625011358731463
0,2.916819146766395,2.6498706788231714,3.5666467556899395,2.605099903119743,-0.6200112678616136
0,2.0981937467926137,6.24030386049078,-1.8828965459088745,-3.1759834326820235,-0.6150111769917608
0,5.619566916897743,-0.8992707640631434,0.1875525065400898,-2.227070012786682,-0.6100110861219079
0,6.70093862824546,10.301146777274806,2.777993895852797,-1.9781598470458905,-0.6050109952520586
0,6.332308851523153,2.2415564562182477,8.848427604740982,2.800747054862404,-0.6000109043822057
0,6.663677556829293,6.981958243991345,11.148853615538444,3.52965068331648,-0.5950108135123529
0,8.685044713618478,11.972352111248135,11.339271909846435,6.648551028527673,-0.5900107226425035
0,3.556410290673573,-6.337261971982769,3.019682468332039,2.457448080345204,-0.5850106317726507
0,12.547774256096572,9.17311596380483,12.840085270771068,8.276341828162394,-0.5800105409027978
0,8.98913657724708,2.7234858877745243,11.110480296104663,9.93523226083723,-0.5750104500329485
0,13.780497220584039,17.04384776866619,14.730867522302145,14.584119366494198,-0.5700103591630956
0,4.871856151545553,6.01420157448374,5.041246926206454,7.103003132280293,-0.5650102682932427
0,2.4532133346376814,4.014547272315452,2.161618483637806,5.311883544311672,-0.5600101774233934
0,7.714568733691243,13.9448848284156,9.641982169694543,17.410760587794513,-0.5550100865535406
0,5.3359223120247075,3.305214208281849,5.262337958916739,7.349634247010175,-0.5500099956836877
0,5.777274032420038,3.6255353766655647,7.28268582523646,0.4385045052498233,-0.5450099048138384
0,9.208623857064897,11.315848297676183,12.443025741892466,2.857371345051831,-0.5400098139439855
0,1.4899717475256895,3.816152934826461,3.163357681348363,-0.8137652514112217,-0.5350097230741326
0,9.461317664765339,9.296449250957892,5.8036816152914845,8.815094697839692,-0.5300096322042798
0,2.082661569189734,2.9167372082308027,-2.816002485177946,2.8939511745087567,-0.5250095413344305
0,5.464003420682978,4.607016768205,9.274305350687637,5.512804159876645,-0.5200094504645776
0,1.5853431786708994,2.5172878919566335,2.384605093337684,0.5216536347710788,-0.5150093595947247
0,11.876680802160408,4.437550540177604,14.034896712772614,12.590499579604883,-0.5100092687248754
0,2.988016249647365,-3.1221953267511644,-2.3248198216306304,3.9993419742890293,-0.5050091778550225
0,2.9293494790312797,-6.981949748581623,-0.1445445410647732,-0.09181920186846271,-0.5000090869851697
0,6.720680447691534,2.9682872350768825,7.615722522963208,6.247016029948631,-0.49500899611532034
0,9.612009112533137,9.738515584787493,8.945981338682865,2.1758476482205964,-0.4900089052454675
0,8.95333542983748,15.3687352608632,13.786231873761452,6.51467563108473,-0.4850088143756146
0,7.9246593550872415,6.458946222817967,11.556474094948765,1.833499956277424,-0.4800087235057653
0,9.645980842910996,4.699148429163181,5.596707967911293,2.8423206011440474,-0.4750086326359124
0,12.81729984705873,8.89934183757212,9.076933457311643,5.851137542686542,-0.47000854176605955
0,5.368616320335526,0.36952640507661183,7.437150526976285,2.149950757562884,-0.46500845089621023
0,10.039930214603293,8.32970208816992,11.497359139942382,5.03876022205389,-0.46000836002635737
0,15.76124148081674,13.669868842800422,9.677559258381395,6.9375659120372815,-0.4550082691565045
0,17.002550068867443,16.04002662411846,14.297750843485728,4.426367802922755,-0.4500081782866552
0,4.043855927355419,16.620175386078195,9.057933855365649,-2.514834130361679,-0.4450080874168023
0,17.275159003611236,19.82031508113882,18.698108252969103,14.37396008672442,-0.44000799654694944
0,10.576459243822462,15.220445660103247,9.718273993991515,3.7227504282905275,-0.4350079056771001
0,27.07775659292119,15.440567072083349,27.798431034731806,20.57153686773964,-0.43000781480724726
0,8.619050994296138,13.930679264590323,12.058579329873,5.160319377471476,-0.4250077239373944
0,23.670342389629965,27.960782183570544,23.198718832297338,12.72909792875308,-0.42000763306754507
0,6.441630718951393,0.17087577331089876,4.6488494931171775,0.5378724918260085,-0.4150075421976922
0,20.182915920769673,23.660959976495487,16.35897126192178,13.716643036119516,-0.41000745132783933
0,12.054197932165096,15.861034734363612,6.749084087052757,4.8254095303382005,-0.40500736045799
0,8.345476688835467,10.301099986666964,9.01918791578044,4.784171942448462,-0.40000726958813715
0,-2.8732478746783894,-0.11884432824952684,2.189282694468976,-2.6470697601971707,-0.3950071787182843
0,-24.651975824336883,-22.5887982728071,-22.20063163102905,-16.598315610456538,-0.39000708784843496
0,-13.020707225592243,-12.028761909146741,-18.370555114549255,-11.67956564076145,-0.3850069969785821
0,-27.829442142490592,-22.64873529821334,-31.900487808582973,-25.87081988246003,-0.3800069061087292
0,-23.038180637166775,-11.54871849933966,-18.80042976353186,-11.702078365352127,-0.3750068152388799
0,-25.636922769554694,-9.998711570258667,-19.590381027472667,-11.553341117551753,-0.37000672436902704
0,-34.03566859715818,-32.258714567216714,-31.770341646236204,-25.624608165607217,-0.36500663349917417
0,-38.84441817474876,-45.43872754461363,-39.83031166326944,-33.50587953437407,-0.36000654262932485
0,-29.483171553964677,-34.97875055403754,-27.230291119131557,-18.087155246493293,-0.355006451759472
0,-20.301928783198857,-22.818783643579618,-20.530280051245732,-13.108435322167157,-0.3500063608896191
0,-25.88068990796187,-23.398826858052253,-28.000278494206658,-17.349719779540752,-0.3450062700197698
0,-11.17945497137013,-7.968880239687426,-14.78028648018161,-15.38100863511941,-0.34000617914991693
0,-24.458224014499525,-36.28894382867886,-30.370304039104486,-23.372301903828806,-0.33500608828006406
0,-23.706997076523802,-25.389017663182067,-24.460331198673885,-16.623599598859823,-0.33000599741021475
0,-40.70577419446835,-30.80910177888468,-32.890367984152746,-29.9649017314824,-0.3250059065403619
0,-22.74455540269904,-30.099196208681118,-19.470414418161432,-17.97620831085701,-0.320005815670509
0,-20.833340732687887,-18.829300982653574,-19.970470520742584,-23.18751934392362,-0.3150057248006597
0,-21.062130213305092,-25.54941612826582,-24.91053630963975,-15.11883483547801,-0.3100056339308068
0,-27.060923871180215,-31.959541670556455,-28.860611800410254,-28.01015478830992,-0.30500554306095395
0,-23.269721730727163,-5.289677632178646,-15.530697006299228,-11.751479203229167,-0.30000545219110464
0,-30.50852381397911,-39.339824033512876,-34.58079193818064,-25.132808079073694,-0.29500536132125177
0,-34.95733014037622,-46.249980892572964,-42.48089660440589,-26.114141412707088,-0.2900052704513989
0,-28.92614072648552,-25.020148224333752,-28.90101101029883,-24.685479198831956,-0.2850051795815496
0,-18.704955585894048,-17.800326040372745,-17.911135157882008,-17.636821429804904,-0.2800050887116967
0,-6.933774729597417,-2.470514349539147,-6.401269046402069,-1.548168095852939,-0.27500499784184385
0,11.41740183310847,1.4492868409102422,10.308587326604176,9.770480814179662,-0.27000490697199453
0,-30.671425906278603,-22.270922475505017,-22.89156603566584,-27.07087468798835,-0.26500481610214166
0,8.819742044298026,3.128857695373525,6.618270870390942,4.977765409779084,-0.2600047252322888
0,-28.979094322258923,-26.85137265141512,-26.101901951000656,-22.203598879607807,-0.2550046343624395
0,-3.58793501196361,7.108386480197886,-0.5520844947237489,1.1350324577127808,-0.2500045434925866
0,-16.41678002961276,-32.72186491265228,-24.14227675456947,-15.046340563478353,-0.24500445262273374
0,15.084370621088256,17.467873168235315,9.787521276814983,16.352282072335207,-0.24000436175288442
0,-30.864483062882023,-30.51239927799249,-25.812690392244622,-21.029099618943288,-0.23500427088303155
0,-17.15334108381847,-29.05268225115329,-20.282911752436622,-15.560485621041478,-0.23000418001317868
0,-11.77220344266629,-6.202975749431074,-11.493142793033922,-12.701875916769042,-0.22500408914332937
0,-4.411070138770928,-1.9132797691491772,-6.943383501677373,-6.133270487608253,-0.2200039982734765
0,0.9400588296595136,-0.8135943054595881,-4.35363386474131,0.7853306860742508,-0.21500390740362363
0,-2.0388165350414145,7.196080646859647,0.636106132159088,4.7439276244919295,-0.2100038165337743
0,-8.92769623029114,-34.824254906818794,-19.64416349608918,-15.97747965196196,-0.20500372566392144
0,-10.526580253147323,-24.204600960358135,-14.184442733909288,-6.138891122623033,-0.20000363479406857
0,-3.695468600018643,-7.074957505887317,-8.104731564601089,0.83969323378115,-0.19500354392421926
0,24.235638733242723,29.564675466145392,15.094970029633702,27.63827343891856,-0.1900034530543664
0,11.876741750568314,-13.385702034286874,-3.035337932994702,6.986849513957678,-0.18500336218451352
0,1.0378404548623688,18.413910002242673,7.4943445654845675,9.375421478847242,-0.1800032713146642
0,-14.361065151909862,-13.676488415392384,-14.535982457259047,-11.136010647558198,-0.17500318044481133
0,0.080024932091179,8.72310272143495,0.5536810165028174,3.4225531531657336,-0.17000308957495847
0,2.28111070911634,-24.32731657858013,-8.736664995094868,0.5211128994926042,-0.16500299870510915
0,-16.877807818195862,-29.35774630606885,-15.38702047332253,-18.500331389915022,-0.16000290783525628
0,2.2932693531922363,25.48181354965681,7.062614601275277,1.7282203040109096,-0.1550028169654034
0,-1.2056577731696205,-14.138636999637962,-5.517759751212994,-2.073231999048737,-0.1500027260955541
0,-23.08458919324851,-38.84909794167484,-31.96814351019994,-25.624688278822205,-0.14500263522570123
0,-3.7235249023357055,-10.739569263089368,-3.9385366541724305,-7.636148514221362,-0.14000254435584836
0,-5.612464894739009,2.669949051336377,-3.828939160239037,-4.957612682965557,-0.1350024534859955
0,-14.201409163837502,-20.6405429816946,-13.029351004379768,-12.829080761659869,-0.13000236261614617
0,-6.3903577021893465,-5.8410453445405,-11.269772161758326,-6.590552726033798,-0.1250022717462933
0,-1.5893105015092361,-9.801558018603309,-5.480202606637439,5.177971448948011,-0.12000218087644043
0,-2.6582675528436126,5.897919015617543,-0.4606423123913086,-3.1335082112028125,-0.11500209000659112
0,-5.557228846840123,-23.362614221752843,-16.071091251731122,-6.684991680808139,-0.11000199913673825
0,1.6738056261531664,-1.7331577099510533,-0.981549396751817,-0.6764789339943794,-0.10500190826688538
0,-3.9151641239509574,-4.893711427372259,-2.9420167188748954,-2.4079699445680016,-0.10000181739703606
0,2.555861912930152,-1.0142753516899137,-1.1824931890129773,-0.35946468606775395,-0.0950017265271832
0,-9.793116252987161,2.6651505397942157,-5.952978777784439,-4.390963131852156,-0.09000163565733033
0,-3.622098611234358,0.34456626987807093,-2.8334734555246106,-6.73246525505564,-0.08500154478748101
0,-6.081085150898238,1.7939718612974889,-2.1139771922228014,-2.0639710284524386,-0.08000145391762814
0,7.53992413939158,5.0033673366428015,5.915510042402824,0.3845195755862232,-0.07500136304777527
0,-16.339070728708453,-15.927247281610645,-15.76501172123153,-13.436993414972374,-0.07000127217792596
0,-6.088069743212252,-6.67787197078758,-4.365542452446478,-1.6485099717463807,-0.06500118130807309
0,-3.167072891516035,-18.838506707486363,-6.046082119974873,-2.840030065802598,-0.06000109043822022
0,-4.5060801603370635,4.100848532729794,0.29336930810327155,-2.581553667737808,-0.0550009995683709
0,-9.645091535860594,-12.939806224775726,-5.907188135840103,-4.613080747832264,-0.05000090869851803
0,5.945892996205375,-18.32047095386321,0.3522455808717657,1.0653887239133495,-0.04500081782866516
0,-1.4431265495017411,14.028854372455298,7.631670491106032,-0.396145222276602,-0.040000726958815847
0,14.387849841648254,-2.1718302182013978,13.641086627590166,10.062317443859577,-0.03500063608896298
0,-9.52117781604038,-21.95252469801534,-9.849505977472006,-8.179223247594713,-0.03000054521911011
0,-9.460209508500421,-11.143229038717005,-14.770107292233117,-5.870767266685817,-0.025000454349260792
0,4.720754778543087,11.736056788932485,2.9992827154767374,8.3676854166882,-0.020000363479407923
0,-6.348284940221298,-7.864667185111128,-5.741335921514304,-1.0138651672160197,-0.015000272609555054
0,-1.847328649823266,-8.125400930674697,-7.551963169882183,4.254581011744198,-0.010000181739705738
0,-5.276376335040934,-3.166144417298708,-7.042598995849469,-10.146976016461373,-0.005000090869852869
0,-7.255427980286341,-0.04689761402929671,-6.533243365030034,-9.138536221742017,0.0
0,7.835516430433853,18.30233951033849,4.60610375756943,19.16990042637214,0.005000090869849316
0,1.4364569133180263,-6.788433013266479,-2.1145575927009506,5.008333958408736,0.010000181739702185
0,-3.0426065155291804,-10.029215154337088,-3.855227380382339,-10.813235595576717,0.015000272609555054
0,-1.3616738401198527,13.66999311759734,5.6840944300482175,-3.834808205836109,0.02000036347940437
0,13.199254955515153,15.189191833002301,13.743407874055848,12.723616157550756,0.02500045434925724
0,-14.159820112775188,-18.34161897812866,-18.19728701321909,-18.297962475321384,0.03000054521911011
0,0.2811009707707912,-6.83243928614041,0.362009803187767,-0.6595440742136987,0.035000636088959425
0,2.7720182220950957,-4.363269060968026,-2.16870164145946,-3.3211286084692073,0.040000726958812294
0,26.772931657163497,40.485891727916986,30.830578688314766,30.187283952858515,0.04500081782866516
0,6.213841291229926,4.055043110469878,8.979850827361652,7.485693640183648,0.05000090869851448
0,-1.5452528616405452,-2.9558148847658154,-6.070885190724847,-9.075899517224157,0.05500099956836735
0,-2.8743507882238593,-2.116682230269193,0.04837066673113233,-0.3374954908606209,0.06000109043822022
0,8.296547524465849,6.1724411012573,14.167618432133398,7.160905747708529,0.06500118130806953
0,6.11744208927986,0.5015551370825349,5.946858137595932,8.799304226877569,0.0700012721779224
0,15.408332918603074,11.790659904235408,15.966089814508985,19.64769997450849,0.07500136304777527
0,-7.980779975914352,-11.780244570626325,-7.904686506640462,-3.7639069824857807,0.08000145391762459
0,8.5601034167579,6.63884173892108,6.5945292039726855,9.2044833818676,0.08500154478747746
0,5.5309831072867395,15.157918859187491,5.393736975843766,14.982871092831646,0.09000163565733033
0,4.771859105963428,-2.4330131838989137,-2.45706316179384,-1.328743825051678,0.09500172652717964
0,-4.607268577370961,-10.603954364929784,-7.2678711799121585,-4.510361347929082,0.10000181739703251
0,3.993600066851535,22.10509534130619,5.211312950580302,4.738018547761296,0.10500190826688538
0,5.434465048086775,2.8541359598189224,5.890489258904726,8.526395885520053,0.1100019991367347
0,1.905326375584024,-3.0668324849668975,-2.1403422258465135,0.2547706885832912,0.11500209000658757
0,-15.00381594163007,-13.207809969049496,-7.48118147478121,-6.336857020179702,0.12000218087644043
0,-4.312961894363616,-10.648796468132701,-3.9420284588979615,1.0215127820023038,0.12500227174628975
0,10.947888527082148,16.52020804277819,14.047116851104647,14.079880117963857,0.13000236261614262
0,-8.891264667294964,-10.180796410933185,-9.293745515418275,-4.621754989660195,0.1350024534859955
0,-0.20042146748315892,5.9681901960647465,-2.5346155292414054,-3.783392518599983,0.1400025443558448
0,5.360418136586231,11.0371678889254,9.894506838883448,2.4449675533113737,0.14500263522569767
0,2.621254154992594,-0.6138633075335507,2.223621618183371,-0.7266747516491529,0.15000272609555054
0,8.502086597562746,5.21509663100232,7.362728837543367,1.8316805888326013,0.15500281696539986
0,16.752915473589375,15.044047728346097,15.99182852526501,10.42003359695308,0.16000290783525273
0,17.643740791442987,28.412990007528784,23.280920708735366,20.388384294466583,0.1650029987051056
0,-11.935437441698042,-26.688076509620867,-15.789994585906319,-16.443267297689665,0.1700030895749549
0,0.7653807805264397,10.610848197875283,7.909082666530944,1.8350788408010454,0.17500318044480778
0,6.59619546432214,-1.17023584906463,7.5481524909119955,5.333422730218912,0.18000327131466065
0,7.917006615841176,7.598671370549193,4.907214911841912,2.0317643909112646,0.18500336218450997
0,-2.90218575912634,-10.272430122469196,-6.793730046524587,-2.6798961569471706,0.19000345305436284
0,-3.861381655150647,-9.513540307311311,-6.934682360236331,-6.091558893294496,0.1950035439242157
0,-1.9205810668232377,-2.734659162722991,1.744357994898809,3.176776202075974,0.20000363479406502
0,1.8502160114635755,0.9742133331619791,1.173391043412217,2.695109149552755,0.2050037256639179
0,2.7810095854372086,4.803077202550907,2.592416809937446,6.813439969465526,0.21000381653377076
0,3.8417996607366716,2.831932467605885,5.821435318966352,4.751768681810906,0.21500390740362008
0,-11.367413757158207,-14.359220849675113,-10.21955340522266,-10.969904693797757,0.22000399827347294
0,-5.756630662675216,-2.5303827271552697,-5.170549338353737,-2.761580137818836,0.22500408914332581
0,-4.745851049768091,-2.771553142193117,-3.511552455787997,-1.8932576303883737,0.23000418001317513
0,-3.715074911789041,-2.492732071639496,-9.41256273234143,-7.754937151210094,0.235004270883028
0,-7.254302241572431,-15.56391949193958,-16.453580142184233,-10.066618679534432,0.24000436175288087
0,-7.993533031441284,-3.9351153789616244,-5.614604658590906,-6.62830219397999,0.24500445262273018
0,-6.262767273101514,-9.426319707774553,-2.915636253829869,-3.639987672413865,0.25000454349258305
0,4.497995042357554,4.832467547290811,2.8533251005471874,-3.0516750920612843,0.2550046343624359
0,-4.391246075768526,-3.1487535876599706,-7.927720566689262,1.416635570273693,0.2600047252322888
0,4.1895093819337355,13.560016913549758,3.5812267734035013,0.764944337988537,0.2650048161021381
0,-3.009738575116508,-9.59122092312044,-0.599832850077548,-3.8567487654698906,0.270004906971991
0,0.5210100624962912,3.1875329280551528,4.9291005919940645,6.061556283358629,0.27500499784184385
0,5.731755304174742,10.746278492698423,7.148027128564209,10.939859507833456,0.28000508871169316
0,2.522497159195594,-8.724984203742729,-0.913053211777008,-3.1218390690652944,0.28500517958154603
0,3.393235636549335,5.083744863949408,0.8558595992000706,5.51646057516084,0.2900052704513989
0,8.363970744858225,14.9424657208153,13.364765589452155,12.424758462611353,0.2950053613212482
0,2.324702492306527,12.12117839141913,8.073664786508786,6.763054614849672,0.3000054521911011
0,-2.444569113366888,0.21988289941204453,2.6025572171835814,-0.06865094729394472,0.30500554306095395
0,-6.153844064635414,-8.0414207323488,-3.678557092376427,-9.230358203514987,0.31000563393080327
0,-4.1731223538154385,3.9072675187716133,0.9703218836864345,-0.35206713351944263,0.31500572480065614
0,-4.882403972821679,-11.984052324399357,-7.3608058287271545,-6.693777716666508,0.320005815670509
0,-4.001688913108561,-0.44538023868794396,-3.001940203480678,-2.3454899319000253,0.3250059065403583
0,-3.1309771656965055,-6.516716200478414,-2.1730812140836484,-1.197203757790196,0.3300059974102112
0,-1.8102687212281976,-3.238060185692153,-2.484228833694531,-5.388919172594276,0.33500608828006406
0,5.930436429903195,14.190587830063613,3.184616964766618,8.189363845653363,0.3400061791499134
0,-5.098861702642104,6.449227871076619,-7.9565437914874435,-12.912354680962133,0.34500627001976625
0,0.3318368907646996,-2.882140038904776,-9.287711075036228,4.70592526976945,0.3500063608896191
0,-4.787467780173525,-5.3935158765906275,-4.828884857975487,-0.6457962797472367,0.35500645175946843
0,4.8332242944090495,3.4451003812812004,6.5399348881904675,0.9724806929949872,0.3600065426293213
0,2.9139131244407963,3.6937087580943953,3.7087481922264693,5.0607562104363515,0.36500663349917417
0,2.5745987197012985,5.592309277131731,5.517555082708704,6.20903029480762,0.3700067243690235
0,8.205281089662702,4.570901961325933,8.666355587760892,8.057302967934627,0.37500681523887636
0,11.015960243335583,11.469486833113413,10.785149734898354,10.475574251027473,0.3800069061087292
0,6.646636189041828,11.52806391425548,4.143937550875041,5.923844164528511,0.38500699697857854
0,4.487308934296221,9.656633225609548,5.052719061674613,11.182112728051145,0.3900070878484314
0,10.117978485881489,5.095194787038593,4.401494292664111,11.080379960348512,0.3950071787182843
0,7.448644849896056,15.223748617485615,7.880263268704273,10.838645879221321,0.4000072695881336
0,-3.630691968240496,-1.827705264957601,-0.33097398584310667,2.066910501480794,0.40500736045798647
0,0.3799680364317214,1.8308331570952658,3.0077825529477167,-1.574826156836645,0.41000745132783933
0,1.5606248687435826,7.7993639006033675,10.296532908659941,6.403435919898173,0.41500754219768865
0,1.511278533507919,4.937886982190874,8.825277104422492,6.2616967470613805,0.4200076330675415
0,4.021929035432011,7.716402417996344,-2.2259848372844004,2.2099563396549375,0.4250077239373944
0,5.852576378994245,4.574910223561111,5.152747105450906,4.3382147122256685,0.4300078148072437
0,-0.006779431662935154,3.3934104138448413,1.5014729542091203,2.016471878930224,0.4350079056770966
0,-0.3561383927155859,-1.8080969966494784,-3.369807269632828,1.5347278536164386,0.44000799654694944
0,0.834499499497197,3.3003880063226756,6.268906455179115,6.262982649863711,0.44500808741679876
0,1.9951342485813424,7.318865436836498,4.817614149772154,6.501236280927975,0.45000817828665163
0,5.615765858037949,3.5873353086698856,6.986315834957582,10.249488759565907,0.4550082691565045
0,6.436394331101582,7.145797635133199,7.715011531021453,12.047740097811893,0.4600083600263538
0,7.927019670542677,12.774252428955624,9.133701257595662,13.965990306751001,0.4650084508962067
0,12.727641878477339,11.692699702091128,11.772385033536711,12.004239396326074,0.47000854176605955
0,8.678260956178143,8.351139465495645,5.801062876815052,11.772487375249701,0.47500863263590887
0,11.298876903940654,19.909571729018786,16.089734804462495,11.280734251027454,0.48000872350576174
0,5.289489721077695,8.53799650130577,5.048400832534083,7.51898003003681,0.4850088143756146
0,10.230099406009428,10.796413789726351,10.267060976098744,8.167224717650688,0.4900089052454639
0,10.12070595632425,8.304823600489255,10.775715249298216,14.215468318335374,0.4950089961153168
0,4.401309368765859,8.283225938827004,2.8843636653983307,1.0937108356544747,0.5000090869851697
0,4.641909639291501,4.501620809124742,2.9730062369022017,-0.8180477276143777,0.505009177855019
0,7.502506763230287,9.430008215030023,9.021642975755332,6.750192630849777,0.5100092687248718
0,15.953100735292987,16.218388159445343,20.330273893315304,11.368431913050843,0.5150093595947247
0,14.41369154930033,10.936760644307096,16.078898999927215,8.486670120430883,0.520009450464574
0,14.55427919783976,8.145125670386255,12.147518304490218,5.274907253618625,0.5250095413344269
0,13.944863672098498,7.45348323735826,11.306131814401464,8.803143312432692,0.5300096322042798
0,18.605444961831452,17.77183334394617,20.614739535698206,10.571378295944402,0.5350097230741291
0,1.9960230553765046,5.080175987872162,2.013341473096692,0.46961220246313357,0.540009813943982
0,2.7565979398982865,12.518511165778252,5.911937630125879,0.07784502965367494,0.5450099048138348
0,11.61716960181283,11.286838873269065,12.64052800944937,3.146076774831509,0.5500099956836841
0,9.227738026934409,11.285159104916522,12.139112612958556,4.184307435131425,0.555010086553537
0,19.478303200230425,15.383471854175962,21.4276914415008,10.962537007400101,0.5600101774233899
0,22.84886510541803,30.24177711318071,26.91626449445052,16.61076548788593,0.5650102682932392
0,21.629423724519306,18.930074872306864,19.3948317692533,11.318992871842495,0.5700103591630921
0,22.88997903752505,17.378365119815776,14.403393261215813,8.587219153296216,0.5750104500329449
0,24.220531022256083,20.55664784189882,25.061948963646977,17.0054443250762,0.5800105409027942
0,20.031079654319555,19.00492302285111,22.250498867947616,18.41366837879478,0.5850106317726471
0,13.721624907177485,14.303190645128584,13.919042963507675,4.491891304689448,0.5900107226425
0,22.61216675235892,20.151450689415498,22.707581237729087,18.630113091635828,0.5950108135123493
0,18.15270515959561,18.239703134683904,21.146113676129186,18.79833372722514,0.6000109043822022
0,9.703240096835737,11.267947958192938,2.4746402623913832,4.416553197662356,0.605010995252055
0,4.823771530464674,3.9561851356591777,4.663160978700307,2.9947714878586305,0.6100110861219044
0,-6.085700574146829,-2.6455853582594906,-0.578324193613086,-2.9470114180624365,0.6150111769917572
0,-2.0751762519901886,1.7626364506185392,2.670184726420668,-5.078795536205809,0.6200112678616101
0,-6.06465553792351,-2.6891494636199935,2.0086877195862667,-3.4905808825237186,0.6250113587314594
0,-9.02413846640782,-8.080943126797653,-7.172815233448679,-13.372367472562988,0.6300114496013123
0,-7.263625071330823,-9.12274456441332,-7.774324151929425,-8.554155321223465,0.6350115404711651
0,-11.553115385843144,-19.084553801277586,-11.725839054643687,-12.40594444251684,0.6400116313410145
0,-17.20260944218757,-12.586370861113203,-14.947359959556193,-16.687734849391614,0.6450117222108673
0,-18.28210727142232,-17.39819576626208,-17.6988868834986,-16.06952655354941,0.6500118130807202
0,-22.161608903071976,-25.190028537508944,-19.910419841871423,-19.141319565219945,0.6550119039505731
0,-15.32111436487083,-17.311869193861536,-16.511958848407932,-14.093113893012315,0.6600119948204224
0,-21.030623682692642,-22.253717752350013,-18.373503915078096,-11.924909543927477,0.6650120856902753
0,-7.710136880641427,-8.985574228056178,-6.355055052169967,0.30329347640075965,0.6700121765601281
0,-6.939653981314881,-11.907438634382725,-4.126612268597252,-1.5985048367636239,0.6750122674299774
0,-5.079175006223932,-8.459310983415229,-0.4481755723903258,2.409695512232644,0.6800123582998303
0,-1.8586999761748244,0.8488087137507963,-4.089744971126393,2.3878945190931984,0.6850124491696832
0,-0.2982289115256106,1.20692044664548,-3.0213204721091125,3.076092179394021,0.6900125400395325
0,-4.817761832363784,-2.6049757949670744,-6.032902082346412,-10.195711511438054,0.6950126309093854
0,-4.3872987585456436,-2.8768800212550434,-5.454489808453403,-6.307516557874614,0.7000127217792382
0,1.1531602903667693,2.7212077577274525,-5.456083656560311,2.1206770360363136,0.7050128126490876
0,0.12361529506184721,-9.82071246791898,-1.3176836322919088,2.7988692666381705,0.7100129035189404
0,11.064066236252124,1.8573592921205844,7.800710259080487,9.257060130287877,0.7150129943887933
0,-5.265486905593655,-3.524576971552667,-5.250901987658244,-0.7147503769939991,0.7200130852586426
0,-2.9650441502742177,-6.966521268054564,-1.5425203778055692,-3.4765622595676926,0.7250131761284955
0,-3.364605517573669,-8.868473606134028,-3.6941449165890683,0.2916244780730419,0.7300132669983483
0,-4.494171026997732,-3.5804339939731564,-2.3257756089954573,0.22980983151429427,0.7350133578681977
0,-9.533740697657363,-4.872402439122203,-8.747412459697093,-8.822006203531735,0.7400134487380505
0,-13.96331454808207,-10.44437894855993,-11.529055472898802,-5.383823631099257,0.7450135396079034
0,-12.372892595908084,-12.396363528616186,-14.800704652035902,-8.44564245472534,0.7500136304777527
0,-9.30247485764372,-4.938356184766849,-9.952359999474355,-3.0774626773124214,0.7550137213476056
0,-6.072061348684135,0.4596430783664509,-7.944021516414743,1.220715698797924,0.7600138122174585
0,-7.201652083506477,-6.0223657432665565,-4.245689203044169,-0.3211073284128448,0.7650139030873078
0,-2.6612470758726237,-8.80438265333695,-2.5573630588081224,-0.632931760869776,0.7700139939571606
0,-2.9708463389940363,-5.176407655031031,-1.5390430826713104,-2.9247576004638898,0.7750140848270135
0,-2.9704498856821924,4.381559249029737,-7.460729273270368,0.5434151510049771,0.7800141756968628
0,-7.690057728412267,-3.7304819434199232,-12.502421628839778,-4.328413508125526,0.7850142665667157
0,-9.899669879214612,-13.17253123445462,-8.964120146929405,-8.500243579305227,0.7900143574365686
0,-10.57928634944318,-1.9045886257555185,-9.425824824165685,-7.80207506356705,0.7950144483064179
0,1.0110928503669239,0.8633458815826882,0.6424643437279065,2.656092038642642,0.8000145391762707
0,-1.4585322896611037,-5.298727713110448,-4.399252638322251,-1.5057422726595313,0.8050146300461236
0,-1.2481617790796247,-1.3108094102732153,0.8190242349730316,-2.6975779972593927,0.8100147209159729
0,2.832204372664837,5.097100789841041,0.40729496908294216,3.920584865137,0.8150148117858258
0,7.322566156087406,4.345002887000072,4.935559569510016,7.37874631480213,0.8200149026556787
0,3.3629235614400805,-3.7471031192333517,3.7538180416056903,3.196906351741177,0.825014993525528
0,2.8232765785471394,3.540782770498347,-1.1479296095582086,2.075064975520086,0.8300150843953809
0,2.0836251968327204,1.8586605554551965,-3.439683379120751,6.223222185296221,0.8350151752652337
0,2.043969405428234,8.826530234733776,-0.5114432622136614,-1.2086220201162248,0.840015266135083
0,3.684309193227729,5.964391807048019,2.5367907461590917,-0.520467642167318,0.8450153570049359
0,-2.4953554510919154,-4.7977547293933664,-0.6049813489551197,-1.5223146824054357,0.8500154478747888
0,-5.575024538956283,-11.029909376641854,-4.156759542528148,-6.374163142292424,0.8550155387446381
0,-2.404698081651467,-4.832072136474599,-4.88854382943742,-3.3860130230388354,0.860015629614491
0,-8.40437609011193,-0.6242430100638842,-5.970334204253846,-9.687864325440426,0.8650157204843438
0,-8.774058574775214,-9.866421998032354,-9.242130661063191,-6.089717049731963,0.8700158113541931
0,-10.82374554539971,-9.40860910049753,-9.443933193306211,-9.901571195464529,0.875015902224046
0,-5.033437010909868,-1.2408043169351508,1.1142582063122881,3.196573238511516,0.8800159930938989
0,-9.943132979386823,-8.563007646150961,-11.477556454263388,-8.71528374610986,0.8850160839637482
0,-8.392833458117462,-8.375219086356605,-6.009377166527261,-6.747142147220186,0.8900161748336011
0,-2.982538453614697,-2.487438635144332,2.9387960786046894,-3.369001962225214,0.8950162657034539
0,-0.8422479717340594,-1.179666289516637,1.4269632906284717,-2.440863187994616,0.9000163565733033
0,-2.8019620179198697,-9.001902046045526,-6.094875520848675,-6.482725820958773,0.9050164474431561
0,-0.20168059739229793,-0.41414590092659676,3.1232796538227987,-5.504589857144311,0.910016538313009
0,-4.7014037151970856,1.4136021500186855,-1.6385711756036678,0.45354470787027856,0.9150166291828583
0,-9.491131376126958,-14.878657888733409,-5.7104279992743,-12.708322121053666,0.9200167200527112
0,2.579136415434581,0.15907398766798342,-0.912290807169807,0.6098096614082429,0.925016810922564
0,-1.0206003444904184,-6.133202215381221,-1.234159589011695,-7.912059938899894,0.9300169017924134
0,-2.3103416596751636,1.1545135080051496,0.4639656656881306,-2.17393091564335,0.9350169926622662
0,-3.3300875337840163,-10.137778835942386,-4.627915032463301,-9.895803262023025,0.9400170835321191
0,-5.0498379702762985,-7.720079240593254,-2.9298016727097544,-7.957676970681595,0.9450171744019684
0,-5.399592972270872,-4.532387698721626,-6.491694244018865,-3.249552033585843,0.9500172652718213
0,-0.3693525424737994,3.775295797507412,-1.2935927349754057,-2.0614284420660036,0.9550173561416742
0,-1.2691166832334877,-1.9270287437360012,-1.5154971337867673,-2.8533061870118117,0.9600174470115235
0,0.44111460330531627,0.910638685779013,-3.8674074283767093,3.0348147409408015,0.9650175378813763
0,1.4413413150667926,-0.1117019057320261,1.950676393539697,3.7029343512336754,0.9700176287512292
0,-0.5384365500397885,-1.8040505100493074,-0.7312456556096258,1.4910526531804962,0.9750177196210785
0,0.7517810058476984,0.05359288108426985,2.636826436637161,4.369169655840311,0.980017810490935
0,-1.408006019436251,-2.948771723994466,-1.0551073173131509,-2.242714631983703,0.9850179013607843
0,-2.607797628030474,-2.6811443168178917,0.5629530948781192,-0.33460020165005666,0.9900179922306336
0,-6.447593821934311,-3.3835248887150966,-8.90899231443105,-4.78648704451376,0.99501808310049
0,-4.657394602836924,1.2940865692287455,-2.640943532660544,1.5216248482179195,1.0000181739703393
0,2.402800027978825,8.95169006604928,2.9670994531341144,9.349735485440316,1.0050182648401886
0,0.18299006951363206,2.6392856105995737,-0.48486334386188856,-2.382155124101411,1.010018355710045
0,-1.776824479160663,2.8268732113132726,4.773168089529555,-1.0640469719471728,1.0150184465798944
0,-3.346643618945225,-4.445547123740052,-2.918806233650395,-0.7859400497559336,1.0200185374497437
0,-1.1164673506073677,-6.757975386563383,-2.940786300452192,1.9121656508606897,1.0250186283196001
0,0.4437043252748427,-5.340411568885215,-2.2727720978475143,-7.89972986163821,1.0300187191894494
0,-1.686128591744422,5.597144337999876,-2.9247636125854424,1.2183734213471593,1.0350188100592987
0,0.3540338979593013,0.17469234304666426,4.19323916880305,-3.583524491344604,1.0400189009291552
0,4.104191794034572,0.42223245516981556,7.771236259817641,9.444576409291365,1.0450189917990045
0,1.2043450960479558,-1.930235316824696,0.19922767369944405,0.39267613217674757,1.0500190826688538
0,2.6244938033726926,-4.652710964109303,-0.1727865766824065,3.370774685937821,1.0550191735387102
0,-8.68536208477533,-11.925194477611367,-10.274806478614078,-10.351127921040474,1.0600192644085595
0,0.3047774308791973,-3.3076858477333464,-3.606832019155397,-4.943031680281367,1.0650193552784089
0,5.414912349817497,1.5098149357543411,8.871136815045935,1.8950634170944802,1.0700194461482653
0,-0.7349573284226183,2.7673078834672316,6.359100037470492,0.683157380328067,1.0750195370181146
0,-1.8948316044257931,-12.925206993869883,4.577057661242472,-3.8587497812183598,1.080019627887964
0,1.735289521151592,-4.147729685309839,-0.5549903010483791,3.439341941849168,1.0850197187578203
0,-4.1145939523095,-4.080260179384101,-5.497043837141392,-4.7925674410169625,1.0900198096276696
0,-7.164482025297214,0.047201535924317195,-10.15910293471009,-6.934477920241226,1.095019900497519
0,-11.514374697935764,-18.065344526929994,-13.161167580914018,-9.386389485907527,1.1000199913673754
0,-0.9242719697115672,-4.177898354904107,-3.373237762063336,-1.9883021275096053,1.1050200822372247
0,-6.434173839429633,-5.640459934135544,-3.5553134636028023,-6.610215833912066,1.110020173107074
0,-9.694080305321213,-14.783029249942144,-10.487394670321162,-16.33213059337539,1.1150202639769304
0,-14.413991364966213,-13.265606286783221,-12.729481366382126,-8.79404639336181,1.1200203548467798
0,-12.03390701500388,-17.80819102798385,-13.991573535064022,-10.725963220284566,1.125020445716629
0,-17.37382725087273,-20.47078345543184,-15.493671158468102,-12.997881059457145,1.1300205365864855
0,-6.543752066698807,-7.703383549406093,-9.395774217376182,-9.4897998951136,1.1350206274563348
0,-4.653681455404952,-7.1659912886920445,-3.5478826913354657,-5.721719710432264,1.1400207183261841
0,-7.2036154090216264,-5.428606650979276,-6.229996558963138,-7.903640487675681,1.1450208091960405
0,2.9164460810137625,1.9387703867370218,5.647884201693694,3.3944377915846,1.1500209000658899
0,2.40650302359422,-6.183860152128235,1.695759612811215,0.9325151461747323,1.1550209909357392
0,3.3165554276312763,5.513501756062,4.553629696463614,2.4805915949860866,1.1600210818055956
0,4.066603301815841,1.8208561350110273,6.831494474411034,3.058667156762515,1.165021172675445
0,6.816646654500871,-2.7317969916681117,3.589353967983387,5.506741850006059,1.1700212635452942
0,7.176685493585577,6.085542399503962,7.907208198004282,9.394815692849402,1.1750213544151507
0,12.366719826350838,10.122874331818686,8.44505718472814,11.882888702833537,1.180021445285
0,11.61674965925291,4.970198828123832,13.332900947704736,11.34096089664492,1.1850215361548493
0,4.266774997770932,-2.5924840893393797,8.330739505585525,5.839032289961972,1.1900216270247057
0,5.416795846478251,9.65482560120952,7.308572876033775,4.907102897530299,1.195021717894555
0,7.0368122092590895,3.832127921204518,4.146401075829113,3.365172733393667,1.2000218087644043
0,13.496824089371861,9.629422891607915,10.274224121036626,2.1532418111103677,1.2050218996342608
0,6.056831489294466,6.946710532745866,6.182042027053395,6.311310143869624,1.21002199050411
0,4.296834410633761,-1.0860091357218513,4.029854808580659,0.6193777445129909,1.2150220813739594
0,1.8868328542877109,6.681263905338709,-3.562337520258065,2.117444625550415,1.2200221722438158
0,4.9568268206915596,2.598529674694844,7.315465054342663,5.545510799217047,1.2250222631136651
0,9.796816309889763,9.755788190731284,12.133262545930602,8.76357627742903,1.2300223539835144
0,7.69680132138801,6.543039471304333,10.281054967490448,9.521641071572903,1.2350224448533709
0,10.046781853953576,14.660283533561373,6.788842331115525,4.179705192310027,1.2400225357232202
0,14.51675790547067,16.22752039370158,13.60662464793544,16.277768649505838,1.2450226265930695
0,6.706729472814952,3.5047500667533606,7.594401928129974,5.9458314521553755,1.250022717462926
0,4.2966965518510385,2.3619725666558047,3.7121741809464326,6.933893608312032,1.2550228083327752
0,-0.05334086232058716,-1.4208120933133639,-0.16005858510740567,-1.1180448747716163,1.2600228992026246
0,6.276617224955097,12.006396099814701,9.097703638021375,6.350016009648214,1.265022990072481
0,3.7165708080139064,5.623597158655227,8.07546085798417,7.088076267953442,1.2700230809423303
0,9.296519880790639,4.790791095239005,10.663213081819789,8.826135906052643,1.2750231718121796
0,11.28646443663667,6.977977920948518,9.500960315733954,15.094194929140743,1.280023262682036
0,11.206404468091836,8.065157646562158,7.038702565016616,12.522253341435297,1.2850233535518854
0,3.0363399667435362,6.6723302822154995,1.1264398341235535,0.5403111460360838,1.2900234444217347
0,2.4262709233493465,14.589495837299092,5.814172126894325,3.8083683451278905,1.295023535291591
0,7.806197328107987,12.446654320289797,8.001899446707775,6.336424940347441,1.3000236261614404
0,0.2661191707954482,-4.266194261357169,-3.440378203513844,-1.0855190670445651,1.3050237170312897
0,-1.1639635591741686,1.0109500990606204,5.427339178761745,2.1225363238984563,1.3100238079011461
0,5.475949127393423,6.508087407945204,4.17505159580461,3.6705911139113523,1.3150238987709955
0,4.425857219520929,7.2152176714874,11.642759049549095,3.8286453035264807,1.3200239896408448
0,2.4957607059345754,6.572340895425963,2.670461541366016,0.02669889300358319,1.3250240805107012
0,-1.4743404249788796,9.339457084854478,2.038159071988752,-0.7552481176354899,1.3300241713805505
0,-9.474446184971764,-8.18343375576643,-6.074148358268477,-6.557195728427574,1.3350242622503998
0,-8.554556585547191,-7.926331622273796,-11.526460749083716,-10.61914393918128,1.3400243531202563
0,-6.084671637596,-12.209236510205713,-3.2687780996784195,-9.00109274913412,1.3450244439901056
0,-3.1747913512897585,-3.252148414351347,-5.931100408601795,0.9769578432418311,1.3500245348599549
0,-5.7749157361988726,-2.4250673287169233,-5.913427673785515,-5.524992159888403,1.3550246257298113
0,1.134955198555876,3.8920067531909934,0.6442401073452588,2.1730572440097946,1.3600247165996606
0,0.6548214441476875,-2.160926161973679,0.4819029377270845,-0.7888939423443424,1.36502480746951
0,-2.6653170081315993,1.4461339324235434,-0.4504391795558883,3.8591542838133552,1.3700248983393664
0,0.034539833058048156,-2.9868129570010034,-0.23278624140441329,0.5472019251595067,1.3750249892092157
0,-5.545608040835745,-10.369766823519035,-11.095138244645238,-5.704751015743221,1.380025080079065
0,-2.19576063815727,-7.092727660019515,-8.497495185766626,-0.45670453629933533,1.3850251709489214
0,-1.0759179669729928,3.724304541201434,0.2401429393623129,-4.478658633703529,1.3900252618187707
0,-0.5260800351048498,-0.7686702117085855,5.097776135417596,3.279386695090971,1.39502535268862
0,8.62375314971201,7.558348089470552,10.105404407155296,7.0174314532176485,1.4000254435584765
0,7.9735815795428735,10.675359452690504,6.4330277589058875,6.545475643591545,1.4050255344283258
0,12.063405245889491,9.402363885305634,14.360646194261038,10.493519268595284,1.410025625298175
0,5.563224139428055,4.919361393842049,7.968259715902045,7.371562329881168,1.4150257161680315
0,1.2330382500044832,4.88635198402689,-1.1341316744196674,5.399604828303774,1.4200258070378808
0,-3.5871524330891984,-1.7966643389944252,-1.9565279755930958,-1.542353235969269,1.4250258979077302
0,-3.0873479207086856,1.3003124296038262,1.43107081329164,1.4756881368177586,1.4300259887775866
0,-0.36754822356499145,2.827282294515184,1.3386646931519992,3.1737289462451774,1.435026079647436
0,-8.157753352118075,-12.175754739595051,-9.153746335069153,-12.738230808155455,1.4400261705172852
0,-4.847963316489254,2.9212013320931867,1.7438377297115157,-4.5201911266576476,1.4450262613871416
0,3.1418218736250196,3.158150514677494,8.541416888775922,9.177847990898645,1.450026352256991
0,-3.0283977911520092,1.5950928133415507,-0.19100885664980055,3.015886544887426,1.4550264431268403
0,5.221377679897877,4.102028233092791,9.546560494308302,10.483924535397788,1.4600265339966967
0,-7.048851722527759,-1.2910432213063627,-5.105875057888898,1.1119619619506873,1.465026624866546
0,-3.0290860076771824,4.355878454703545,4.521684486920255,0.9699988235216945,1.4700267157363953
0,-6.129325184539053,1.0027932655073473,-1.2707608712498097,-6.37196488121248,1.4750268066062517
0,-7.099569261658747,0.27970121531111314,-2.7932111324356312,-4.503929153519122,1.480026897476101
0,-6.969818247026008,-2.3033976918067314,-5.815666296602947,-1.335893994345265,1.4850269883459504
0,-8.55007214798166,-5.61650345173867,-8.43812636341904,-5.817859404256225,1.4900270792158068
0,-9.900330971133018,-7.249616060124962,-7.140591332014043,-1.329825383470162,1.495027170085656
0,-11.760594722249838,-16.102735512071852,-12.693061200800056,-8.731791931847406,1.5000272609555054
0,-7.100863406159659,-6.815861801836193,-7.125535967334955,-3.613759048815129,1.5050273518253618
0,-5.771137026759332,-5.768994922674911,-3.2780156282942303,-1.1557267333186572,1.5100274426952112
0,-1.6814155871887975,0.5878651329772786,-2.6805001796443517,-4.267694983896623,1.5150275335650605
0,-7.891699090043733,-10.985281626787007,-10.31298961685319,-8.119663798750743,1.520027624434917
0,-3.101987537463467,-5.658435193412705,-3.3354839348960255,-1.681633175668732,1.5250277153047662
0,-7.472280931102207,-0.14159555778399524,-10.8879831281387,-7.40360311194474,1.5300278061746155
0,-9.062579272060928,-8.964762710256416,-13.850487190208261,-11.335573604338641,1.535027897044472
0,-18.252882560712454,-17.22793664065245,-12.532996113776424,-7.757544648926062,1.5400279879143213
0,-10.673190796388166,-12.551117337933242,-11.625509890347535,-9.059516240933895,1.5450280787841706
0,-8.953503977172263,-10.134304789844125,-11.848028510209309,-8.371488374713053,1.550028169654027
0,-10.133822099979351,-11.737498982879549,-4.170551962521342,-10.653461043756725,1.5550282605238763
0,-11.834145160707394,-8.720699902414395,-8.233080235499354,-12.135434240651348,1.5600283513937256
0,-17.674473154205067,-20.223907532736003,-9.41561331658959,-16.117407956941335,1.565028442263582
0,-11.314806074088551,-13.197121856892801,-9.798151192474908,-12.759382182947453,1.5700285331334314
0,-7.525143912656822,-15.290342856496238,-8.230693848979637,-7.611356907683975,1.5750286240032807
0,-12.73548666103246,-16.99357051165416,-10.103241271028828,-11.123332118979958,1.5800287148731371
0,-1.8758343093583982,-1.0368048010513258,0.18420655729398083,1.6246921962836405,1.5850288057429864
0,1.3538131529772754,12.239954297651728,4.0116496525054695,6.372716051816791,1.5900288966128358
0,4.643455736949523,1.806706807030178,4.039088031289462,0.570739461428601,1.5950289874826922
0,10.643093453429339,12.28345274922202,10.386521710078677,8.348762438658792,1.6000290783525415
0,9.582726312778979,8.480192145656728,5.443950704773386,9.506784996600254,1.6050291692223908
0,12.072354324543772,14.436925016902185,12.241375030564585,7.294807147711872,1.6100292600922472
0,24.74197749718689,18.543651382441883,25.95879470171073,21.922828903587693,1.6150293509620965
0,20.181595837707075,23.50037126035599,24.43620973104637,15.620850274643745,1.6200294418319459
0,26.48120935119406,23.747084666927286,25.0836201293788,19.90887126975824,1.6250295327018023
0,25.290818040525675,16.72379161636049,23.571025905161644,14.996891896084461,1.6300296235716516
0,34.070421906146976,27.8004921207312,28.648427064430738,23.91491215902351,1.635029714441508
0,28.00002094581109,25.397186189951103,24.525823610754294,18.57293206215351,1.6400298053113573
0,23.24961515442647,19.483873831627417,24.733215545179508,19.9709516071187,1.6450298961812067
0,20.46920452420389,15.480555051092121,19.50060286629546,15.648970793629395,1.650029987051063
0,15.058789045025689,12.707229851723373,16.61798557044004,10.86698961962144,1.6550300779209124
0,13.448368704841085,13.77389823531146,15.10536365199054,9.785008081535432,1.6600301687907617
0,16.477943489981506,11.080560202283987,12.592737103647229,16.7030261745722,1.6650302596606181
0,8.73751338534118,3.8972157518681616,9.990105916667716,6.301043892770319,1.6700303505304674
0,9.93707837452013,8.723864882325653,9.627470081078691,6.759061229058942,1.6750304414003168
0,7.546638440028056,14.040507591124104,2.9248295858910356,4.067078175481544,1.6800305322701732
0,-3.4238064364643934,-2.6028561250759266,-4.037815580602628,1.2250947234730685,1.6850306231400225
0,-11.344256273704945,-7.446226270254218,-9.670465430354595,-9.986889135852264,1.6900307140098718
0,-3.3247110902641257,-8.079602848459967,-6.493119975024462,-3.698873411299264,1.6950308048797282
0,-10.055170904118167,-10.192985863233686,-5.5457792256461875,-11.360858111203346,1.7000308957495776
0,-12.725635732502846,-13.28637531729443,-15.998443192524,-16.34284324315293,1.7050309866194269
0,-10.786105591760673,-7.459771212377854,-7.92111188510472,-9.604828813714153,1.7100310774892833
0,-16.746580497139863,-15.693173549159686,-13.81378531179921,-12.196814828248787,1.7150311683591326
0,-14.67706046262617,-12.016582327202213,-13.896463479884595,-15.428801290909558,1.720031259228982
0,-12.707545500818698,-13.459997544857348,-10.349146395441705,-13.340788204613398,1.7250313500988383
0,-8.108035622948062,-4.243419199256838,-6.9418340633648405,-8.642775570980623,1.7300314409686877
0,-9.738530839064788,-4.376847286522668,-8.824526487524968,-4.884763390454115,1.735031531838537
0,-9.00903115823225,-2.0002818021020383,-6.3672236709491985,-1.3767516626148153,1.7400316227083934
0,-3.369536588643256,-1.5237227410389904,-2.3699256159407445,-3.5487403865184706,1.7450317135782427
0,-6.73004713775235,-9.297170098078448,-8.492632324203667,-7.20072956086872,1.750031804448092
0,-5.940562812411767,-1.8306238675966813,-12.085343796866269,-0.6527191839968122,1.7550318953179485
0,-9.911083618886341,-10.614084043471902,-11.978060034282933,-4.164709253835079,1.7600319861877978
0,-4.521609562770627,-6.59755061898116,-5.090781035822649,-3.006699767975249,1.765032077057647
0,-2.742140648984415,-4.0010235867275235,-4.383506799920195,-8.108690723674748,1.7700321679275035
0,-7.712676881891444,-12.424502938630383,-12.366237324277083,-6.530682117738283,1.7750322587973528
0,-3.763218265373737,-4.2779886659090405,-6.838972605895023,-1.2926739464091113,1.7800323496672021
0,-1.3537648028375553,-3.621480759065229,-2.5917126410039395,1.8653337945440795,1.7850324405370586
0,-2.724316497297645,-3.844979208005752,-2.3144574251789036,-2.0466588904248075,1.7900325314069079
0,-1.3348733515063187,-10.288484002169158,0.3827930463955538,3.9013480031673335,1.7950326222767572
0,0.15456463197131254,-2.54199513047321,-3.499961221263823,0.6793544797418338,1.8000327131466136
0,-7.756002549263274,-8.575512581230097,-6.712720222956026,-3.0826394563820627,1.805032804016463
0,0.5634251026203743,3.4709636578025718,-2.105483953171139,4.355366199056297,1.8100328948863122
0,-7.007152414230692,-3.142566400760485,-6.54825240598001,-1.7166285497058138,1.8150329857561687
0,3.9122648986447444,2.963897255851519,-5.171025575000841,-0.048623698477260585,1.820033076626018
0,-1.788322960086939,11.620354640348882,-4.123803453369463,-2.7806192430730716,1.8250331674958673
0,-7.728915991644501,-1.8331942348828092,-6.87658603371825,-6.602615179183763,1.8300332583657237
0,-9.329514196989106,-8.236749357840667,-7.109373308152397,-4.454611502198425,1.835033349235573
0,-0.2701175765507697,-1.0703107165487598,2.7478347317624032,2.44339179289654,1.8400334401054224
0,3.879273869763171,-10.243878298667976,-2.1449619051411553,1.981394711383694,1.8450335309752788
0,0.3886601422326237,0.9825479086351607,-1.2677632098557836,-4.61060274141525,1.850033621845128
0,6.438041241010665,4.578967918592641,5.4894308266779674,4.497399439801518,1.8550337127149774
0,0.5774171659829088,-2.99461825543663,4.186620213442193,3.385401260311133,1.8600338035848338
0,-0.9732120832413469,-6.8382106001081056,-3.1061950408206425,0.463402725241273,1.8650338944546831
0,-2.723846507192708,-7.101809101875517,-1.1890149275640791,-0.9585961604909873,1.8700339853245325
0,-5.094486106322282,-13.365413746643434,1.6381605617554063,-2.300595392057815,1.8750340761943889
0,-7.225130880793211,-10.469024519483092,-7.034668564222142,-7.752594964525183,1.8800341670642382
0,-1.0057808303284406,2.747358595475349,-1.0675022966908283,1.4454051273256554,1.8850342579340875
0,-4.696435954193247,-5.426264385181052,-4.020340626569993,-4.126595110951804,1.890034348803944
0,-9.65709625123603,-8.079893444447901,-6.573183544440711,-0.31859567355142443,1.8950344396737933
0,-4.7577617198007855,-0.39352856492665045,-2.1860310404949885,7.2494034454592295,1.9000345305436426
0,-6.618432357602426,-5.617169728764385,-8.568883104474935,-3.2725977480407726,1.905034621413499
0,-8.479108161705327,-4.460816917700033,-11.971739725576684,-3.6445992483023453,1.9100347122833483
0,0.030210871448862364,2.2255298868864566,0.43539910769878243,0.9933989504513225,1.9150348031531976
0,2.2395247459038323,-1.538129296127499,0.782533407494389,4.951396854111131,1.920034894023054
0,0.638833465890767,4.018205552209991,1.839663186250624,1.1593944685130904,1.9250349848929034
0,-0.04186296440555326,2.1845344507688225,5.1667884563654125,3.057391799263336,1.9300350757627527
0,8.457435459071235,6.8208574182013315,11.973909229949045,12.335388851649327,1.935035166632609
0,4.346728740117213,12.0971744727518,10.011025518520977,3.823385630465058,1.9400352575024584
0,2.6860168820947545,10.053485631981877,6.438137332743269,2.4213821398643636,1.9450353483723077
0,3.4652998879149512,3.469790912565972,7.4152446823873035,3.9193783834597538,1.9500354392421642
0,4.004577760124858,4.036090330366059,5.9823475764556076,5.057374364480574,1.9550355301120135
0,4.603850500927472,-1.0676160992928734,4.999446023285977,-2.1046299141793074,1.9600356209818628
0,7.863118112118634,1.9386716386351734,5.406540030623254,7.553365550084169,1.9650357118517192
0,0.19238059501499694,-1.3450464409231926,0.8636296057019,-0.048639240378710896,1.9700358027215685
0,-0.3683620494930655,-0.8687703230726943,-3.3392852445999806,4.379355716501416,1.9750358935914178
0,-5.1491098207013835,1.7575000071007585,-1.692204513506307,1.4073504225094429,1.9800359844612743
0,-0.5998627178160748,-6.74623543543774,-3.9651281941076255,2.375344879176513,1.9850360753311236
0,-6.100620739795244,-10.899976635527288,-6.428056279220904,-0.4066609121790216,1.990036166200973
0,3.218616114681402,-1.7137235775222397,0.7590112386951883,1.8613330496117941,1.9950362570708293
0,0.5778478471207824,3.122523754797558,-0.3739256324925694,1.9893267656091091,2.0000363479406786
0,-3.37292554092858,-3.5112346220333195,-1.8568668847440195,0.12732023675107743,2.005036438810528
0,-2.533704047883412,-1.4649986913918023,-2.139812509926453,1.2853134638496542,2.0100365296803844
0,-0.09448767200835728,-2.898768436538914,-2.232762499769146,-0.17669355237814444,2.0150366205502337
0,-6.7152764113538295,-7.992543840496329,-3.2757168458013988,-5.35870081124032,2.020036711420083
0,2.0739297362664657,-2.816324885911016,-2.3786755393132815,4.439291688032957,2.0250368022899394
0,1.7431307732407064,5.229888444978206,-0.9216385713442736,3.3372839462753388,2.0300368931597887
0,-1.8476732979857993,-2.5239038298642775,0.8653940672635765,1.745275964197792,2.035036984029638
0,-5.3184824749638295,-0.48770169248341444,-4.897577614211503,-2.7467322577115665,2.0400370748994945
0,-5.78929675506659,-7.041505124887483,-7.400553606321641,-6.49874071903054,2.045037165769344
0,7.9298838646535454,8.144685891084652,9.0164661006698,7.3092505808146,2.050037256639193
0,1.0790593872972607,1.0508713736737456,1.4734815166552266,1.4772416425040593,2.0550373475090495
0,1.2982298158145946,8.517051340920082,6.100492651334725,0.5652324665866918,2.060037438378899
0,6.057395152889597,8.56322581041054,10.147499513969684,11.533223053334996,2.065037529248748
0,13.876555400852638,9.499394799079361,8.774502113207344,12.631213402562574,2.0700376201186046
0,2.735710561419944,0.8055583230978822,3.6115004569310747,-0.1607964866677261,2.075037710988454
0,7.654860635532191,4.821716397981154,3.4884945523102875,2.497193383950209,2.0800378018583032
0,2.3740056234543596,10.287869038751252,7.955484405973621,4.0351830122648416,2.0850378927281596
0,0.5331455249598833,0.5140162599229829,1.2124700240797925,-2.8168276041204123,2.090037983598009
0,2.842280339501855,-7.319841924454874,0.1094514123597986,1.5611615322494306,2.0950380744678583
0,1.3314100663323039,0.15629449954507546,3.026428576264275,1.9091504187693344,2.1000381653377147
0,-6.859465295418592,-11.317574453892492,-7.386598478866835,-8.502860947173277,2.105038256207564
0,-7.260345746530673,-2.431448770123014,-11.189629747566173,-5.154872568043655,2.1100383470774133
0,-3.3512312873855947,-0.4553284339857887,-0.8326652238933611,0.8731155540683241,2.1150384379472698
0,0.24787808213906382,0.6807865700503037,1.4442950986736438,-0.6788965825610266,2.120038528817119
0,-3.8330176374756975,0.21689625764324982,-4.8187487730010625,-5.510908979459607,2.1250386196869684
0,-1.783918445528254,3.113000644427787,-1.4417968318916061,-2.2529216379727064,2.130038710556825
0,-6.584824341078864,0.39909974593869646,-8.904849070736887,-1.4249345591693332,2.135038801426674
0,-1.8657353228590814,-0.7948064224172158,-2.377905481883234,-4.816947743834014,2.1400388922965234
0,-4.756651389218919,-6.078717845268572,-5.680966057194769,-5.748961192458444,2.14503898316638
0,-7.377572538107989,-7.262634507051294,-8.604030788032382,-4.830974905140435,2.150039074036229
0,1.2715012329551136,-2.5965563917697754,-4.627099665199623,2.097011118462909,2.1550391649060785
0,2.690569926801065,4.419516517026199,-0.23017267891886228,0.9149968789835963,2.160039255775935
0,-0.9103664536371606,0.9855842359818712,-2.4132498189790277,2.9329823770897803,2.1650393466457842
0,-4.831307905459351,-4.008353218311084,-4.306331074910587,-2.7790323866602034,2.1700394375156336
0,-2.0322544256752266,-6.002295829254674,-4.349416435990737,-0.7410474117778972,2.17503952838549
0,7.356793988892372,15.373756419897205,8.64749410877408,5.21693730223592,2.1800396192553393
0,16.735837341337085,21.4998035456962,21.764400570312763,13.26492175574957,2.1850397101251886
0,12.71487563407757,17.43584556367327,15.711302958744788,12.742905948575165,2.190039800995045
0,6.463908868405616,5.83188248777606,9.548201282769782,4.080889879582627,2.1950398918648943
0,10.002937044477836,9.347914330499197,5.5550955496644585,5.148873546690763,2.2000399827347437
0,4.111960161534419,6.823941103299611,-5.56801423425975,6.266856947114667,2.2050400736046
0,5.990978218079007,-2.3600371831072606,-0.9411280630811663,2.4648400775370027,2.2100401644744494
0,1.1999912120285205,-0.7040205184565673,-1.024245930838994,2.1528229341879346,2.2150402553442987
0,-0.9710008591029254,1.7219911073862546,4.442632168561621,4.470805512944022,2.220040346214155
0,-2.4419979979775874,-5.302002295412178,-1.6304937587885053,1.3387878093879562,2.2250404370840045
0,-3.3230002072084854,-6.136000716550239,-4.053623706865773,-2.4932301811455946,2.2300405279538538
0,-4.304007489195742,-4.4300041453938235,-1.4367576695815156,-10.255248463369778,2.23504061882371
0,-2.3250198460337232,-5.314012570825862,-3.5398956406298003,-4.947267041686653,2.2400407096935595
0,-3.7760372794843433,-4.238025981230523,-10.843037613391347,-15.629285919855565,2.245040800563409
0,-2.5570597909918034,-11.27204436448078,-4.976183580763547,-14.19130510072297,2.2500408914332652
0,-6.918087381675441,-12.966067707785006,-5.809333534996226,-6.583324585996039,2.2550409823031146
0,-5.749120052251264,-7.450095997443167,-2.242487467716689,-11.255344376223874,2.260041073172964
0,-1.3001578029497836,-6.494129218760271,-5.94564537006205,-4.987364470969906,2.2650411640428203
0,-5.811200633540096,-4.518167356199222,-3.6788072327485413,-6.46938486897894,2.2700412549126696
0,-8.972248543365692,-14.052210393529709,-8.65197304604298,-14.591405568252773,2.275041345782519
0,-9.003301531217717,-9.626258313752071,-11.265142799640065,-16.85342656590957,2.2800414366523754
0,-8.28435959514056,-12.650311098892363,-9.21831648246223,-8.97544785788088,2.2850415275222247
0,-11.485422732324109,-12.124368729873423,-13.731494082479223,-9.547469438811538,2.290041618392074
0,-4.19649093907652,-4.998431186510274,-11.024675586595535,-6.229491302248753,2.2950417092619304
0,-6.397564210888873,-8.812498447633065,-10.447860980588919,-0.5715134409146049,2.3000418001317797
0,-6.458642542573556,-10.946570491235782,-7.351050249144704,-0.3635358470004058,2.305041891001629
0,-4.099725928354894,-1.7006472945180897,-3.9242433760116033,-3.0555585124392093,2.3100419818714855
0,-0.1308143619393679,11.205271165938452,0.972559655741394,1.4424185709665476,2.3150420727413348
0,3.5380921632942783,2.151184913648684,4.659358863379215,3.780395411480388,2.320042163611184
0,0.6869936540207209,-9.732906028166978,-0.743845735837362,4.41837201727063,2.3250422544810405
0,-3.9941098831786745,-5.677001636357575,-6.857054124757683,-6.473651603717039,2.33004234535089
0,-4.885218441706135,-0.33110188739700197,-3.370266286135807,-4.625675443613455,2.335042436220739
0,-2.2363320147236285,1.1347932426732603,-2.2734822023896575,-6.22769949429291,2.3400425270905956
0,0.9825494049268986,-4.759316221977269,4.743298144383959,4.730276252792621,2.345042617960445
0,3.941425824580512,1.6865697429277362,2.560074772164,7.35825180641092,2.350042708830294
0,1.8702972515132759,10.852451161705627,2.486847698754563,5.476227175124261,2.3550427997001506
0,0.019163692801221544,2.7683280584400594,0.8036169416991068,0.10420236701480778,2.36004289057
0,-0.9619748446443473,-3.625799543239205,-1.8396174816493445,2.3321773897400493,2.3650429814398493
0,-6.473118353919801,-10.849931619923694,-11.402855553929049,-6.509847749241881,2.3700430723097057
0,0.4057331720571691,-11.394068147872407,-0.36609725746584865,-2.1318730424219856,2.375043163179555
0,-6.2554202593432535,2.371790897386461,-2.079342574107597,0.7161015179361663,2.3800432540494043
0,-2.206578640436434,-2.1723544590173236,-1.6725914853390527,-7.285924060181554,2.3850433449192607
0,-1.5177419632167353,-0.2965041916423483,5.754156027515015,-1.0279497685402963,2.39004343578911
0,5.951089780552756,1.1193417250441042,6.180899983066033,7.400024401336438,2.3950435266589594
0,-3.7700834008660085,-8.23481668335306,-7.422359600336697,1.9079984579439375,2.400043617528816
0,1.6687385007040119,6.731020608910221,-1.2156227045114274,3.9859724095060267,2.405043708398665
0,1.8375554933896532,-4.113146372285557,8.181110688788939,5.893946263869648,2.4100437992685144
0,3.2063675852483344,-0.3273176010098917,7.307840597755307,8.341920028450486,2.415043890138371
0,8.36517478412351,8.59850694865985,4.334567040150189,3.0098937101187366,2.42004398100822
0,7.363977097438168,-0.025672697491852192,2.551290033156232,8.04786731514983,2.4250440718780766
0,6.942774531998881,13.000143485959939,6.838009593466216,7.535840849228294,2.430044162747926
0,4.741567093921889,-2.394044476068373,0.21472573736183986,4.703814317408372,2.435044253617775
0,3.720354788701697,-4.158236559103299,-3.3085615191985718,3.1317877241212813,2.4400443444876316
0,1.249137621347229,-4.192432738773611,1.1081478396272288,2.3397610733033014,2.445044435357481
0,-5.712084403421616,-4.8266329904454945,-0.12514617027074382,-0.8122656314362077,2.4500445262273303
0,-2.6833112808947828,4.039162710876755,1.791556467028459,-4.724292386629569,2.4550446170971867
0,-6.974543006098724,-6.205045609568022,1.968255767387896,-2.276319188726837,2.460044707967036
0,-5.605779573626473,-7.769257926346992,-9.50504825338858,0.9216539660502099,2.4650447988368853
0,-7.637020977533104,-8.163474213630833,-8.128355579330918,-0.7903729183348646,2.4700448897067417
0,-10.268267211234281,-14.047694444895518,-12.401666193907257,-9.2623998377925,2.475044980576591
0,-8.139518267388162,-8.901918592695562,-9.614980079708785,-2.9644267879688813,2.4800450714464404
0,-8.890774137805197,-6.376146628570691,-13.3082972183027,-7.6564537640398,2.485045162316297
0,-2.452034813470742,-7.310378523143831,-8.311617590178775,-0.5284807606523519,2.490045253186146
0,-5.2033002846931575,-3.6746142463022853,-6.834941174786995,2.9994922279489926,2.4950453440559954
0,-6.664570541257735,-7.848853767319596,-7.628267950678221,-7.272534792285018,2.500045434925852
0,-3.945845572459793,-13.163097054846984,-0.43159789568181306,-10.054561815215626,2.505045525795701
0,-8.07712536706413,-14.937344076703438,-5.954930987084681,-7.736588834216146,2.5100456166655505
0,-7.19840991325707,-5.251594799617887,-1.5182672017763128,-8.178615841895624,2.515045707535407
0,-10.679699198552806,-12.675849189200255,-6.991606516292199,-15.630642829996967,2.520045798405256
0,-9.010993209666749,-9.63010721005735,-4.654948906766109,-4.012669789309791,2.5250458892751055
0,-12.152291932406644,-0.4943688258767027,-8.668294348837073,-12.934696709629788,2.530045980144962
0,-4.833595351621529,-1.6586339996312105,-3.7716428175605055,-8.336723579810123,2.5350460710148113
0,3.8950965486616385,5.697097306041721,5.065005712541743,6.521249612124961,2.5400461618846606
0,6.913783784806718,8.002825128448436,6.9116512671596055,7.999222878587339,2.545046252754517
0,9.782466372998496,11.418549504466133,11.44829387170461,5.627196231803642,2.5500463436243663
0,11.671144328795146,13.86427047018864,14.13493355087058,7.255169683418874,2.5550464344942156
0,9.879817666860454,9.719988060666248,7.891570328341729,8.203143244411528,2.560046525364072
0,6.588486400871217,9.13570230982375,6.0482042267360825,6.391116925070602,2.5650466162339214
0,10.777150543573471,12.371413250525876,9.854835267762192,12.02909073494553,2.5700467071037707
0,10.48581010683458,9.637120914622637,6.211463472351631,9.687064682756649,2.575046797973627
0,7.444465101606889,13.73282533291216,8.548088860677368,8.595038776290815,2.5800468888434764
0,4.693115537947409,2.0985265351364513,-2.0852885477868255,-3.016986977541608,2.5850469797133258
0,3.5117614251844715,0.11422455017410149,3.1313312659410535,2.3509874276058715,2.590047070583182
0,-1.2295972278480036,-6.770080593527659,1.5179483205876831,-1.391038002127218,2.5950471614530315
0,-6.990960412531749,-13.174388867415388,-1.6854373652625994,-1.1430632606251474,2.600047252322881
0,-7.172328120103465,-4.348700242356589,-3.0288257730849795,-7.105088341689424,2.6050473431927372
0,-4.203700341335795,1.2369853115250113,0.7977831157197974,-1.1071132388801361,2.6100474340625865
0,-4.495077066432028,-1.4173321753949413,-2.89561068010838,1.360862054556987,2.615047524932436
0,-5.95645828507885,-3.8016526725421675,-4.119007141679143,-8.631162454384043,2.6200476158022923
0,-5.74784398647267,-4.945976149171614,-5.402406249864144,-11.823186758406353,2.6250477066721416
0,-8.95923415926271,-8.000302574203202,-12.795807985109457,-6.265210849598209,2.630047797541991
0,-6.020628791461024,-0.8346319160750627,-7.449212327188911,-10.327234719198668,2.6350478884118473
0,-0.012027870429350607,-10.058964142707952,-7.17261925502722,-0.9092583576203971,2.6400479792816967
0,-4.753431383027344,-11.693299221451056,-7.696028746710956,-11.731281754580726,2.645048070151546
0,-5.754839315762028,-7.567637118886169,-3.809440779594777,-12.253304899113875,2.6500481610214024
0,-9.056251654734677,-11.161977800665804,-4.322855330413107,3.664672220535647,2.6550482518912517
0,-6.127668385462668,-12.526321231471865,-3.2162723754052767,-7.977350383178519,2.660048342761101
0,2.0309105071734415,-10.77066737495245,1.4903081095561612,-5.789372697337468,2.6650484336309574
0,-2.9605149612591304,-5.18501619368632,0.14688614880741313,-3.4013947085837244,2.6700485245008068
0,1.9080552249977942,7.96063235059197,-0.35653823326650935,-4.92341640306344,2.675048615370656
0,9.736621081692375,8.416278296430706,9.170034987650183,9.594562233452288,2.6800487062405125
0,8.995182624271134,6.3319216820357855,7.416605835605173,11.142541215189043,2.685048797110362
0,0.9737398675713451,2.577562544973441,2.6931743341219736,5.900520555855074,2.690048887980211
0,2.4422928258145356,9.863200922202358,3.969740506142278,1.0185002683981383,2.6950489788500676
0,-1.0091584871451633,1.5088368501323006,2.5963043741604808,1.3064803651879633,2.700049069719917
0,0.2093859424020772,-2.285529635311416,-3.5371340396264612,-0.5255391416833762,2.705049160589766
0,-3.2920738718474634,8.790101501487626,-6.9405747131011,3.392441759760458,2.7100492514596226
0,-5.373537916082621,3.1157302958995263,-5.514017623901592,-4.6895769185776786,2.715049342329472
0,-5.375006176207381,-8.148643217006464,-2.8474627491906177,-6.191595164761622,2.7200494331993212
0,-1.4064786377110634,-7.543019002230717,-2.050910065657059,-6.27361296657465,2.7250495240691777
0,0.0220447142984328,1.8526029755671027,2.025640450328366,-2.3056303113134202,2.730049614939027
0,1.0805638949210026,4.388222752110437,2.1321888225104546,4.432352814163079,2.7350497058088763
0,-0.16092108070254796,-6.736159636777426,-0.09126492542407583,2.140336423149612,2.7400497966787327
0,-1.842410197447849,-9.860544155208665,-3.8547207698775456,-1.7116794711683474,2.745049887548582
0,-2.9139034401483155,-2.0949307669146258,-6.828178687177755,-2.403694855721211,2.7500499784184314
0,-1.7754007934911873,5.900680564885952,-3.2016386533366807,-4.27570971737115,2.7550500692882878
0,1.2130977580247144,6.646289877147817,-0.8451006439393411,-1.1077240427532524,2.760050160158137
0,4.951592229987687,4.141897206534149,2.1814353657432495,11.160262181681793,2.7650502510279864
0,5.800082637846877,5.797502589198298,2.027969400525015,2.238248969356781,2.770050341897843
0,7.3185689966659915,1.793106060792398,12.014501485057743,6.576236333245637,2.775050432767692
0,13.047051320911384,7.528707656525951,12.881031643500139,11.914224285742796,2.7800505236375415
0,11.415529624223279,9.85430741113329,12.70755989911835,12.012212838516438,2.785050614507398
0,8.51400391922191,9.59990535869632,4.444086274066537,8.9702020022788,2.790050705377247
0,3.492474217519937,1.8955015324973843,5.380610789506874,-0.9418082132394316,2.7950507962470965
0,6.25094052993815,11.861095965064024,7.507133465874572,6.156182200985044,2.800050887116953
0,-0.21059713325782103,3.7366886882491084,0.42365432303731554,-0.8958267464261934,2.8050509779868023
0,1.1678612378302893,3.0722797332579592,2.230173380406594,5.26216495288186,2.8100510688566516
0,-0.3936843470908134,2.7078691307677465,-4.663309342863086,1.1801573070172198,2.815051159726508
0,1.9547661216072836,-5.996543088849263,-1.206793827633783,1.7081503238410665,2.8200512505963573
0,1.5532126534836102,-4.800956895242051,2.8497199453579314,-5.8438559889574355,2.8250513414662066
0,-4.458344741982798,-7.705372257761292,-5.353768004517255,-13.825861623585666,2.830051432336063
0,-3.789906055282997,-6.199789145227446,-4.987257657774214,-3.6578665717273755,2.8350515232059124
0,-6.411471276663783,0.6557924741209853,-5.50074899463938,-1.3798708243319573,2.8400516140757617
0,-3.5130403959566037,1.0013726324666852,-2.2742419948961707,-9.071874371754097,2.845051704945618
0,-9.654613402495123,-9.703048637798975,-4.777736637888563,-13.933877203818984,2.8500517958154674
0,-1.356190285062015,-3.8274713040398516,-1.901232902585204,-4.765879309596105,2.8550518866853167
0,-0.6377710319258904,1.2781046667917073,3.0952692323361024,-2.237880677287295,2.860051977555173
0,-6.069355630996755,0.5736793080786904,-3.4782302116570074,-11.869881294398661,2.8650520684250225
0,-6.440944069882468,-6.820747346662747,-1.3517312130416312,-6.441881147825624,2.870052159294872
0,-1.6325363357787208,-0.9851752637731102,-6.285233750160445,-1.3938802237809118,2.875052250164728
0,-4.564132415426681,4.670395590630081,-5.298737801055554,-10.075878507844203,2.8800523410345775
0,-3.0657322951840795,1.505965250504926,-2.3922433433417956,-4.587875985041611,2.885052431904427
0,-0.5673359610851421,-5.90846625029622,-2.8057503542038162,-7.959872639798015,2.8900525227742833
0,0.3510566010809375,-1.3828988779314229,-0.24925881050173082,-2.451868455908041,2.8950526136441326
0,2.959445405621379,0.40266740162313663,-2.8327686888793355,2.576136583341601,2.900052704513982
0,-2.3021695331949124,-7.681767377386478,0.8637200341753015,-4.055857505062512,2.9050527953838383
0,2.176211798830518,-3.496203180450969,3.0002073822614355,3.3521492959586006,2.9100528862536876
0,4.054589415828504,1.399360027294871,4.496693378916839,6.560157003462637,2.915052977123537
0,-1.0970366682039288,-5.295077718973282,-4.7268219525148325,1.468165634299352,2.9200530679933934
0,-1.7186664394193785,-1.2995163838621313,-3.8303385887940564,2.346175204971843,2.9250531588632427
0,0.29970011599769286,-4.363955931739519,-0.4938565065401461,0.6341857316884278,2.930053249733092
0,-0.6119369880763399,2.781603673283943,0.982624317861283,2.472197230465554,2.9350533406029484
0,-2.393577737697634,4.987162467222851,-2.1008960918464297,-2.509790282814583,2.9400534314727977
0,7.934777881113142,6.032720485946168,0.8055822881257706,2.9482232076534394,2.945053522342647
0,1.5331298822329726,-7.581722235001208,-0.18794051839572412,1.5162377176215434,2.9500536132125035
0,2.8714782792563667,-5.17616566021699,-0.11146448756350624,9.91425326268275,2.955053704082353
0,2.749823085456548,1.2893902459189832,6.875010404430728,5.7722698580417715,2.960053794952202
0,-3.531835686129296,0.6249455193286253,-0.438515818765737,-11.49971248158447,2.9650538858220585
0,-3.273498022537744,-4.779499803927131,-5.112043133711076,-4.621693741632197,2.970053976691908
0,-2.625163910665163,-10.453945687630013,-0.20557151698845444,-2.7536739071894876,2.975054067561757
0,-2.1268333371421226,-1.1183920951488917,-0.8691009450151856,-4.085652962838434,2.9800541584316136
0,-1.0485062883440193,3.657161010646854,-0.8226313940477343,3.26236910720156,2.985054249301463
0,-4.17018275043362,0.2527136671216874,-5.826162840219191,-6.409607681085067,2.990054340171312
0,-6.691862709325457,-10.891734088342416,-5.7396952594333515,-12.431583311484742,2.9950544310411686
0,-3.863546150556757,-5.716182218154918,-3.0232286271976863,-13.633557767218754,3.000054521911018
0,-3.775233059195106,-5.7806306841815145,-2.8767629185719823,-1.6955310305757192,3.0050546127808673
0,-5.3369234198544255,-5.78507944763934,-7.390298108215296,-6.457503082923838,3.0100547036507237
0,1.1013827832475163,4.250471530786127,-0.10383417039242326,6.080526094958584,3.015054794520573
0,-2.5003144338083363,0.48602229068981195,-1.9173710789955534,0.9985565224992103,3.0200548853904223
0,6.787984945191299,13.09157287159597,4.799091192301891,15.146588218954637,3.0250549762602787
0,3.4062809363706306,8.767123312570556,8.685552669774292,10.59462120300291,3.030055067130128
0,3.4345735555562342,5.572673651916194,2.892013379338932,8.80265549239581,3.0350551579999774
0,-0.5371371817801123,-2.971776072824097,-1.4915266535707143,-2.8493088960739503,3.040055248869834
0,2.0611487395840262,2.8037741754512098,4.484932596141471,4.87872805375465,3.045055339739683
0,2.169431334723096,4.549324433667144,-0.09860884660584324,6.346766357709943,3.0500554306095324
0,3.7477106185526488,2.7148747385574445,3.2878490429432983,1.5548060312940954,3.055055521479389
0,2.8959866057532295,2.360425126558991,4.734306289339414,-1.6171529103521525,3.060055612349238
0,0.4342593107297328,5.895975633788274,5.480762916839365,7.020889547667578,3.0650557032190875
0,-3.517471252311945,-2.648473703945731,-4.252781050659979,-2.3710665799243333,3.070055794088944
0,-0.49920506918666663,0.23707714893967236,-1.3263255894856019,2.5469787214101727,3.0750558849587932
0,-0.18094212559590672,0.7226282279557388,0.5401293240575629,0.0850254660720996,3.0800559758286425
0,-5.04268240710457,-0.8118204313789298,-7.303416286185459,-0.3669263316155149,3.085056066698499
0,-2.86442589909715,-3.4962687935207892,-3.4169623961325124,-2.138876657358167,3.0900561575683483
0,-5.666172586662314,-4.550716822802768,-0.6705089813524581,-0.7508254968090806,3.0950562484381976
0,-2.5179224545069028,4.824835516666704,-6.514056017058784,-1.5727728355068227,3.100056339308054
0,-6.169675486931279,-7.989611739033336,-5.427603478121124,-2.1147186588572593,3.1050564301779033
0,3.0585683321431327,0.9759414463206504,3.128848660979087,0.9733370478680448,3.1100565210477527
0,1.1168090190347313,2.79149510911344,1.8253004260340773,-2.9086057004880526,3.115056611917609
0,0.6650465900844793,0.34704928578931904,-1.9482481571389636,-4.1705468889613115,3.1200567027874584
0,-7.14671893841687,0.562604012703579,-6.121797062747961,1.4975134976005688,3.1250567936573077
0,-0.0284875500745978,-4.7218406738600365,-5.255346264812098,2.795575474513799,3.130056884527164
0,-4.270259228229151,1.9037152624396283,-7.608895736916303,-4.546360942881593,3.1350569753970134
0,-1.3120339559381688,3.409271858033276,0.6375545478888285,-6.37829573920908,3.1400570662668628
0,-6.98381171598435,-4.025170850664924,-3.3759953829990983,4.209771101126562,3.145057157136719
0,-1.6755924908181692,5.970387172678813,-0.5195455019030828,-6.272160406017385,3.1500572480065685
0,0.3726237374616319,6.955945964262838,-0.04309578097910216,-0.7340902445967699,3.155057338876418
0,3.0408369869676557,5.19150555994376,3.2133538076956683,-1.216018398377197,3.1600574297462742
0,-2.230952724177957,4.027065995052221,-1.3901967079909634,6.632055149019278,3.1650575206161236
0,-0.9727453779027798,2.1026273044126507,-0.19374730022931064,4.610130413881322,3.170057611485973
0,4.235459043868572,0.44818952247965194,3.39270205874716,4.028207412152478,3.1750577023558293
0,-1.8963394408087055,-8.156247316459918,4.229151396617983,-0.023713840643837414,3.1800577932256786
0,-4.638140813922474,4.909316821957435,2.285600740835041,-2.035633329271124,3.185057884095528
0,-5.729945057340675,2.71488197223338,-3.447949881420379,-3.107551038549903,3.1900579749653843
0,1.4782478473891727,-8.90955183112573,1.9384995568980492,-5.419466953141311,3.1950580658352337
0,-1.2735620809750645,-4.913984553535772,-1.615050917156198,-4.421381057384528,3.20005815670509
0,-0.5053748235275436,-3.9584161600393712,-4.448601276463977,1.0367066647686973,3.2050582475749394
0,2.772809638678437,-6.592846615162668,1.537848506225606,1.0847962296470892,3.2100583384447887
0,-2.269008675423804,-0.567275882949294,-0.11570154168328184,-0.17711234634303785,3.215058429314645
0,1.7791702530624285,-2.081703927049277,2.270748607264523,1.000980953164925,3.2200585201844945
0,-3.7526535569682737,-12.046130710783213,-4.322801019510947,-0.12092385551255941,3.2250586110543438
0,-6.604480086516352,-4.220556197022659,-3.0563503945552624,-1.9728267560826411,3.2300587019242
0,-5.396309316281071,0.4050196519552487,-8.599899490183908,-6.2747277321853545,3.2350587927940495
0,-14.068141226422714,-11.279403125607512,-9.95344827823924,-5.4166267672058215,3.240058883663899
0,-10.259975796315699,-10.793824490967303,-7.91699672985815,-2.9185238441016796,3.2450589745337552
0,-9.241813004342887,-12.348244404614604,-6.970544815350669,-6.330418945358167,3.2500590654036046
0,-4.793652827882786,-8.462662826021159,-4.024092504248638,4.9276879469403045,3.255059156273454
0,4.754504756447281,0.8229202863249214,2.382360234507618,5.665796850890156,3.2600592471433103
0,2.9226597723587675,10.598504974526593,5.048813432253954,3.453907784420722,3.2650593380131596
0,4.610812243463328,8.394091280628713,1.805267120245702,2.122020765075819,3.270059428883009
0,3.4989621930458252,-1.5703207538743273,1.541721329466899,-0.5798641899428336,3.2750595197528654
0,-5.362890355930336,2.0552689119678673,-5.361823909306719,5.378252936351474,3.2800596106227147
0,-0.48474538062583183,1.620860318834167,-1.8053685652888625,10.01637216070229,3.285059701492564
0,-2.896602858089337,-2.3135464927098774,-1.248912607494358,-3.845506500562953,3.2900597923624204
0,-1.8584627651606547,-1.0479514821356735,-4.2424560046946524,-2.76738303149947,3.2950598832322697
0,-1.2103250784766841,-0.9623546088507491,-0.9159987254300666,-7.309257416186763,3.300059974102119
0,-3.1721897744843037,-5.836755832118897,-1.9195407380105625,-6.9911296383500385,3.3050600649719755
0,-3.8740568294221904,-5.811155110951633,-8.863082010501016,-7.132999681143042,3.310060155841825
0,-5.595926219244267,-3.115552403956979,-5.046622510601483,-3.7048675270730524,3.315060246711674
0,-4.807797919512529,-6.509947669267174,-7.4201622054678795,-3.486733158060464,3.3200603375815305
0,-2.109671905341016,-5.574340864531113,-3.763701061640635,1.7314034444000965,3.32506042845138
0,5.068451848512092,7.79126805303965,6.992760954836811,6.909542298990872,3.330060519321229
0,2.656573367377354,0.9368791264192398,3.589223878077762,3.167683424250823,3.3350606101910856
0,8.394692676364944,3.432492398428842,8.0056877419408,8.055826838319465,3.340060701060935
0,8.032809800124191,0.6081079116123611,8.082152579761843,5.953972558809045,3.345060791930784
0,-5.899075237257596,-4.556274291669004,0.8386184242524686,-5.577879397192361,3.3500608828006406
0,-5.69096241202873,3.70934583092279,-0.0949146924076203,-4.8097290128646435,3.35506097367049
0,-6.002851700293657,6.174968321728591,-7.058446738269637,-4.651576271232508,3.3600610645403393
0,-7.044743077665154,-0.4294067770867429,-7.291977681234666,-7.423421154886932,3.3650611554101957
0,-6.7866365191493525,-4.353779423609575,-6.825507488729624,-7.49526364587141,3.370061246280045
0,-1.9785319991368961,-3.1481495759583176,-0.8490361275712023,-8.117103725583927,3.3750613371498943
0,2.759570508468966,3.897482807933467,-0.5725635640820647,1.4410586252494988,3.3800614280197507
0,1.3876710299698582,-4.52688222971155,-2.5660897643136766,0.38922342638949203,3.3850615188896
0,2.1457695916091617,1.568755353390829,4.110385305803109,4.517390697750384,3.3900616097594494
0,8.12386621942251,6.3143955995377645,7.476861680304659,0.04556045913642981,3.395061700629306
0,2.9719609391010247,6.250038550863799,2.5833393929453727,8.133732730117764,3.400061791499155
0,4.510053775878251,5.435684249076873,12.949818476980308,6.051907529915788,3.4050618823690044
0,3.668144754536174,5.711332735326184,5.946298965011483,-1.1599151227142235,3.410061973238861
0,7.996233899432182,8.156984050182958,9.102780888859236,5.448264790558526,3.41506206410871
0,7.124321234423812,9.602638233582274,6.699264279533135,4.266447287752038,3.4200621549785595
0,5.492406782752455,5.828295324719728,8.545749167271435,0.5046323865692173,3.425062245848416
0,9.18049056699293,9.35395536200789,12.882235581523256,8.772820104366204,3.430062336718265
0,-0.3414273909244061,1.419618383126456,1.0487235508868942,-2.718989541853643,3.4350624275881145
0,1.4266529304178643,-1.4547155748126688,4.3152131031893814,1.7092034646101943,3.440062518457971
0,7.004731552115412,4.020953524998253,4.661704265720216,6.917399140257132,3.4450626093278203
0,2.4128084949787705,-0.40337428076692183,-1.9518029345943262,1.0555975013618963,3.4500627001976696
0,1.3108837794633685,6.222301044417583,-6.235308471024229,-2.186201436090659,3.455062791067526
0,3.3189574257049568,-6.882020463106513,-3.958812316732039,-6.377997656241206,3.4600628819373753
0,-4.0429705463661705,1.7236612329177698,-7.012314444494285,-1.3397911430549019,3.4650629728072246
0,-2.2949001168750547,-8.130653831142848,-2.6058148265925256,0.3484181198134302,3.470063063677081
0,-4.78683126580294,-2.16496561864366,-3.769313434831402,5.176630148886491,3.4750631545469304
0,-8.488763972800681,-9.359274092533372,-6.29281024059539,-5.635155039346025,3.4800632454167797
0,-7.620698217010586,-12.563579215189645,-13.276305214791066,-6.056937428409547,3.485063336286636
0,0.36736602304884314,-6.417880948201007,-2.9197983276463777,1.5312829983859637,3.4900634271564854
0,-9.274571230579046,3.06782074768158,-6.583289548616966,-0.9004937419740462,3.4950635180263347
0,-2.406509955386525,6.823525912188336,-0.6167788465260916,-7.2122676323123995,3.500063608896191
0,0.1915498715676054,-5.190765414964375,-6.150266189752166,-5.564038655210013,3.5050636997660405
0,1.7296082735212512,6.694946805740573,-0.5537515463198058,-1.415806792827714,3.51006379063589
0,5.307665273745602,5.4506626136288,3.2527651160197912,3.1224279730736537,3.5150638815057462
0,7.835720895281922,6.876382047691713,8.23928382955982,10.330665660825371,3.5200639723755955
0,7.843775160695541,6.862105146380877,12.655804626247889,9.38890628840436,3.525064063245445
0,11.5018280918649,12.067831947482654,12.562327537270107,3.0471498730954143,3.5300641541153013
0,13.459879709796711,12.163562487964104,11.368852592754722,15.195396431403129,3.5350642449851506
0,8.367930034459997,6.429296803807212,9.42537982167848,9.1336459790036,3.540064335855
0,4.335979084774332,6.375034930018561,10.171909251928414,0.4218985306616728,3.5450644267248563
0,2.984026878831692,11.820776900772985,9.04844091039112,9.140154100353644,3.5500645175947056
0,7.4120734341625525,8.846522749440151,9.844974823002612,1.1584127014962875,3.555064608464555
0,4.940118767820873,3.692272508525578,10.101511014762025,2.5366743470626023,3.5600646993344114
0,-0.8018371036242066,15.448026209701027,5.328049509748158,5.584939049662452,3.5650647902042607
0,-2.443794163948681,3.0337838838212967,6.4645903312068835,0.1432068215923899,3.57006488107411
0,-1.635752396994929,-0.7304544390363261,2.251133501712371,4.751477674843746,3.5750649719439664
0,-2.3177117864727323,-2.6546887292700454,1.3076790433486263,-6.010248378828066,3.5800650628138158
0,-2.619672315895425,-2.5089189573394073,-3.745773022081488,-5.501971327698897,3.585065153683665
0,-4.811633968543781,2.0468549064409136,-4.499222672798435,-7.503691159761741,3.5900652445535215
0,-11.863596727347076,-10.087367108071394,-10.452669886758208,-7.775407862461159,3.595065335423371
0,-6.165560574654604,-3.631584970748354,-13.486114641332538,-1.6771214225977382,3.60006542629322
0,-12.457525492023073,-7.605798650993442,-12.879556912972122,-4.4588318264034905,3.6050655171630765
0,-13.309491460081315,-7.830008117611335,-13.542996676957015,-6.290539059667397,3.610065608032926
0,-17.121458458352542,-11.624213338717587,-11.016433907307857,-14.292243107687238,3.615065698902775
0,-15.943426465018792,-5.748414281616346,-10.849868576820498,-9.953943955003476,3.6200657897726316
0,-9.315395456791723,-4.412610912783289,-6.993300657173366,-9.505641585153848,3.625065880642481
0,-0.7973654090709248,-1.3068031980379748,-7.686730119080733,-5.667335980660229,3.6300659715123302
0,-3.9893362963796055,3.409008897183079,-5.1901569324513295,-3.589027123208144,3.6350660623821867
0,-6.561308092750702,-3.9451745924254795,-4.233581066524592,-2.7407149938796103,3.640066153252036
0,0.2067192281632042,-6.339353632100188,3.372997509961974,2.037600426624482,3.6450662441218853
0,2.20474569303275,-0.7135281868497679,2.5895788285007826,1.7559191577649433,3.6500663349917417
0,3.262771328631477,-2.967698221340625,3.6361629205105412,2.3142412189599932,3.655066425861591
0,1.120796161601132,-8.071863699913276,4.202749817144858,-0.6174333705218735,3.6600665167314403
0,3.208820218362325,-3.926024586523471,4.249339549212709,4.24089540843731,3.6650666076012968
0,2.3468435251096005,2.639819155324157,4.055932147137052,2.3692275747934652,3.670066698471146
0,3.0048661077975227,3.3556675623982293,2.1925276409490215,-0.5024368527062688,3.6750667893409954
0,0.07288799213647046,-0.798479328561163,2.3691260603347155,1.5259021445022012,3.680066880210852
0,4.830909203619207,5.307378519010326,4.3757274346911625,3.8142445848575255,3.685066971080701
0,5.678929767496012,10.083241141417709,1.1723317931370676,-1.0674095133461035,3.6900670619505505
0,5.256949708650407,1.3991085745170455,-0.19106083546713015,3.790939868014963,3.695067152820407
0,-1.4850309484785122,-6.645019146321896,-1.1944504224128742,-6.6207072530506235,3.700067243690256
0,-0.14701217977459957,4.540858014075913,1.0221630609830483,1.3276491414829654,3.7050673345601055
0,-3.748993961203272,1.516740090912914,2.6487796434039774,0.9460090697597974,3.710067425429962
0,-1.5909762686196223,-1.467372880649064,1.9653993534496963,-4.545627449982023,3.7150675162998112
0,4.717040922280663,5.908519134426113,5.13202221952651,2.182739600566594,3.7200676071696606
0,-0.8849423641569841,-3.35558382895992,0.2486482697717045,-9.268889760147147,3.725067698039517
0,2.1630738963104097,9.230318263930751,5.155277532033684,-3.6105155134032563,3.7300677889093663
0,4.811089727770989,1.9562254475868626,6.631910033848895,3.3678623598991275,3.7350678797792156
0,9.38910515405237,8.092137756108892,8.588545802314389,2.736243879106241,3.740067970649072
0,10.207120198468335,10.34805522306143,5.465184863915474,9.464629063461379,3.7450680615189214
0,12.685134883533566,13.37397788127622,11.511827244427682,12.213017931743138,3.7500681523887707
0,13.71314923073965,10.75990576260683,14.78847296880699,16.261410501900777,3.755068243258627
0,16.78116326037289,13.735838897771398,16.91512206094039,17.48980679068777,3.7600683341284764
0,18.679176991325292,13.531777316289405,20.911774543321815,18.158206813372185,3.7650684249983257
0,14.807190440919639,7.4877210464600665,8.888430436833719,15.796610583574369,3.770068515868182
0,11.435203624873921,4.883670115476174,2.0050897608640907,9.105018113286418,3.7750686067380315
0,2.9032165575122657,5.349624549692376,1.0617525338086968,11.473429413083114,3.780068697607881
0,5.831229252160422,3.085584374871144,2.5584187736048594,7.821844492384459,3.785068788477737
0,3.669241721505169,-0.8984503836546834,5.595088497951812,7.580263359636753,3.7900688793475865
0,2.227253977776952,8.817520299143245,4.881761724251289,4.548686022453277,3.795068970217436
0,4.365266032831872,6.543496447963813,8.458438469461507,1.167112487792589,3.8000690610872923
0,7.783277898165941,-2.0605219129598877,6.9051187499625,-4.914457237783926,3.8050691519571416
0,2.011289584837484,1.5454652401977058,3.8918025814805395,-6.076023147757806,3.810069242826991
0,4.609301103423637,2.971457931068691,6.138489979121813,-0.19758523533762207,3.8150693336968473
0,3.9273124640755506,8.087456183117403,5.825180957445734,-0.8691434933877351,3.8200694245666966
0,1.595323676574611,3.4434600194566687,4.001875530484458,1.7993020854228534,3.825069515436546
0,3.523334750373649,8.879469462684227,1.9285737117749853,3.8177515084319866,3.8300696063064024
0,2.8413456946408213,7.185484534796962,4.975275514451644,7.226204782796738,3.8350696971762517
0,7.649356518236555,8.721505257106253,11.711980951252931,17.77466191521222,3.840069788046101
0,4.257367229610062,9.497531650153594,8.098690034329746,7.723122911525832,3.8450698789159574
0,9.075377836681637,12.28356373362678,12.555402774998628,11.741587776476832,3.8500699697858067
0,6.503388346751691,7.0496015262684795,8.962119183604436,18.650056513645975,3.855070060655656
0,9.531398766422587,9.81564504585685,10.898839269480295,15.568529125340081,3.8600701515255125
0,5.149409101548667,17.12169430921234,11.005563040944475,7.587005612426118,3.865070242395362
0,7.04741935725425,11.777749332061683,9.762290505294988,11.295485974423615,3.870070333265211
0,5.115429538001071,14.693810128847995,4.29902166884395,12.933970209728106,3.8750704241350675
0,4.133439647660288,4.819876712720227,2.395756537093237,6.172458315690352,3.880070515004917
0,-1.2885503103797808,4.235949095756445,3.1424951150054765,5.970950288681208,3.885070605874766
0,0.9194596669767963,4.842027289296429,4.4892374071877965,-0.16055387568258717,3.8900706967446226
0,2.847469582701268,7.308111304156017,0.4459834179359815,1.9379458177608253,3.895070787614472
0,-2.1645205603185254,0.6142011506599308,-4.697266848691546,-7.353550636006251,3.900070878484321
0,0.5934892407357027,-3.429703161271787,2.00948661132105,-0.5950432419220595,3.9050709693541776
0,3.7814989886489374,4.526398378106916,3.9762438020498463,-2.4365320046729866,3.910071060224027
0,-2.8404913138549976,-7.497494221456602,-1.8669952724762697,-3.978016928673103,3.9150711510938763
0,-2.5824816641066364,-3.3513809500975817,-4.130230608323381,-3.849498018067681,3.9200712419637327
0,-0.33447205936367636,-2.405261797670487,-2.4534622014829193,-0.7209752766957453,3.925071332833582
0,2.2535375032512452,5.6308632462719785,0.18330995228443855,-4.242448708100481,3.9300714237034313
0,2.0715470266400984,4.376994192228438,1.4100858574065376,10.396081684359235,3.9350715145732877
0,1.5295565135869644,11.803131050392366,0.39686551835266537,3.184615897247725,3.940071605443137
0,-0.3724340332876103,8.719273830334345,0.33364893953938035,3.173153926760721,3.9450716963129864
0,2.785575388508705,0.5654225408371659,3.030436125306713,-0.04830423132703976,3.950071787182843
0,2.673584781348283,-0.5884228099591634,1.7372270798798783,2.330241418489706,3.955071878052692
0,-3.0384058525454734,-4.992262214174749,-2.4659781926644353,-2.7412091284188125,3.9600719689225414
0,-3.630396511015962,-2.0960956638406945,3.040820311652715,-5.842655876683489,3.965072059792398
0,-9.832387191729604,-6.629923150703508,-6.242377403196462,-3.484098830727942,3.970072150662247
0,-6.414377891884028,-5.203744666114794,-6.935571333107107,4.104462005350328,3.9750722415320965
0,-3.9863686080302267,-5.277560200943714,-8.358761473585592,-1.0169733723541479,3.980072332401953
0,-0.5583593361227924,3.5286302544119628,2.068052180439532,-4.178404967725855,3.9850724232718022
0,-3.220350071721576,-13.955173290086705,-3.1251303654794014,-2.8598327845717364,3.9900725141416586
0,-5.492340810118043,-7.748970824060263,-11.558309105473336,-5.931256826440645,3.995072605011508
0,-2.2043315463008737,-7.762762336437399,-5.3514840332444775,-7.222677096480573,4.000072695881357
0,-1.4663222749138043,-5.966547815319978,-2.184655141865703,-1.1040935973451456,4.005072786751214
0,-4.618312990302794,4.089672751867759,-6.807822423819253,-1.0655063312290363,4.010072877621063
0,-6.590303686520501,-4.834100621914429,-5.710985871106319,-5.126915300017277,4.015072968490912
0,-4.252294357215529,-3.8078679235226907,-1.6941454752442404,0.4516794946369554,4.020073059360769
0,1.2057150044220644,5.908370860356902,3.0726987726598876,3.5902780512674894,4.025073150230618
0,1.9137244055048965,3.324615743106016,0.6795468816624137,-3.2211196315447994,4.030073241100467
0,-0.008266146801080732,-5.939133262032119,-4.303601139206874,-6.19251355521381,4.035073331970324
0,-2.640256645387155,-4.032876141887178,-3.4067452808819776,-2.093903720962323,4.040073422840173
0,-1.03224708312761,-2.736612883074016,2.5401144658925427,-0.22529012967811068,4.045073513710022
0,1.095762547206707,-1.5803434718595195,1.3369781105272365,-3.7466727819736185,4.050073604579879
0,-3.116227747060787,-10.804067894171922,-8.256154337533262,-3.2080516782538795,4.055073695449728
0,-2.2382179585158566,-5.577786135493505,-10.149282868671422,-4.649426818662019,4.0600737863195775
0,-9.800208079536777,-7.511498180675212,-7.582407472722833,-8.49079820296661,4.065073877189434
0,-10.722198102046862,-8.635204013855994,-11.775528138703095,-9.232165830402524,4.070073968059283
0,-9.524188017218858,-4.3689036184619185,-10.708644854701442,-9.253529699480506,4.0750740589291325
0,-5.456177815316453,-8.202596977230401,-7.091757607826584,-1.354889807905464,4.080074149798989
0,-10.60816748573698,-7.806284072235992,-11.754866384218863,-1.19624615272741,4.085074240668838
0,-8.450157017071845,-13.779964884820656,-10.017971169079843,-4.327598730609948,4.090074331538688
0,-4.822146397098707,-8.303639395428686,-5.091071946668858,1.0310524620156807,4.095074422408544
0,-2.5141356128622983,4.882692416411465,0.2958312995723149,-4.9802925710813035,4.100074513278393
0,-10.696124650834593,-11.020969428194043,-11.447261413234122,-0.07163382593490403,4.105074604148243
0,-0.31811349696426694,-3.144624907743716,2.7696499324701187,4.537028701578154,4.110074695018099
0,-1.230102136703584,3.101725999655778,3.196565354598337,3.9556950155642743,4.115074785887948
0,-5.322090555155083,4.0580833161511425,-4.776515128809122,-4.595634880072273,4.120074876757798
0,-7.2340787371297814,-5.125552936148209,-6.679591499669447,-4.1469609815445025,4.125074967627654
0,-5.416066667003285,-7.8091827351651375,-5.382663739624631,-1.3082832849125932,4.1300750584975034
0,-4.958054328587678,1.7271939414267297,-2.945731829826791,-1.6496017859556147,4.135075149367353
0,-5.100041705137119,-4.846422883673483,-2.958795750949935,1.9290835197527672,4.140075240237209
0,2.567971220560256,-3.9400331874662937,0.33814451668128054,-2.672227363274639,4.1450753311070585
0,1.2259844659859263,-4.093636946648916,1.5450889929371368,0.646465569513948,4.150075421976908
0,-0.09600195134712064,2.2427658624190054,1.0820376977213397,-3.1648376772656426,4.155075512846764
0,-7.4379880139546115,-2.6408247363858366,-5.271009349103327,-3.1061370988718178,4.160075603716614
0,-7.6199737041666085,-7.5044087190348945,-11.114052127557263,-12.1474326902972,4.165075694586463
0,-14.641959003772017,-18.377986061138277,-13.897090617148825,-15.768724445956256,4.170075785456319
0,-12.853943893664827,-16.93155673743069,-14.120124796434222,-17.23001235923566,4.175075876326169
