labels,F4,F3,Fz,Cz,timestamps
0,-18.00672105343547,-15.956161560719126,-15.864195114314583,-3.577816015905303,-2.0000272609554806
0,-0.6171012667209775,-1.3870403468751196,0.46506346307758933,13.183061224809329,-1.9950271928030894
0,-2.0274777875442056,-0.14791241506163388,0.6543288209843513,3.173940318272505,-1.9900271246507018
0,-34.787850604565065,-32.98877775495503,-31.86639902499162,-30.625178745304627,-1.9850270564983141
0,33.28178029439972,34.520363644497934,34.57287994137932,36.765704024395916,-1.980026988345923
0,-10.008585077892162,-9.360488205216106,-9.387834263312866,-3.233411382222642,-1.9750269201935353
0,-16.16894670869729,-17.281333292734065,-15.218541622647606,-15.792524975198436,-1.9700268520411477
0,39.870695414645965,40.13782839318567,42.890757879600066,32.02836323502911,-1.9650267838887565
0,-3.579658695518423,6.25699686341821,-0.02993574081519748,-7.02074676228497,-1.9600267157363689
0,11.799990972167206,19.466172127579615,20.18937753060019,10.25014502145741,-1.9550266475839813
0,8.389644427980393,18.31535419359937,12.358697706822097,7.491038574131754,-1.9500265794315936
0,-24.790698318441272,-13.525456932064428,-21.361975200342375,-17.138066116863005,-1.9450265112792025
0,32.228962742375124,43.77373875592805,39.70735882024946,38.372830935575266,-1.9400264431268148
0,-2.8313723802356536,-0.05705873821959628,-1.793300220859415,-9.216270281948471,-1.9350263749744272
0,1.6182963224956552,8.982150588261995,5.286047685880133,-7.55536978358883,-1.930026306822036
0,5.047968858737696,3.9513667369176875,7.0654025490739745,-0.004467583809533049,-1.9250262386696484
0,14.707645236260175,20.22058970847984,17.28476437665957,20.566436303066894,-1.9200261705172608
0,0.3973254622657218,-2.3801804971598246,-1.8958668242109167,-5.972658137505945,-1.9150261023648696
0,8.957009543222824,7.40905611901369,8.333508952774519,9.238249079309632,-1.910026034212482
0,20.036697484856212,21.7482995552731,23.152891713189263,17.9291579377343,-1.9050259660600943
0,34.486389291766535,36.32754980880449,37.092281461453595,28.010068421064435,-1.9000258979077067
0,12.176084966687872,12.786806874871024,15.931678199950348,11.500980511000744,-1.8950258297553155
0,5.165784510224183,6.896070746480876,8.561081928652818,-0.18810581255084458,-1.890025761602928
0,21.905487921313664,21.215341414860852,23.09049264555903,14.452809429020668,-1.8850256934505403
0,3.7751951976430154,5.654618869902351,5.68991034714351,3.3037262135103704,-1.880025625298149
0,17.70490633569897,19.733903100218136,18.51933502848057,17.144644517935355,-1.8750255571457615
0,-13.315378669084483,-14.396805906737189,-11.62123331655802,-21.54443568144531,-1.8700254889933738
0,1.1443401781716496,0.9924918358478529,5.928205305190844,-6.093514408605341,-1.8650254208409827
0,10.114062872289495,14.24179631468485,14.847650886594337,4.097408312954197,-1.860025352688595
0,5.223789407987481,7.121107516289304,9.857103420051764,-2.2016675397111367,-1.8550252845362074
0,12.993519779461664,16.370425426446936,10.216562897044243,8.879258010583444,-1.8500252163838198
0,-18.766746019738253,-20.030249969946265,-16.94397069185053,-27.34981505900914,-1.8450251482314286
0,4.912992003701102,4.329081311609116,6.405502643615198,9.15111322897894,-1.840025080079041
0,-15.017266156597845,-11.511580744133344,-14.515017106068376,-19.897957147290466,-1.8350250119266533
0,0.6624794935476191,2.3577638480759533,2.4444700500440257,4.38297379108058,-1.8300249437742622
0,-12.617771051076264,-9.35288492607678,-11.306035896615654,-13.426093976365046,-1.8250248756218745
0,-1.7480177950533236,-2.333527080495526,-3.166534954095683,0.6748395305076692,-1.820024807469487
0,-21.37826074225886,-29.08416262849614,-21.297027129795723,-18.824225707563613,-1.8150247393170957
0,-25.71849989552365,-29.44479158220827,-21.65751243008883,-20.373289708982963,-1.810024671164708
0,-7.928735256103648,-9.085413951812892,-6.417990859857667,0.32764750909246554,-1.8050246030123205
0,-8.518966823539092,-14.456029745383892,-10.188462422437606,-4.341414069277485,-1.8000245348599329
0,-3.1091945960980336,-6.806638969375495,-1.6489271200142825,-5.55047445929447,-1.7950244667075417
0,-10.029418571250407,-10.997241629080822,-8.309384954022317,-12.569533675674082,-1.790024398555154
0,5.420361254113923,4.9021622711010995,7.120164074610098,7.011408267438117,-1.7850243304027664
0,-18.019855116423045,-16.558427272591896,-20.990280034685124,-14.437648643565577,-1.7800242622503752
0,-18.610067678662052,-15.259010263295702,-15.530717281918019,-13.166704421777432,-1.7750241940979876
0,-8.560276427311104,-1.2995867032141615,-3.621147666054452,-2.775759079518837,-1.7700241259456
0,-22.80048135564551,-25.930156593430944,-26.021571184778573,-21.53481262812271,-1.7650240577932088
0,-20.98068245538178,-18.51071993376564,-19.231987834385436,-17.18386507778289,-1.7600239896408212
0,-4.840879716541582,-6.1912767224775465,-4.7323976095397065,-4.812916437311321,-1.7550239214884336
0,-27.481073127487655,-28.941826956183654,-31.88280050323846,-24.001966714087338,-1.750023853336046
0,5.208737324881511,7.387629369993828,8.90680349304309,9.458984085761974,-1.7450237851836548
0,1.4085516547814447,-3.572907737904783,-0.6935856109860328,3.419935956956839,-1.7400237170312671
0,-22.421630122961908,-27.423438273112662,-25.65396780496381,-20.459111105472918,-1.7350236488788795
0,-11.371807992918018,-15.673962227972842,-13.454343077819015,-2.408157106193586,-1.7300235807264883
0,-21.801981938493928,-22.304479593267192,-21.524711417122035,-22.047202049072368,-1.7250235125741007
0,0.5878480583837162,3.205009642008304,0.43492719119874507,3.9637540631018977,-1.720023444421713
0,1.0576820169771408,0.29450549014116884,-0.9654272375197076,2.844711228414886,-1.7150233762693219
0,12.867519957023253,14.154007963847144,11.15422531260541,16.065669445192086,-1.7100233081169343
0,-17.17263810187004,-24.116482924309047,-21.466115142528366,-29.763371288517163,-1.7050232399645466
0,-21.642792140044193,-22.226967161583595,-22.356448586751192,-23.30241097447731,-1.7000231718121555
0,-14.552942136917762,-13.09744473407734,-13.236775002749853,-7.111449613163259,-1.6950231036597678
0,3.2269119295562665,5.912084373704981,6.642905628342293,11.499512796531446,-1.6900230355073802
0,-4.383229917464186,-5.268379821686808,-2.1174066735983956,0.5104762564384147,-1.6850229673549926
0,8.596632345601806,12.191162696589563,10.482288111508026,17.43144076816595,-1.6800228992026014
0,-8.153501257654582,-7.179288054748667,-7.838009996469924,-1.087593667351238,-1.6750228310502138
0,-10.783630703604796,-10.54973205909818,-9.498300977786773,-4.6666270498424485,-1.6700227628978261
0,-5.513755968209,-8.440169299549929,-2.1885848124085134,10.214340620626452,-1.665022694745435
0,-9.213877026696817,-10.950599758436681,-6.708861479732969,-3.5546906561467027,-1.6600226265930473
0,-2.253993853546194,-6.091023417178552,-1.439130958626842,5.556279119436065,-1.6550225584406597
0,-25.20410642249022,-32.30144025618084,-28.88939322738975,-27.55275005308568,-1.6500224902882685
0,-17.234214706202863,-19.971850254400085,-14.4996482633002,-13.651778173596657,-1.645022422135881
0,-5.194318675875195,-5.312253388879295,-5.829896042116961,-0.4108052407539269,-1.6400223539834933
0,0.605581698681473,-3.1826496349593936,-2.150136538201784,-1.1098312520619191,-1.6350222858311056
0,-21.954513551462323,-27.803038966857525,-20.700369724996122,-27.30885620431651,-1.6300222176787145
0,-13.314604394411061,-20.883421357619312,-19.410595575010326,-12.067880093441456,-1.6250221495263268
0,-6.2146907970881955,-9.41379677859922,-7.550814059392086,-3.146902914020414,-1.6200220813739392
0,-1.8447727252374047,-3.7341651994402922,0.018974852120897223,-12.605924659371142,-1.615022013221548
0,11.165149856059504,4.895473411297202,12.248771190590418,3.1950546780514735,-1.6100219450691604
0,1.7350769817380578,2.945119085408549,4.238574987055549,-2.9439648936570397,-1.6050218769167728
0,-14.28499131354651,-16.755228145311094,-16.861613727847118,-19.88298336599877,-1.6000218087643816
0,21.034945004756786,19.904431751016112,23.548205076333062,16.927999270011664,-1.595021740611994
0,-1.355114028893737,-5.785901193670947,2.7480314298946102,-9.811016976214173,-1.5900216724596064
0,16.934831619459555,10.963773052303768,17.987865362484335,7.189967904814019,-1.5850216043072187
0,16.814781982883297,14.273454520091052,22.627706902602,7.250953922434708,-1.5800215361548275
0,25.85473709316385,27.91314323994346,29.34755607715034,16.851941085580176,-1.57502146800244
0,3.594696980417453,-0.6071607593157317,3.7574129110131675,-11.827070597535727,-1.5700213998500523
0,33.57466167301159,30.22254254953358,32.797277427050595,22.223918880617582,-1.5650213316976611
0,10.874631197566615,14.24225319214435,16.03714964623665,10.194909526944988,-1.5600212635452735
0,3.674605578944054,0.5019711925605166,2.4070295876720045,-7.244098652479371,-1.5550211953928859
0,28.714584840504763,25.051696573408766,26.69691726882881,22.53689434761644,-1.5500211272404947
0,20.54456900418136,12.241429356081921,14.836812705760545,9.467888531778863,-1.545021059088107
0,38.69455808996639,34.34116956045169,33.90671591282158,26.588883903452867,-1.5400209909357194
0,12.184552115363735,10.560917204428819,5.846626902298169,4.099880464560597,-1.5350209227833318
0,14.234551095405113,10.79067230389625,9.776545684512305,1.870878215573867,-1.5300208546309406
0,0.7445550432587077,-6.3795651267837865,-4.503527731554331,-10.448122843872447,-1.525020786478553
0,17.564563970915483,17.66020492593859,13.496406662401567,10.432877285717467,-1.5200207183261654
0,5.614577889456261,1.4999824750798083,5.096348874214378,-4.176121396078095,-1.5150206501737742
0,15.974596808981596,13.839767532980169,15.156298911059308,12.094881110209304,-1.5100205820213866
0,18.284620738454358,17.979560111087473,21.576256779123657,14.105884803629474,-1.505020513868999
0,-5.595350314401026,-6.570639780197979,-6.7537775166494916,-16.52311031741404,-1.5000204457166078
0,-17.835316342706392,-24.630832131168756,-23.773803972196102,-28.43210425472669,-1.4950203775642201
0,3.9447226604885954,2.978983068182092,2.986177416737644,1.00890299075868,-1.4900203094118325
0,2.0047667027024705,3.7188058287166323,3.3461666552139553,-1.8500885805489526,-1.4850202412594449
0,-9.995184208209999,-8.901363838208413,-6.2438362512374175,-14.889078967348828,-1.4800201731070537
0,-8.905130064156916,-10.751525921012595,-9.393831296927686,-13.92806816767651,-1.475020104954666
0,-16.005070856440053,-20.211680407514002,-18.58381847569777,-23.99705617849983,-1.4700200368022784
0,5.274993424553084,2.558172715532604,7.656202219492219,0.42395700467813413,-1.4650199686498873
0,13.025062789089578,12.568033462288092,10.856230796375185,8.154971387600616,-1.4600199004974996
0,1.9551372473586908,2.437901847056518,5.816267262614359,6.275986976427639,-1.455019832345112
0,2.535216808979826,-4.352222116289097,4.5063116252340425,4.007003776980007,-1.4500197641927208
0,-17.034698516806436,-18.962338414065115,-19.25363610925746,-12.711978205372219,-1.4450196960403332
0,18.485391279323345,20.077552967774757,18.64642406563122,17.449041034595798,-1.4400196278879456
0,6.575486206751092,7.747452043524502,11.766492156423809,10.86006150194596,-1.435019559735558
0,2.6355862744066716,-0.12264117295483601,3.876568169094252,1.4010832011153642,-1.4300194915831668
0,12.825691490490996,12.257273331469573,10.916652108688947,12.182106135688235,-1.4250194234307791
0,8.74580186247046,10.567195569261253,10.616743979382122,11.113130308462972,-1.4200193552783915
0,2.6259173970097485,-0.1328744478646599,0.8768437845193371,-0.8158442785732247,-1.4150192871260003
0,14.7560380999719,14.597063291037626,14.246951526660789,16.62518237577458,-1.4100192189736127
0,3.786163976450648,1.7470087962206478,5.3870672076298955,3.546210271959649,-1.405019150821225
0,17.67629503068365,14.616962077211067,16.627190828411265,16.06723940959614,-1.400019082668834
0,10.396431265901118,10.926923142694601,10.187322388973481,8.818269787323748,-1.3950190145164463
0,6.626572684212174,-1.6631079995643154,3.927461888187859,6.809301402751533,-1.3900189463640586
0,1.596719286721447,-1.9231313425147794,0.6076093240165363,4.970334252557516,-1.3850188782116675
0,9.00687107383695,8.196853120596696,7.557764693868056,8.411368332686045,-1.3800188100592798
0,4.66702804543611,-0.20315460363058946,6.817927994745536,3.652403638453388,-1.3750187419068922
0,0.0671902008739228,0.0568454911648259,0.998099223165222,1.9834401646051087,-1.3700186737545046
0,-4.362642460869074,-4.303146588811222,-3.1017216247988593,-6.545522094490229,-1.3650186056021134
0,2.6675300591065594,4.366869162678277,5.988465446717873,2.2855168554689014,-1.3600185374497258
0,-1.8922922402239188,0.7168927519166142,-3.9613395664942277,-4.263442991077433,-1.3550184692973382
0,3.687890640147005,4.986924185084192,-1.3111366686896297,3.2475983604591794,-1.350018401144947
0,-8.091921300783055,-9.313036531809681,-7.870925864025223,-5.811359095236981,-1.3450183329925594
0,-17.50172806381794,-19.142989392638455,-14.590707156269477,-13.710315363285229,-1.3400182648401717
0,6.678470350841548,7.557065609358799,10.709519451442832,8.450729551636675,-1.3350181966877805
0,2.3386739436315613,6.187128481617153,2.9797539564305735,7.411775645222756,-1.330018128535393
0,4.528882715135304,7.017199231625109,8.369996355901177,5.782822913011648,-1.3250180603830053
0,-3.0209033342974485,7.907277866358505,1.4402466465686303,-1.58612864998215,-1.3200179922306177
0,-11.470684204436647,-9.46263560779456,-8.969495175277048,-13.015079049069389,-1.3150179240782265
0,-7.930459894738615,-3.3225411846929434,-7.319229113357425,-2.8940282893541918,-1.3100178559258389
0,-7.1602304039581,-12.392438857928653,-8.908955170919995,-3.022976375373208,-1.3050177877734512
0,-3.449995730066945,-1.6123286204783942,-2.6086733505023694,1.4280766888343657,-1.30001771962106
0,-5.849755870393175,-6.252210464650428,-6.738383653979353,-5.38086910051272,-1.2950176514686724
0,-8.9995108217184,-5.672084382185233,-6.6080860826645935,-7.649813746978817,-1.2900175833162848
0,-4.249260580238287,-4.491950364314822,-6.827780637305375,-6.008757253725479,-1.2850175151638936
0,3.090994858428484,-1.8718084017811005,1.392532681930208,7.912300376585904,-1.280017447011506
0,-3.01874450098358,-3.641658484917891,-2.0771461246958722,0.4133591415372827,-1.2750173788591184
0,7.171521346335037,8.168499396192155,8.663182943231853,7.964419038555699,-1.2700173107067307
0,-0.8182075949147805,-4.071334748501858,-1.436480113989868,-7.814519935249123,-1.2650172425543396
0,1.4520686797715643,-3.061160909131159,0.2138647036950746,-0.5934577829229318,-1.260017174401952
0,-5.627649825228673,-8.620979075728158,-4.795782603779086,-10.202394507345701,-1.2550171062495643
0,-9.327363105421238,-6.850789237912231,-4.4654220363597155,-2.2613301109719544,-1.2500170380971731
0,3.1529288440711394,1.859408615266893,5.534946406259602,3.079735404215051,-1.2450169699447855
0,-2.846773971464648,-2.2403855047932852,0.32532272452709204,-0.5291979635052669,-1.2400169017923979
0,2.7335284534571893,0.9398284135049383,2.4357069188040033,2.0518697841518474,-1.2350168336400067
0,6.873836124297833,3.6000503817927987,5.536098989239077,5.142938645347706,-1.230016765487619
0,11.414149046232174,10.990280411555839,11.116498935647959,18.314008617926227,-1.2250166973352314
0,-7.615532776097195,-8.129481486079388,-7.573093242641837,-5.8449203009137305,-1.2200166291828438
0,15.09479066144518,15.090764699625064,16.007322453228483,16.436151885262372,-1.2150165610304526
0,10.935119362518988,12.881018978968505,5.157746021668666,15.817225172128383,-1.210016492878065
0,11.3854533300127,11.761281361444821,7.2381774604508555,16.328299554304415,-1.2050164247256774
0,7.035792565774089,5.991551855436427,6.78861676659746,11.999375024997137,-1.2000163565732862
0,-1.053862929288024,-3.32816953163491,-2.41093606350721,2.120451576026533,-1.1950162884208986
0,-6.363513154801451,-5.62788279281603,-4.440481033848725,-0.5384708017680202,-1.190016220268511
0,11.536841889488871,17.622412078780176,9.499981851516306,16.632607881895595,-1.1850161521161198
0,6.777202203730857,14.222715089775189,10.160452588417657,14.36368761670193,-1.1800160839637321
0,0.727567787643021,-0.37697375403994315,-1.3790688277781338,5.75476839134348,-1.1750160158113445
0,1.2279386404288,3.2833455522005637,3.4414175977326464,14.16585019335983,-1.170015947658957
0,16.93831476089677,17.413673012736666,16.001911859317598,24.14693300913741,-1.1650158795065657
0,14.748696147249493,14.474008631098794,10.93241395073407,16.44801682362931,-1.160015811354178
0,25.24908279652352,25.794352409594083,24.292923864665376,29.249101619947897,-1.1550157432017905
0,12.049474704108468,14.614704348839766,14.873441592302692,22.820187379079414,-1.1500156750493993
0,14.379871863628264,19.89506444757542,15.63396712312878,21.15127407970944,-1.1450156068970117
0,15.620274267116901,13.035432702726506,10.674500444979227,14.382361698275055,-1.140015538744624
0,16.12068190515746,19.76580910954118,13.505041544266287,14.40345020926878,-1.1350154705922328
0,6.2310947669081616,5.146193661705134,3.1055904061931985,6.224539585615404,-1.1300154024398452
0,11.921512840246212,14.696586351528797,12.696147014961857,14.025629798997352,-1.1250153342874576
0,12.991936111964119,17.90698717010695,19.256711353840405,17.806720819981358,-1.1200152661350664
0,3.33236456783239,3.4573961072947417,4.037283404981853,0.7878126179443942,-1.1150151979826788
0,-5.3472018072299985,-6.97218684813781,-3.9221368505667296,-9.251094838729692,-1.1100151298302912
0,-1.316763028676284,1.2682382920896937,-1.691549432346192,-4.560001581951453,-1.1050150616779035
0,9.053680888052064,12.0586715162146,10.349045640008532,3.641092356667504,-1.1000149935255124
0,13.79412992736721,15.629112812188014,8.95964834668864,7.052186945771005,-1.0950149253731247
0,5.824584073043988,12.279562167076708,9.170258667298373,2.683282153849413,-1.090014857220737
0,9.515043307940854,11.500019566706095,11.40087658058023,4.014377948984575,-1.085014789068346
0,4.67550761405249,10.560484995654718,7.271502064338618,4.995474298838481,-1.0800147209159583
0,1.2159769726788112,6.430958437390508,-0.42786490449083514,3.5165711706749088,-1.0750146527635707
0,6.356451364613593,9.47143987442653,11.63277565036802,6.167668531338002,-1.0700145846111795
0,8.136930770229998,11.451929288413435,5.4034237046442595,4.658766347218698,-1.0650145164587919
0,-3.4025848305666853,-0.6375733398400469,-0.3159207665214565,-5.950135415710654,-1.0600144483064042
0,0.9579045417467656,2.3729319697877664,1.154742211534142,-3.919036791650455,-1.0550143801540166
0,1.4483988665486476,3.413445197026687,-3.774587386721708,-0.4679378146367754,-1.0500143120016254
0,0.8788981231749872,6.143966321345206,-0.5339095867939694,-3.6168385184124823,-1.0450142438492378
0,-11.490597709045124,-7.805504678068877,-9.20322441400689,-14.365738936396134,-1.0400141756968502
0,-22.470088650439184,-17.294967822054478,-18.122531893245874,-19.174639101372303,-1.035014107544459
0,-9.179574720342071,-10.524423130850431,-9.341832048525953,-14.833539044952609,-1.0300140393920714
0,-17.079055936666023,-11.813870623583,-12.691124902668049,-21.202438797186296,-1.0250139712396837
0,-16.068532315856757,-16.853310318135044,-18.7004104772316,-19.93133838638848,-1.0200139030872926
0,-15.118003872892768,-14.132742231099698,-15.849688792422683,-18.290237839025018,-1.015013834934905
0,-18.747470621211253,-15.872166377661955,-16.14895986691409,-18.799137179667305,-1.0100137667825173
0,-16.50693257264489,-17.24158277151683,-15.098223717781792,-16.61803643104531,-1.0050136986301297
0,-23.196389737332545,-25.16099142475957,-23.14748036050342,-27.39693561406389,-1.0000136304777385
0,-11.87584212362388,-13.490392347688328,-8.736729808898449,-14.245834747697852,-0.9950135623253509
0,-11.955289738143772,-17.02978554873335,-13.065972075182527,-11.304733848986311,-0.9900134941729632
0,-12.674732586048886,-16.389171034599922,-12.135207170204456,-10.463632933340694,-0.9850134260205721
0,-15.334170671227323,-19.538548810371584,-15.364435103593028,-13.622532014908066,-0.9800133578681844
0,-11.793603996295172,-6.527918879520581,-9.513655883730271,-7.621431106713075,-0.9750132897157968
0,-13.793032562556059,-8.397281244092872,-7.912869517782095,-8.300330220722937,-0.9700132215634056
0,-12.98245637001699,-7.1866359050718485,-6.762076011884961,-6.999229367986326,-0.965013153411018
0,-10.181875417422669,-4.975982862651136,-3.6412753713742196,-4.0981285587847385,-0.9600130852586304
0,-10.021289702326701,-7.165322116352624,-9.190467600942979,-2.997027802777489,-0.9550130171062428
0,-11.370699221197544,-13.654653665032775,-10.129652704652994,-13.675927109097014,-0.9500129489538516
0,-14.840103969443293,-10.883977506722657,-13.96883068576877,-8.304826486240009,-0.945012880801464
0,-14.769503941299313,-12.553293638408139,-14.988001546507364,-15.223725941811065,-0.9400128126490763
0,-18.5688991296483,-16.522602055895245,-21.07716528777964,-16.942625482285912,-0.9350127444966851
0,-5.718289525915766,-0.44190275377806776,-5.146321909002482,-11.901525112813957,-0.9300126763442975
0,-19.847675120138906,-19.26119572554726,-17.065471408143654,-22.720424837075996,-0.9250126081919099
0,-18.027055901010762,-16.360480963629804,-13.764613781879007,-20.099324657137384,-0.9200125400395187
0,-11.11643185574032,-11.679758459168266,-8.293749025621658,-18.388224573238983,-0.9150124718871311
0,-8.17580297003962,-8.429028201900168,-6.662877133592465,-13.23712458373324,-0.9100124037347435
0,-12.11516922838175,-12.668290180338143,-11.941998099035303,-14.906024685260224,-0.9050123355823558
0,-4.634530614237521,-3.1075443819756083,-3.711111914351446,-2.5649248730276133,-0.9000122674299647
0,-5.663887110221062,-7.876790793443188,-7.50021857115719,-10.623825141137146,-0.895012199277577
0,-0.0032386982945126763,-1.4760294006972916,2.9906819395625983,-3.0427254828759285,-0.8900121311251894
0,-0.6425853600223083,-1.225260189210595,-0.5784103728092661,-1.5916258909061933,-0.8850120629727982
0,6.868072923171001,3.8755168558153112,5.872504501184401,5.6094736424999985,-0.8800119948204106
0,-1.5512638302388602,-0.893698250781479,-2.836573429131011,0.630573125127199,-0.875011926668023
0,4.359404397999798,3.287094505736086,6.134355845382996,2.281672564582746,-0.8700118585156318
0,0.3600776259237751,2.817895139953614,3.1952923336601953,-1.6572280317210815,-0.8650117903632442
0,-3.919244128578289,-2.251296333720071,-2.0137639556219433,-3.516128656443284,-0.8600117222108565
0,6.661439152327125,3.059520098982422,3.9571869859901767,0.8349706978389124,-0.8550116540584689
0,2.0621274864065287,1.4103444522390423,2.5681451667965236,-3.5039299612959223,-0.8500115859060777
0,0.7528208912218199,-3.428823259859807,0.2491105949180568,-2.2028306261051567,-0.8450115177536901
0,4.633519384074484,6.6120169767072445,5.130083278260526,5.038268711305809,-0.8400114496013025
0,2.4942229820198474,3.342865175852337,5.591063224474977,0.6193680588657401,-0.8350113814489113
0,-4.545068298120196,-2.716278648743768,-1.95794955912088,-6.209532575582719,-0.8300113132965237
0,-3.8043544395983746,-4.235414483570624,-1.5769550654827258,-3.718433184155113,-0.825011245144136
0,6.526364574462875,7.45545768491751,6.504046712336689,4.472666241277323,-0.8200111769917449
0,5.987088760979737,13.756337870201508,8.485055781145817,8.833765708964126,-0.8150111088393572
0,2.7678181365879606,8.167226085224996,3.9860721473349483,2.4548652268895785,-0.8100110406869696
0,5.898552717465501,4.718122342045614,4.787095816709433,2.585964802553542,-0.8050109725345784
0,-0.5407074806368597,3.2490266519075814,1.5181267945569563,-2.8829355569215678,-0.8000109043821908
0,2.7700375577088927,6.65993902548057,6.129165085767336,5.148164155417519,-0.7950108362298032
0,4.120787847697262,5.290859472956453,7.150210694841295,5.259263946393917,-0.7900107680774155
0,-1.338456595693225,-3.868211995929225,-0.26873637418294904,-5.999636177394179,-0.7850106999250244
0,7.442304242288448,3.1127246282589693,2.4223238823049615,6.051463790460705,-0.7800106317726367
0,3.393070376123204,4.313669354826478,3.393391467634081,3.7825638562553188,-0.7750105636202491
0,8.413841819893662,8.43462219287047,7.364466384880543,14.46366402599932,-0.7700104954678579
0,3.194618587160959,3.9555831510489403,5.36554863672714,8.44476430504957,-0.7650104273154703
0,4.465400690946316,5.296552237459122,9.416638225302298,9.615864697841713,-0.7600103591630827
0,8.936188143765085,3.7175294596704975,7.777735152061772,5.026965207862705,-0.7550102910106915
0,4.906980957593414,3.448514824799914,3.7988394177292917,4.4980658378047265,-0.7500102228583039
0,7.847779143785314,8.409508339540068,7.84995102234221,8.56916658972917,-0.7450101547059162
0,8.38858271302863,5.910510010094252,8.571069965309032,4.88026746511382,-0.7400100865535286
0,0.5993916753428035,-1.0684801578855208,1.0921962453962633,0.44136846486157644,-0.7350100184011374
0,0.9202060401994954,-3.897462159139211,-0.4966701391805286,-2.5975304105339445,-0.7300099502487498
0,-0.7489741832213466,-1.926435988456187,2.294470809495926,-1.2064291606954114,-0.7250098820963622
0,-0.07814898582024263,-0.9054016404410123,3.895619089202678,1.7346722148273468,-0.720009813943971
0,4.112681641480211,6.995640890453017,2.066774697530937,5.055773716516495,-0.7150097457915834
0,6.533517707633214,7.42669160966075,8.687937631773574,7.036875344669939,-0.7100096776391958
0,2.1243592212759568,2.7177505221978597,4.52910788879994,4.167977099169204,-0.7050096094868046
0,2.295206190641865,1.698817632567261,0.6702854649736334,0.34907897940147126,-0.700009541334417
0,3.766058623623424,5.96989294487164,5.561470356218471,10.44018098432759,-0.6950094731820293
0,7.4869165278008225,9.120976462839161,9.382662558078035,10.89128311243067,-0.6900094050296417
0,12.07777991029174,12.92206818962118,13.093862065540648,12.832385361435264,-0.6850093368772505
0,9.758648777481277,11.093168127498103,13.45506887271161,12.963487728020109,-0.6800092687248629
0,3.2795231348505407,1.934276277737737,8.81628297257423,5.324590207718664,-0.6750092005724753
0,2.580402987088728,5.795392640750184,7.007504356986982,11.315692795013257,-0.6700091324200841
0,6.261288338353294,10.726517216319701,7.7587330168610205,8.48679548347054,-0.6650090642676965
0,1.632179192405668,4.447650003615779,4.149968942340713,5.717898265794007,-0.6600089961153088
0,2.2430755526422423,1.3487910011467237,4.0812121229367655,0.5490011339264869,-0.6550089279629177
0,0.16397742217607292,-4.350059793044523,-1.2675374523149727,0.060104079312497005,-0.65000885981053
0,-1.0851151960368801,-2.3989023810173746,-0.06627979464476352,0.1812070931832797,-0.6450087916581424
0,-2.904202299067278,-3.3977367646530516,-0.885014915354208,-1.8876898332734808,-0.6400087235057548
0,2.9667161160890276,0.07343705443471493,3.5262571742636104,4.593413291136749,-0.6350086553533636
0,-6.3523599474660575,-4.0553809251357364,-5.662463537094147,-6.18548354240177,-0.630008587200976
0,0.7385695134887397,2.175809295434001,1.4388229392920038,1.51561965731386,-0.6250085190485883
0,-3.9804954976418307,-2.9829922849254045,-2.71988340775062,-4.973277118394596,-0.6200084508961972
0,-1.229554977238664,1.638214332798222,2.941417410717523,1.1478261219761108,-0.6150083827438095
0,0.6413910785093072,-6.470570852302874,-1.0372746163305648,-5.181070629884848,-0.6100083145914219
0,-3.6676573264427725,-2.0693478409665786,-2.42595949993182,0.5800326179043866,-0.6050082464390307
0,4.333299811954029,6.881883366292306,8.0853627488695,3.4011358573823185,-0.6000081782866431
0,8.634262497716293,10.19312276895237,9.926692118867761,6.9922390805601395,-0.5950081101342555
0,-0.424769265420064,-1.8156296339063411,-0.09197140161379758,-4.576657720800121,-0.5900080419818678
0,-6.123795474069904,-5.764373843651967,-8.810627824740784,-9.59555455510855,-0.5850079738294767
0,-4.282816124894094,-3.5031098617146696,-6.089277162714778,-6.644451430524799,-0.580007905677089
0,2.0381687857198476,0.4681623107505307,1.642080572664557,-2.0333483546148714,-0.5750078375247014
0,-1.1808407383497372,-1.7505573271326453,1.1034453699884275,-2.1722453343778554,-0.5700077693723102
0,2.11015530685819,1.1107312238985545,4.294817217936949,3.3288576235143186,-0.5650077012199226
0,2.38115692525871,1.6520279631437917,1.6461961050323985,2.159960512464692,-0.560007633067535
0,8.082164120598785,7.973332889813021,5.257582019531235,6.251063325729553,-0.5550075649151438
0,6.953176896255148,3.3546460028249925,3.5389749493688516,0.4321660562634697,-0.5500074967627562
0,0.9541952550632542,-2.9640326993035493,-0.529625117860564,-0.38673130328836014,-0.5450074286103685
0,12.15521919929605,5.197296781657982,12.441781805106984,11.714371239476193,-0.5400073604579774
0,14.176248730590718,12.148634443717667,17.583195705026593,16.355473676539955,-0.5350072923055897
0,8.337283849679071,10.539980284385386,11.324616567693113,11.306575998997491,-0.5300072241532021
0,5.67832455623536,8.541334300310229,6.50604437764395,10.187678196725765,-0.5250071560008145
0,10.51937084900809,6.6226964871803755,7.2974791182960494,9.238780258414694,-0.5200070878484233
0,6.380422725953634,7.374066839835175,3.7689207722451914,5.8298821717465765,-0.5150070196960357
0,6.481480184260521,4.425445352393378,6.0003693214649045,6.860983923565569,-0.5100069515436481
0,1.232543220427946,1.1568320183763232,2.9718247474094994,-3.8779144999275355,-0.5050068833912569
0,2.7636118304522093,3.028226830877112,5.053287031074775,-0.7168131128819473,-0.5000068152388693
0,12.044686009947107,10.159629782658449,11.164756152987865,4.514288070482067,-0.4950067470864816
0,11.545765753992622,11.2410408660013,13.686232093027193,7.205389035869424,-0.49000667893409044
0,13.766851056788775,11.522460072390992,7.957714830140468,4.406489768658911,-0.4850066107817028
0,6.067941911431625,3.323887392335438,9.919204342218622,-1.5124097462378443,-0.4800065426293152
0,4.419038309985158,2.7353228154885363,6.530700606179332,-5.221309524204136,-0.47500647447692756
0,5.600140243744433,8.21676633091703,6.672203598101168,8.689790419354772,-0.4700064063245364
0,12.181247703400953,15.388217927142913,12.93371329329292,7.88089006897492,-0.46500633817214876
0,14.62236067891147,14.799677591836277,10.665229666220315,6.131989408782041,-0.46000627001976113
0,17.063479159164604,22.201145311392857,18.926752690299455,14.343088422197447,-0.45500620186736995
0,15.734603131672527,15.45262107060825,14.678282337650973,10.444187091760673,-0.4500061337149823
0,17.445732582404645,20.5541048525116,15.619818578913131,10.765285398970317,-0.4450060655625947
0,10.3968674957628,8.555596638384111,11.261361383213242,4.346383324268194,-0.4400059974102035
0,18.30800785466012,15.607096407941443,16.0529107182634,6.647480847214639,-0.4350059292578159
0,16.989153640559714,18.83860413949735,16.75446655040166,16.30857794662465,-0.43000586110542827
0,8.110304833433629,9.750119809943762,6.526028844562607,-0.42032539949571257,-0.42500579295304064
0,11.101461411859065,12.691643394737712,9.957597564389792,3.87077078606227,-0.42000572480064946
0,12.242623353246737,13.13317486803717,7.469172672494657,3.571866479968839,-0.41500565664826183
0,10.593790633938575,10.364714202801494,11.060754130614768,8.462961658525465,-0.4100055884958742
0,1.5249632292419746,-0.9637386291045802,-0.4976581003337137,-2.445943702379682,-0.405005520343483
0,-1.3438588863171126,2.777816343414391,2.273935939917124,1.305150372773165,-0.4000054521910954
0,-1.5626757385587362,1.1193790910823262,-2.2544637887031374,-1.293756140658262,-0.3950053840387078
0,0.18851264668137935,-0.21905041554388438,-1.5228573263389968,-3.722663267301888,-0.3900053158863166
0,-5.180293756324988,-1.657472205994643,-8.83124471301412,-5.041571031633912,-0.38500524773392897
0,-7.009094973098005,-4.765886309767065,-3.1196259884214115,-4.850479457818637,-0.38000517958154134
0,-7.567891028746734,-3.614292756161241,-6.548001191764568,-5.3193885695872165,-0.3750051114291537
0,-13.886681947730471,-14.722691574083807,-14.46637036166144,-10.428298390155101,-0.37000504327676254
0,-14.575467753602972,-14.231082791737938,-17.014733535905066,-12.0072089420676,-0.3650049751243749
0,-8.524248468776868,-7.4094664362804386,-9.323090751110522,-4.9061202470078,-0.3600049069719873
0,-1.0730241145339412,-2.5278425337718113,-0.8814420426467833,2.924967674167987,-0.3550048388195961
0,-12.441794711303336,-12.796211109426292,-7.039787444975529,-10.733945198867442,-0.3500047706672085
0,-8.670560278822913,-8.084572187737926,-9.508126991966272,-3.9128588860703974,-0.34500470251482085
0,-5.629320836052401,-1.1229257924228047,-4.54646071689395,0.758226593044443,-0.34000463436242967
0,-15.708076401092939,-13.191271946467184,-13.444788652316788,-12.500688780593775,-0.33500456621004204
0,-13.64682699108714,-7.619610672173767,-7.543110829979222,-4.139605025593159,-0.3300044980576544
0,-4.115572622056736,1.3220580088906266,-4.4714272807550115,1.7414778399905484,-0.3250044299052668
0,-13.164313308927852,-6.316265924228202,-10.349738034715427,-3.737440201467325,-0.3200043617528756
0,-17.85304906561896,-10.044582492051898,-14.028043121165393,-11.036359167319905,-0.315004293600488
0,-9.17177990489365,-3.4728917145913387,-3.9863425685110725,-2.8452790745146452,-0.31000422544810036
0,-1.3605058382862634,7.858806388691917,-0.014636404269794179,10.75580006048803,-0.3050041572957092
0,-4.509226876420598,3.4405117985338816,-3.632924655386157,4.296878221335248,-0.30000408914332155
0,-11.257943029360291,-5.497775504520989,-10.761207348467757,-3.7020446086643632,-0.2950040209909339
0,-1.936654306629225,2.5839444598938837,-2.339484509688548,5.569031553452513,-0.29000395283854274
0,-4.675360717146698,0.695671672147239,-3.8777561646602874,4.200106690452824,-0.2850038846861551
0,-3.7340622693226937,-1.6825938873805053,-1.8060223385196323,3.5211807848407517,-0.2800038165337675
0,-3.3927589711694557,-2.5908522383068275,-2.7142830560786226,-0.14774618123107863,-0.27500374838137986
0,-3.771450830331185,-1.1291034001506572,-5.222538341876748,-5.186674225839717,-0.2700036802289887
0,-5.400137854084374,-3.2673473922520433,-5.110788220128451,-2.2356033670279847,-0.26500361207660106
0,-7.648820049284243,-1.5255842337476646,-6.379032714617026,3.8454663773636413,-0.26000354392421343
0,-9.757497422230431,-3.0438139435557767,-8.287271848589585,-8.553465010337911,-0.25500347577182225
0,-6.596169978511111,-7.282036540334113,-8.825505644648413,-11.212397547583436,-0.2500034076194346
0,-6.804837722936783,-5.020252042364251,-4.513734124664197,-5.501331251284985,-0.245003339467047
0,-5.483500659593566,-3.5884604674341922,-5.061957309803869,-7.370266137581216,-0.24000327131465582
0,-8.052158791916813,-5.026661832834816,-8.370175220629884,-9.60920222184666,-0.2350032031622682
0,-10.920812122672546,-3.414856155416067,-8.428387877100969,-10.788139518684995,-0.23000313500988057
0,-4.679460653863811,-6.5630434516031615,-5.786595298478889,-11.487078041802825,-0.2250030668574894
0,-6.278104386712652,-4.551223737364934,-9.604797503283491,-3.3860178039337163,-0.22000299870510176
0,-6.986743321760194,-3.539397028184184,-6.9129945092910425,-1.724958816977435,-0.21500293055271413
0,3.2646225410129306,2.5824366608736185,3.70881366641105,4.976098907646982,-0.2100028624003265
0,3.72599320196021,1.1642773149530121,1.4906270071576007,3.9471553585909316,-0.20500279424793533
0,-6.222631338528659,-2.3338750807960245,-5.347554503628949,-0.16178947570866553,-0.2000027260955477
0,-6.881251080043357,1.0079794587433897,-7.575730882452488,-1.7307356070552293,-0.19500265794316007
0,-6.189866021851908,-5.840159081259766,-7.203902145452123,-6.329683047291863,-0.1900025897907689
0,-10.36847616262807,-8.258290715430963,-9.86206830813358,-5.188631808033104,-0.18500252163838127
0,-1.8970815003499863,3.35358454198788,-0.20022938528104817,3.9424180994835676,-0.18000245348599364
0,1.7043179676112283,5.785466677075753,0.08161460890750094,10.533466664214485,-0.17500238533360246
0,-2.584277755781583,0.2573556758833673,-5.636536339442259,0.08451387487977569,-0.17000231718121483
0,-2.6828686674394375,-1.9207484757758873,-3.73468224398271,-3.1544402802320626,-0.1650022490288272
0,-3.9714547641193096,-1.6488457922024495,-2.062823118057615,2.7366041869434774,-0.16000218087643958
0,2.749963957652402,-0.41693628762548984,2.309041025298648,1.7776472644428167,-0.1550021127240484
0,0.49138750150527344,-1.1850199761513331,-1.4890898267948627,1.8686889402240494,-0.15000204457166078
0,6.852815871028016,6.606903128169431,5.452784312772618,8.219729202037158,-0.14500197641927315
0,12.95424906950264,12.898833011110227,9.274663430933305,8.050768037254972,-0.14000190826688197
0,13.44568709953511,13.270769657839692,16.5865475141156,6.591805432657313,-0.13500184011449434
0,11.017129962693463,12.362713052503096,10.318436547818662,9.24284137430177,-0.13000177196210672
0,8.39857765937822,12.504663178029425,10.190330516363389,9.66387584747496,-0.12500170380971554
0,3.0100301889581864,-0.38337998380782556,8.332229402934482,0.6949088366768568,-0.12000163565732791
0,9.871487550011928,9.67858354787673,8.27413318973888,5.175940325740839,-0.11500156750494028
0,14.002949740410646,14.730553753277174,13.516041858084387,11.456970297987333,-0.11000149935255266
0,8.364416757148755,8.052530611759583,6.9379553883402165,7.157998736149538,-0.10500143120016148
0,4.9858885962163155,2.074514101709895,4.169873759935323,-0.5909743777590823,-0.10000136304777385
0,10.797365252709705,4.896504200721797,10.071796951502831,3.160050937698383,-0.09500129489538622
0,0.03884672099093811,-1.5114991140824992,-0.8262750589679562,-7.098925336297559,-0.09000122674299504
0,4.460332994827116,4.14050413415236,4.0456577059961,1.7420967814512949,-0.08500115859060742
0,7.641824067535594,5.7625139220691635,7.457595223483706,6.1231172722493845,-0.08000109043821979
0,0.9733199320120275,6.154530225988667,3.2395374701932655,4.654136117313714,-0.07500102228582861
0,8.254820580690284,14.996553021688282,9.311484422321712,11.77515329745341,-0.07000095413344098
0,-2.93367399442807,3.06858228417118,-1.7265639444748566,-1.8538312071274547,-0.06500088598105336
0,2.23783619834484,3.120617987614108,-2.1846076549494224,-1.612817416750886,-0.06000081782866573
0,2.5793511505268993,-1.0473398943905547,0.5773532660113143,-0.27180535194524347,-0.05500074967627455
0,0.43087085350994964,-0.3452913885029387,-3.260681206408413,-3.3607950331792633,-0.050000681523886925
0,-4.337604701429096,-6.223236521393198,-4.868711096872678,-9.909786480719209,-0.0450006133714993
0,0.12392447699921205,0.14882468043816233,-2.71673642979213,-6.418779714411612,-0.04000054521910812
0,-1.454541619777332,-3.119107809251802,-4.4247572292305675,-8.197774753451345,-0.03500047706672049
0,-3.453003000176051,-7.717034016434868,-2.68277351889005,-12.946771616258532,-0.030000408914332866
0,-1.6314596724438997,-6.984953966704193,0.9192146778445313,-11.975770320348929,-0.025000340761941686
0,-3.2299116446074354,-8.182867685076111,-8.158792662162147,-16.084770882137438,-0.02000027260955406
0,-6.938358924419997,-11.500775195835507,-6.87679556174617,-15.733773316748401,-0.015000204457166433
0,-3.2768015192670807,-7.028676522428444,-3.244794043264387,-11.722777637893921,-0.010000136304778806
0,1.3747605638791722,1.8834283125205364,1.3572118714413497,-2.6017838579452306,-0.005000068152387627
0,4.576327318293566,0.8755392869224117,1.379222160823433,-5.160791988269642,0.0
0,-0.05210126278818661,-3.0523436211422035,-0.7687631966233597,-5.15980203960096,0.005000068152387627
0,2.7794748136730374,0.6797795664424177,-1.7567442224384897,1.4511859777670537,0.010000136304778806
0,-5.858944459433537,-0.7380911721412853,-2.3647209381180225,0.5821720538316422,0.015000204457166433
0,0.38264091079374807,-0.525955858645641,-1.442693365017171,-5.30684382128763,0.02000027260955406
0,4.754230917364794,4.636185485190672,2.789338475660867,3.5241383426112773,0.02500034076194524
0,-3.804174446691314,0.08833283754854704,0.5013745627628767,3.295118535795513,0.030000408914332866
0,-2.0325751883877596,1.4504861764459407,2.3934148750565125,0.38609674844657993,0.03500047706672049
0,6.099028685295361,3.392645479731812,2.235459391160078,5.6570729705280245,0.04000054521911167
0,3.8406371673440676,3.034810725070617,3.4675080894997,-2.5719528082343164,0.0450006133714993
0,3.1122502504819756,1.2169818898858553,2.8595609482566564,-2.2309805982744155,0.050000681523886925
0,2.953867927062056,2.5791589513533135,0.8116179453419913,1.3399895899734209,0.05500074967627455
0,5.095490189090385,5.891341886411004,3.003679058426167,3.170957746132931,0.06000081782866573
0,0.41711702823916047,0.7935306717064006,-1.1342557350069742,-3.2180761402087126,0.06500088598105336
0,0.11874843589251083,2.4057252835676644,-0.682186457588712,-4.787112079491942,0.07000095413344098
0,5.730384403239896,8.417925698024785,6.399886867990663,3.0238499179733958,0.07500102228583216
0,2.862024921267887,0.040131890759592004,1.501964218910119,-1.535190157953112,0.08000109043821979
0,-0.6263300193173076,-1.0076561629119305,-1.3659544278898887,-9.834232317288699,0.08500115859060742
0,9.555319571902684,9.354561512072776,8.226130904307713,3.8367234301769457,0.0900012267429986
0,8.366973684980838,12.286784890458133,8.798220191940453,0.9076770749334124,0.09500129489538622
0,-0.9813676905788784,-0.2009860536268362,0.17031341095419839,-10.561371392378849,0.10000136304777385
0,-3.639704565760745,-6.018751346681934,0.6024105367736253,-9.170421980872991,0.10500143120016148
0,-3.2880369516666446,-5.366511015376643,-1.5354884554524881,-10.359474699035458,0.11000149935255266
0,-0.026364859212384295,-0.6242650860959951,2.496616409367119,-2.438529554498914,0.11500156750494028
0,-4.034688299073701,-3.4320135848451008,-3.531274893675226,-6.06758655413384,0.12000163565732791
0,-5.593007281690831,-7.779756537307988,-7.339162389413967,-10.026645704204512,0.1250017038097191
0,-2.1813218171866393,-3.9174939687821153,-1.6770461024170866,-5.005707010356604,0.13000177196210672
0,-7.079631915284862,-6.275225904059858,-4.854926056843293,-5.384770477552096,0.13500184011449434
0,-12.567937585219976,-9.622952367368644,-9.252802276415233,-9.183836110102192,0.14000190826688552
0,-5.766238835539437,-7.2406733822855465,-5.980674784330937,-4.932903911684505,0.14500197641927315
0,-7.554535673959553,-7.488388971637542,-12.608543603099653,-6.041973885322801,0.15000204457166078
0,-4.95282810742293,-1.7860991575212775,-5.656408754415727,-8.501046033405434,0.1550021127240484
0,0.4888838577387077,4.356196038492008,2.40572974081209,1.1698796422761355,0.16000218087643958
0,3.050600215563022,2.5184965950012863,-1.312128137825444,3.180803140370003,0.1650022490288272
0,-1.1276790398311556,-5.169197509494364,-1.2299824105715063,-0.8282755403467588,0.17000231718121483
0,-9.835953914330606,-11.176886296489066,-10.937833097548953,-12.597356401093425,0.17500238533360601
0,-3.274224413598874,-1.9445697870920424,-4.435680218525021,-2.886439442819015,0.18000245348599364
0,-7.002490542808874,0.007751998153726181,-1.06352379271499,-4.415524665914638,0.18500252163838127
0,-8.210752306546944,-4.039920960895765,-5.101363838841293,-10.1046120701849,0.19000258979077245
0,1.6509902911857477,6.482411315789526,3.4907996246900717,4.096298345094832,0.19500265794316007
0,-7.137262753118398,-5.235251191726961,-8.03703342032372,-13.022793418876914,0.2000027260955477
0,-6.295511442572394,-7.382908503348014,-8.564862991834438,-13.061887360381691,0.20500279424793533
0,-1.2037557798580516,-0.8405606387334805,1.7573108926436491,-5.510983476911974,0.2100028624003265
0,-0.1019957672339099,1.3317923828269356,1.639488216030831,-2.4900817650415963,0.21500293055271413
0,2.909768593267458,0.21415054225211239,0.3716689613985197,-1.839182220673745,0.22000299870510176
0,9.761537299554288,6.996513820429821,7.853853111710732,2.8817151606202995,0.22500306685749294
0,-5.046689650768649,-3.3311178019372614,-3.373959350303463,-2.6573896166235293,0.23000313500988057
0,-5.334912260367828,-5.118744344303211,-4.791768442109546,-3.7664965478267747,0.2350032031622682
0,-2.2231305318377075,-1.2263658260399142,-4.529574181099031,0.9643943717128667,0.24000327131465937
0,-2.921344467441969,-2.423982266249102,-6.217376584305884,5.865283146823367,0.245003339467047
0,-7.4995540690861855,-8.121593683734408,-7.785175668262572,-6.813830217696162,0.2500034076194346
0,-4.307759338273282,0.10079990304741382,-2.842971448928087,-0.3229457170933219,0.25500347577182225
0,-6.06596027600605,-6.696801523959017,-7.730763941681736,-4.492063346480471,0.26000354392421343
0,-0.8741568827762867,-5.634397982402823,-2.2785531613694068,-3.2511831006986727,0.26500361207660106
0,-4.812349158653176,-2.5819894894885267,-2.256339122368762,-0.650304974292425,0.2700036802289887
0,5.42946289658422,7.160423937966853,6.605878161246089,6.4105710384006125,0.27500374838137986
0,11.80127928318674,5.662842283209777,9.288098675368587,7.1214449429737625,0.2800038165337675
0,4.933100001011953,2.9852655291662527,5.090322405462518,3.6423167446259113,0.2850038846861551
0,5.024925049232654,2.7676936583072367,7.4325493363360415,12.853186447977128,0.2900039528385463
0,0.4667544263959641,0.5501266527423689,2.1347794521509638,7.684054056941972,0.2950040209909339
0,6.46858813062254,6.952564494317299,6.207012736527336,13.954919574561243,0.30000408914332155
0,6.340426159667551,4.765007164573666,4.929249172614037,9.005783002865385,0.3050041572957092
0,0.21226851085220483,0.027454644652700644,-0.2685112568824002,7.0266443428476135,0.31000422544810036
0,-6.005884818862902,-4.55009308462394,-2.6762685695768376,-0.8824964053803717,0.315004293600488
0,-1.8840338325608879,1.0023639575105265,2.2459772168193535,6.398360757714967,0.3200043617528756
0,-1.5221785330941802,-4.365174248038287,-2.0717739153730035,4.199215831291928,0.3250044299052668
0,-5.010318923033899,-3.5527077201628288,-9.019521983742942,-2.1499311858353822,0.3300044980576544
0,-6.96845500464858,-6.0202364774696475,-6.91726700558046,1.8309197048847055,0.33500456621004204
0,-8.936586779751234,-9.477760538130992,-4.645008997612575,-5.3082314980713114,0.3400046343624332
0,-11.734714249479786,-11.485279919685425,-13.382747975886787,-8.12738479608818,0.34500470251482085
0,-9.002837414105073,-9.362794638820324,-11.24048395566321,-5.766540190155215,0.3500047706672085
0,-6.7309562729489745,-9.070304711252852,-8.198216951234233,-4.085697680681424,0.35500483881959966
0,-8.159070824450776,-2.977810151781778,-8.055946975878781,-3.4048572675147195,0.3600049069719873
0,-4.30718106628821,-2.7453109744873205,-4.943674041994823,-5.624018950046795,0.3650049751243749
0,-0.7452869955128631,-4.442807192969283,-3.9113981612737794,-6.4631827272338285,0.37000504327676254
0,-6.893388608719186,-6.0002988204545495,-8.419119344833879,-8.33234859751093,0.3750051114291537
0,-11.311485902083142,-5.6377858697423235,-10.066837603214708,-8.371516558665398,0.38000517958154134
0,-11.369578871139876,-12.405268353075078,-12.584552946201228,-13.550686607702007,0.38500524773392897
0,-10.747667510496473,-9.502746281955973,-11.512265382605262,-6.479858740708447,0.39000531588632015
0,-13.435751813684021,-11.540219666959674,-14.799974920112094,-5.959032952828432,0.3950053840387078
0,-4.913831773137868,-5.257688517664275,-4.427681565231327,-0.7782092384381027,0.4000054521910954
0,-4.951907380321842,0.384847157206373,-2.595385323451395,0.5226124085598685,0.4050055203434866
0,-5.489978625973893,-4.182612650524568,-6.9430861995629956,-3.3065680055166764,0.4100055884958742
0,-2.968045500297593,-1.4900679487387456,-3.1807841978756377,1.1142495257601188,0.41500565664826183
0,0.4338920069241241,3.2924812548738513,2.4715206777073426,2.905065008885855,0.42000572480064946
0,3.895833906146145,3.05503495267833,1.143828423516525,1.985878450310151,0.42500579295304064
0,11.877780207746234,10.057593136845748,9.796139035824476,10.746689856255516,0.43000586110542827
0,11.039730921610719,9.280155799062978,11.298452510513775,8.487499232481175,0.4350059292578159
0,1.051686056819388,2.1927229303156763,-0.14923115720795477,4.918306584051126,0.4400059974102071
0,6.693645621669296,4.485294520906367,4.673088027183862,7.659111915278967,0.4450060655625947
0,0.955609623909328,-4.672129439310572,0.875410057765328,3.959915229816028,0.4500061337149823
0,-0.6724219290683113,1.0604510393527737,-4.172265071619237,4.0307165307413,0.4550062018673735
0,1.3495509699323833,1.773035946595913,0.21006263282996662,0.7815158206699444,0.46000627001976113
0,8.041528327986338,4.365625272096174,3.662393164987947,4.742313101878776,0.46500633817214876
0,4.653510151905379,6.108219005325357,4.214726518703473,3.5031083763570123,0.4700064063245364
0,3.6154964480436083,7.050817135354453,0.15706268760822328,1.2939016457839927,0.47500647447692756
0,3.7074872222704447,7.113419650699219,-1.7305983349038416,1.0946929115525121,0.4800065426293152
0,0.189482480069381,-1.1839734607235308,-2.8682565555098214,-4.894517825102898,0.4850066107817028
0,4.541482226640086,3.988637788538866,-1.685911980772969,4.266269437052684,0.490006678934094
0,6.323486466913777,10.81125338560318,8.956435382875947,8.357054699243854,0.4950067470864816
0,9.775495205415018,10.393873317099542,6.838785528888373,9.34783796239118,0.5000068152388693
0,11.137508446019869,11.266497568851372,9.741138450221278,6.048619226771542,0.5050068833912604
0,8.449526191743008,10.949126125673946,12.163494139062692,11.54939849187331,0.5100069515436481
0,11.101548444642429,12.34175897131028,12.725852586650072,14.730175756314324,0.5150070196960357
0,10.773575205800643,13.53439608838281,11.438213783118153,17.330951017622223,0.5200070878484233
0,15.175606475266358,14.937037458307362,11.09057771743524,15.88172427194965,0.5250071560008145
0,14.337642251916266,21.47968306114371,19.172944377381047,17.07249551389654,0.5300072241532021
0,13.919682533308576,16.792332875375877,13.835313749422994,15.943264736458113,0.5350072923055897
0,7.631727315657382,12.134986877774377,8.287685818601066,10.514031931061465,0.5400073604579809
0,10.0437765939798,10.617645043522097,7.400060568668546,5.364797087750013,0.5450074286103685
0,7.065830362300085,0.8103073465554408,1.3824379824337107,-5.264439804407578,0.5500074967627562
0,7.267888613788926,9.272973759949078,11.854818042042636,3.636321243214375,0.5550075649151474
0,-0.8400486591041834,-2.614355743794323,0.31720072906958185,0.9570802191447949,0.560007633067535
0,5.752018535557023,3.378318807447932,6.659586024528828,5.257837111820054,0.5650077012199226
0,6.814090189338017,4.020997385556543,5.411973908930802,11.858591909384712,0.5700077693723102
0,-9.29383370653906,-6.196320037764192,-4.205635637643415,-6.680655400502339,0.5750078375247014
0,-5.641753160975215,-4.663633490843942,-4.493242635344769,-8.56990483053416,0.580007905677089
0,0.97033181739836,-0.6309430017870707,-0.21084710423221598,-2.7991563932550028,0.5850079738294767
0,-2.3275787796677108,-2.078248598373171,-0.6884490641217826,-1.758410100726679,0.5900080419818678
0,1.3245150397840462,-1.5755503081472968,1.5139514653207835,0.48233403538057223,0.5950081101342555
0,-3.553386732203636,-1.8628481584850816,-0.7636455355448577,1.4230760035605385,0.6000081782866431
0,2.2187158964872618,-1.5801421765952635,4.238759913596503,3.0238157922963333,0.6050082464390343
0,-3.7291770819446457,-0.7774323895242548,-0.2288322070465496,-1.485446610046702,0.6100083145914219
0,-2.557065675197026,-0.6347188241828912,0.283578082592982,4.9352887847550395,0.6150083827438095
0,-0.9049498907960771,-1.482001507379418,-1.5840092375054113,-3.9339780351992344,0.6200084508961972
0,-5.152829736043779,-8.649280465781656,-7.391594187309234,-16.80324708177468,0.6250085190485883
0,-7.2707052179541725,-7.956555725723877,-7.72917678650661,-5.0625183663639755,0.630008587200976
0,-6.688576343098036,-4.083827312965876,-6.1567570542530605,-10.53179189949269,0.6350086553533636
0,-8.026443117437372,-5.82109525262236,-10.454335009018594,-18.87106769069693,0.6400087235057548
0,-13.084305546206798,-6.338359569232,-7.241910668516391,-11.160345748375333,0.6450087916581424
0,-9.002163633766797,-7.815620286771029,-5.269484049672329,-8.449626079626265,0.65000885981053
0,-10.380017383481434,-3.9628774286030524,-5.4270551686943165,-16.308908690311945,0.6550089279629212
0,-7.6878667977187805,-2.830131017502705,-7.674624041178895,-13.738193585118415,0.6600089961153088
0,-2.2457118779680822,0.40261892419556156,-3.022190682146653,-8.537480767475753,0.6650090642676965
0,-3.6435526250531654,-4.274627625579018,-3.609755106077997,-6.266770239617493,0.6700091324200876
0,-3.271389039356912,-5.4918706886813,-5.77731732699995,-11.556062002808378,0.6750092005724753
0,1.5707788790425885,5.1208897132998885,1.3451226414451782,-3.9253560574877207,0.6800092687248629
0,-1.8470488697378524,1.173653558946209,0.8575647858943957,-3.5146524033508237,0.6850093368772505
0,3.3251277144876594,6.75642082674228,3.330009093057127,1.6660489604453863,0.6900094050296417
0,2.0273086318609974,5.869191494838332,1.892455549521245,5.856748034961928,0.6950094731820293
0,6.699493882347732,12.101965540861428,6.294904141639522,6.467444821126577,0.700009541334417
0,6.501683465566975,10.68474294169279,7.4673548554105205,5.4581393194432595,0.7050096094868081
0,6.903877380622975,14.617523673238276,8.389807676303567,8.548831529841832,0.7100096776391922
0,8.876075625985035,14.820307710236921,9.402262589088858,12.809521451573666,0.7150097457915834
0,5.86827819941913,10.263095026136387,8.804719577727372,10.120209083031675,0.7200098139439746
0,11.440485097946887,17.13588559306782,14.217178625285898,14.220894421566687,0.7250098820963586
0,1.4526963178297794,5.958679381883895,2.899639713865673,1.3015774634415265,0.7300099502487498
0,11.354911854610114,12.251476362251564,8.10210282465702,8.642258203990945,0.735010018401141
0,14.877131703095573,13.994276502756732,15.99456793804981,12.542936637807115,0.7400100865535251
0,8.639355857159114,9.787079770887974,11.937035033518631,6.643612758702561,0.7450101547059162
0,15.041584309543005,15.359886132956248,13.799504089364142,15.924286559554417,0.7500102228583074
0,7.00381705183365,5.882695554089683,11.291975082607328,8.234958032201213,0.7550102910106915
0,8.076054074547029,8.70550799833556,11.464447989032239,12.765627167383471,0.7600103591630827
0,10.248295367265627,10.038323428819606,7.186922783278793,1.3262939547934196,0.7650104273154739
0,5.990540918728541,3.561141807846467,7.499399438988443,7.496958383281874,0.7700104954678579
0,7.562790716869496,6.873963096977944,6.431877928970404,1.9476204410956088,0.7750105636202491
0,6.63504474887987,7.556787257134662,6.604358225318283,11.21828011598165,0.7800106317726403
0,7.987303001256352,11.78961424858268,10.086840299442134,13.908937395067639,0.7850106999250244
0,6.209565459800408,5.8124440308003855,4.999324122032384,10.529592264575452,0.7900107680774155
0,12.621832109585982,9.315276562411402,7.451809663043912,13.610244709594467,0.7950108362298067
0,9.434102934860475,5.6981118012323755,10.824296891715758,15.190894713998624,0.8000109043821908
0,16.786377918878536,15.430949704293624,19.536785776449072,19.711542260333612,0.805010972534582
0,22.51865704365896,22.78379022764058,18.97927628444637,20.92218732958726,0.810011040686966
0,12.040940289679265,7.916633325956508,7.7617683813781255,5.432829901032045,0.8150111088393572
0,13.373227635753404,9.899478952428968,12.26426203141619,11.563469952400848,0.8200111769917484
0,20.045519059157325,18.872327058951484,21.556757197437822,20.74410746019077,0.8250112451441325
0,17.2778145356547,16.125177596166736,14.079253840957062,11.274742399643095,0.8300113132965237
0,15.50011403936293,13.948030513261202,9.631751921953095,2.255374744638269,0.8350113814489148
0,10.472417542757427,6.7208857579317804,5.704251399021918,4.476004467987229,0.8400114496012989
0,13.954725016864732,6.953743276652422,11.496752229724665,6.816631541867053,0.8450115177536901
0,10.977036431439489,9.936603014983787,9.12925437075828,9.87725593794182,0.8500115859060813
0,17.349351755004136,14.82946491765168,17.371757777874137,13.79787762717917,0.8550116540584654
0,12.101670954780603,9.422328928390307,12.28426240567758,10.198496579594625,0.8600117222108565
0,1.2939939967020229,4.42519498985134,5.406768207515009,3.099112764150533,0.8650117903632477
0,5.486320845705275,2.1380630437998698,2.0392751356614047,-0.9502738510293258,0.8700118585156318
0,9.258651466089702,7.220933031423693,7.881783141691677,3.99033670173232,0.875011926668023
0,4.830985821594137,8.273804893440913,9.124292176652304,9.10094438985714,0.8800119948204141
0,-7.9666761245912685,-2.6933214299579396,-1.5431978089935394,-3.0584508195776223,0.8850120629727982
0,-19.454334409399486,-14.770445998918149,-15.030686865191218,-12.787848959766045,0.8900121311251894
0,-19.30198906905499,-12.717568873294827,-12.208175041659555,-17.627250063617954,0.8950121992775806
0,-15.319640138344031,-12.474690112002657,-10.095662387227549,-10.636654163062872,0.9000122674299647
0,-13.787287650368114,-12.551809772735592,-6.203148949619198,-17.496061288690836,0.9050123355823558
0,-18.7249316366312,-17.83892791191784,-13.310634775568827,-12.525471469693752,0.9100124037347399
0,-16.122572127088727,-16.136044584601393,-12.178119910865673,-13.054884733873854,0.9150124718871311
0,-12.890209150112117,-15.303159844318774,-11.205604400235483,-10.894301107700583,0.9200125400395223
0,-16.497842732529563,-16.250273743030725,-13.06308828724481,-11.373720616420451,0.9250126081919063
0,-10.105472899728335,-19.187386331124827,-14.42057161426738,-13.85314328412646,0.9300126763442975
0,-3.8530996758117277,-7.814497657409374,-4.7680544224725026,-3.532569133792575,0.9350127444966887
0,-11.20072308387143,-17.3416077692069,-13.985536751915147,-10.931998187390997,0.9400128126490728
0,-4.2683431462130965,-15.6787167124706,-6.373018641666,-2.881430466074131,0.945012880801464
0,0.92404011552024,-10.57582453176698,-4.150500129900543,1.5191340096358497,0.9500129489538551
0,12.316426680040435,-1.5229312703529367,2.0020187458970735,9.05969521951781,0.9550130171062392
0,0.24881652589614767,-11.660036970503674,-6.825462051372584,-3.559746856767261,0.9600130852586304
0,-3.708790368793781,-14.357141673714436,-9.252942558519614,-5.24919223978989,0.9650131534110216
0,0.5736059738614032,-7.1642454205598,-5.6504228118685775,-2.5986409500770873,0.9700132215634056
0,-5.123994468175335,-8.21134825057217,-11.01790284704733,-7.368093007824075,0.9750132897157968
0,0.708408283246649,-5.448450202368604,-8.615382698889656,-3.4075484327817693,0.980013357868188
0,-3.30918579352282,-8.975551313816867,-10.242862401360803,0.06299275574583563,0.9850134260205721
0,-8.356776719907321,-13.272651622042865,-11.74034198748766,-5.88646946119088,0.9900134941729632
0,-10.954364516925263,-13.839751163254437,-9.897821489299927,-4.9959351022425125,0.9950135623253544
0,-3.751949204924069,-10.086849972524428,-8.62530093780301,-6.095404185666611,1.0000136304777385
0,2.490469196448993,-10.733948083731192,-8.942780363027982,-3.2648767292267853,1.0050136986301297
0,-3.387109332038725,-9.411045529648238,-10.170259794098678,-3.6843527502047495,1.0100137667825209
0,-1.924684809458673,-6.038142342061062,-4.427739259267325,-7.553832265448292,1.015013834934905
0,-1.6922572547389887,0.7847614480536959,0.6247812139596826,1.966684708617926,1.0200139030872961
0,-3.4598266866081486,-5.022334189754095,-4.342698401448987,-7.052801844050107,1.0250139712396802
0,-0.7373931235763909,-7.429429285591318,-7.970178132223456,-11.82229193911815,1.0300140393920714
0,-3.304956583936786,-8.81652386912922,-9.587658004671026,-3.5117855916870475,1.0350141075444625
0,0.5274829142165522,-1.2436179694276963,-0.8751380444670824,-2.3512828161661212,1.0400141756968466
0,-0.08007464706310974,-4.1207116149579,-0.6726182766908548,-4.770783626419137,1.0450142438492378
0,3.682370714322584,-2.0178048337729324,-4.640098726062974,3.369711964028945,1.050014312001629
0,2.3148189803786012,-2.7248976536255975,0.4824205829102548,-2.0297960581635355,1.055014380154013
0,9.61727013285908,7.858009897931414,4.274939625875933,4.020692293694282,1.0600144483064042
0,5.409724153077412,7.060917793284708,5.637458378442221,0.4411770062135958,1.0650145164587954
0,1.2421810217773361,2.993826004422485,2.7299768159237088,1.191658065869646,1.0700145846111795
0,2.1446407192137427,-0.9832654971668244,1.1724949132484097,2.6021354589912584,1.0750146527635707
0,2.1471032253402225,-4.900356740270051,-1.074987354940717,-5.53739082820132,1.0800147209159618
0,-3.3404314800629153,-10.837447753568718,-10.662470014053248,-7.336920809434796,1.085014789068346
0,-0.6279634172684856,-1.1245385652889204,-1.5199530892357456,3.0835455018554123,1.090014857220737
0,-5.735492606442286,-7.211629203064165,-7.517436605143487,-2.0459919074417487,1.0950149253731283
0,-18.723019067405428,-21.34871969388766,-19.904920585805765,-17.485533050181076,1.1000149935255124
0,-1.3805428192693059,-6.005810063839215,-1.7424050543799745,-3.1550779387282026,1.1050150616779035
0,4.331936119689036,-0.8529003378850037,6.31010996689986,13.705373415214337,1.1100151298302947
0,5.154417731597134,-1.1699905401801123,1.4226244562315775,11.08582100009635,1.1150151979826788
0,2.8569019984291497,-0.607080694539968,0.4951383917084615,7.966264803732065,1.12001526613507
0,1.4993889017948892,3.2958291753146605,4.027651751192193,14.846704812931437,1.125015334287454
0,-2.6481215769723243,-1.2212609543538577,-3.27983548762481,8.42714101344752,1.1300154024398452
0,-3.105629456611484,-4.448351107324878,-5.277323347105967,4.657573389995612,1.1350154705922364
0,-5.583134755709316,-9.455441307243726,-6.014811849430855,-5.551998073506148,1.1400155387446205
0,-6.000637492510905,-7.882531577305453,-6.25230101634639,-4.921573393440358,1.1450156068970117
0,-6.318137684781401,-10.889621939985561,-8.179790869029235,-8.54115258597982,1.1500156750494028
0,-5.06563534972701,-9.406712416891923,-12.237281427975365,-6.50073566676292,1.155015743201787
0,-3.353130503999376,-3.913803028732095,-5.884772712859241,-6.940322650761901,1.160015811354178
0,-1.5306231637834617,-0.8108937954567222,-3.27226474250783,-5.209913552272887,1.1650158795065693
0,-2.6881133449266192,-0.017984736558121495,-2.5097575350903694,-1.279508384993371,1.1700159476589533
0,1.194398936950768,-3.0150758713277512,1.5827488916127495,-4.029107162166455,1.1750160158113445
0,-3.0530863336267413,-8.272167218888974,0.025254519989605817,-2.5687098967055846,1.1800160839637357
0,-3.1305691720097784,-5.739258798013184,-0.40224066754665344,-6.51831660121185,1.1850161521161198
0,-4.428049593346882,-6.256350626918362,-3.3197366885770627,-9.037927287872726,1.190016220268511
0,-11.145527612429508,-8.133442723191116,-7.207233560553485,-11.607541968259971,1.1950162884209021
0,-5.793003243486075,-5.590535103767168,-6.2847313005831085,-13.647160653075046,1.2000163565732862
0,-9.750476500010427,-6.067627784924992,-10.022229925212505,-9.066783351947738,1.2050164247256774
0,-6.097947394711697,-2.6147207823387904,-6.789729450277521,-6.826410073409861,1.2100164928780686
0,-3.485415939564382,1.2281858887806425,-2.8572298908682647,-5.5160408250586785,1.2150165610304526
0,-1.1328821459557052,1.6910922134595632,1.4252687385164209,-0.9856756137980862,1.2200166291828438
0,2.439653975075166,1.1839981767317467,-0.24223357632482045,0.28468555391302897,1.225016697335235
0,0.8021924125879731,-2.643096236457733,-2.3797368495141034,-1.7549573281681579,1.230016765487619
0,-4.015266844392851,-7.120191041147863,-5.807241095088694,-5.824604266159554,1.2350168336400102
0,-5.212723806795263,-4.48728625211952,-6.504746326820693,-4.104255265948593,1.2400169017923943
0,-4.990178485277446,-4.8443818836975785,-6.182252558014586,-4.323910333042976,1.2450169699447855
0,-6.837630890051393,-10.391477949672359,-8.299759801380283,-2.2135694725290405,1.2500170380971767
0,-3.4450810308074993,-6.068574463214459,-3.6572680689837114,-4.083232689121131,1.2550171062495608
0,0.027471083250142136,-6.07567143678485,-8.394777372257282,2.337100012762868,1.260017174401952
0,0.520025443236489,-1.3027688821844932,-4.0722877220308416,3.5774286288557637,1.2650172425543431
0,1.232582040370998,-3.5298668107280475,-1.6997991285784768,2.3177531548166033,1.2700173107067272
0,2.2951408658302435,-0.9169652334061549,-1.0773116017508624,8.088073586035954,1.2750173788591184
0,3.337701910656934,2.975935838992359,1.295174848832038,7.618389917475251,1.2800174470115095
0,2.4702651656801597,1.3888363957251988,-2.082339786363054,-4.6212978564353335,1.2850175151638936
0,1.102830621477086,0.41173642594880183,-3.4298555168085545,1.5690102583480392,1.2900175833162848
0,-2.4746017315724367,0.864635918686709,0.042627648157463505,-4.330685744208509,1.295017651468676
0,-5.632031903114902,-7.822465137077931,-4.194890300610472,-5.740385869989563,1.30001771962106
0,-5.81945990257562,-8.029566752172656,-9.70240937200193,-3.5100901245706635,1.3050177877734512
0,-6.906885738936855,-0.856668936962176,-5.559929574463296,-5.799798513100722,1.3100178559258424
0,-4.854309420618372,-3.113771701292698,-5.827450915813791,-6.969511040250844,1.3150179240782265
0,-1.7117309554831057,-2.340875054645974,0.83502659672916,-9.709227710130673,1.3200179922306177
0,-1.0391503509647855,2.492020993721669,-4.6624970436365425,-2.498948526181279,1.3250180603830088
0,6.293432385712444,7.374916434614731,7.239978156501758,9.491326508718963,1.330018128535393
0,-0.9839827527135702,4.417811258616231,1.8024521905548798,2.9615973918130813,1.335018196687784
0,-0.03139577367475421,-3.309294544094092,-4.785074948237116,-7.4581358799098405,1.3400182648401682
0,1.2111933152787797,6.233599016349977,7.517396733222831,8.852126690343262,1.3450183329925594
0,-6.346215493406503,-3.4535080703476835,-4.440132772037475,-9.617614900649174,1.3500184011449505
0,2.4563777928176407,1.0793841854203021,-3.5476634710294754,-6.057360655997452,1.3550184692973346
0,-8.281026833307532,-12.517724226694284,-9.285195370613502,-12.117110578409285,1.3600185374497258
0,-6.358429378742681,-10.894833316661737,-11.052728477164496,-12.006864669822784,1.365018605602117
0,-8.19582984996265,-5.07194309370426,-4.830262796306218,-8.486622931183087,1.370018673754501
0,-7.3432282527788395,-10.349053566161153,-8.977798332838722,-8.486385362406663,1.3750187419068922
0,0.4593754076779288,-3.3561647415725964,-2.4953350908260807,0.5538480374695542,1.3800188100592834
0,-3.7980188732045796,-3.163276626809837,-6.632873073718371,-5.875922729979214,1.3850188782116675
0,-10.585411099669939,-4.450389228234542,-9.670412284406078,-8.945697662742424,1.3900189463640586
0,1.2371987244610034,0.9624974481544953,1.5920472748038614,-1.5654767583289488,1.3950190145164498
0,-1.3001894041784583,-2.2446166033912878,-1.7454943978937234,-4.935260013713044,1.400019082668834
0,5.862424511276309,4.578268611498761,6.5969626959161225,6.114952574524434,1.405019150821225
0,12.32504046755446,12.461153087093662,17.349418554465892,16.91516100982403,1.4100192189736163
0,7.207658460850688,4.314036817214261,6.221873175319559,9.655365295061738,1.4150192871260003
0,9.580278486540923,9.116919794967753,11.014326555038762,9.695565432082562,1.4200193552783915
0,7.252900539124583,-1.4401979872407624,4.966778689196715,5.235761421661772,1.4250194234307827
0,4.335524612297501,4.632683462486756,4.569229572558397,4.765953263725913,1.4300194915831668
0,-0.16184930089123395,-6.45443586422096,-3.9483208006859893,-7.453859042355458,1.435019559735558
0,-0.5092212077787364,-6.621555975727236,-4.165872436579621,-7.973675497343244,1.440019627887942
0,-8.606591115781246,-8.798676880048871,-6.893425341019585,-12.65349610160292,1.4450196960403332
0,-10.023959032048204,-12.085798584543971,-11.990979519441535,-10.55332085468354,1.4500197641927244
0,-3.201324963137593,-4.582921095726503,-7.028534976569077,-12.573149755099067,1.4550198323451085
0,-3.458688914929657,-4.3000444192765475,-6.766091716282199,-9.172982800259113,1.4600199004974996
0,-6.206050892769157,-7.297168560209825,-9.413649741648085,-13.352819986475469,1.4650199686498908
0,-3.813410901561145,-7.0942935229788135,-4.811209054984084,-17.322661308923692,1.4700200368022749
0,-3.9107689457635386,-4.811419311434817,-5.168769657907467,-9.482506761511912,1.475020104954666
0,-11.048125029360307,-10.138545928787206,-10.066331551402161,-21.192356336774946,1.4800201731070572
0,-0.23547915579149037,-2.395673377590909,-2.273894735829832,-12.542210025805074,1.4850202412594413
0,-2.9428313279513842,-3.202801659792414,-5.55145921094013,-14.142067818192986,1.4900203094118325
0,-3.940181548337308,-5.999930776859828,-3.2090249759682665,-14.071929702067182,1.4950203775642237
0,-8.397529819118812,-6.6270607298378765,-7.1665920297082595,-14.971795664171243,1.5000204457166078
0,-2.2448761420302845,1.6858084806917017,-2.324160370499178,-7.321665689905029,1.505020513868999
0,-1.242220518323408,-2.6013231454703862,-1.2117299962424033,-3.1315397634950397,1.5100205820213901
0,-16.31956294880974,-11.698455608252646,-13.539300904448409,-21.041417868245883,1.5150206501737742
0,-9.476903433694266,-6.815588907162699,-11.086873092085945,-15.061299986474214,1.5200207183261654
0,-12.03424197223832,-7.592723041015731,-9.264446555259179,-9.301186099183571,1.5250207864785565
0,-14.811578562568531,-6.739858007851191,-6.272021289066386,-7.581076186023752,1.5300208546309406
0,-5.8089132016459395,-4.106993805004954,-2.7295972877456522,-5.16097022559329,1.5350209227833318
0,-1.3462458853898394,-5.044130429209395,-0.10717454494571654,-5.560868195736497,1.540020990935723
0,-7.473576608995461,-4.411267876687069,-4.834753053974422,-5.30077007369998,1.545021059088107
0,-0.780905367190159,-0.8684061432223106,-0.08233280791280373,0.2593241637720989,1.5500211272404982
0,-5.098232154310255,-1.1955452242620637,2.650086200339801,-1.7305854596998698,1.5550211953928823
0,-3.6855569643266537,1.7273148849349775,2.9625039779229,0.09950107969965094,1.5600212635452735
0,-3.392879790849065,-3.0498258108214715,-2.0150794681492656,-2.030416194114693,1.5650213316976647
0,3.1097993728399107,5.1630326932923785,6.007335868977818,10.439662742794622,1.5700213998500487
0,1.2624805336189004,6.87589040200931,2.039749995985267,9.13973791413732,1.57502146800244
0,13.125163698247619,12.288747319695,12.262162919241478,15.279809342975192,1.580021536154831
0,9.957848873004009,12.031603449984312,11.35457464453856,18.489877051309566,1.5850216043072152
0,13.510536063312363,13.284458795490464,10.126985176796307,18.06994105973721,1.5900216724596064
0,6.883225273535011,7.597313357676292,8.639394519909505,17.560001387204675,1.5950217406119975
0,8.735916506997471,6.800167136925178,4.581802676813546,12.770058050949995,1.6000218087643816
0,5.19860976613972,2.3730201327660687,4.864209649671336,13.190111066625706,1.6050218769167728
0,-0.7286949472892174,0.005872344155901807,0.06661544008748341,6.930160448517033,1.610021945069164
0,4.814002368003512,5.168723769721471,4.089020049298236,15.250206209747542,1.615022013221548
0,7.536701712994301,0.4015744078618108,0.5314234782882413,10.980248362350743,1.6200220813739392
0,1.0894030882799262,-5.465575743203941,-3.6561742721291353,9.870286917226409,1.6250221495263304
0,3.0921064940234997,-1.1827266852568947,2.996226798810879,9.170321884163588,1.6300222176787145
0,-2.6851880699234547,-0.7398784198864732,0.5086266918926869,2.2103532719936747,1.6350222858311056
0,4.087519396145861,1.6329690514998612,1.7510254078540302,7.880381088803958,1.6400223539834968
0,1.9102288918430108,0.055815727543569615,2.0134229473084466,4.060405342101039,1.645022422135881
0,2.5429404166151235,0.4586616068476048,2.4358193107110386,3.8704260388717007,1.650022490288272
0,7.385653969649122,4.761506687937498,3.8882144983146145,5.900443185618693,1.6550225584406562
0,3.608369549766039,-3.7756490307824215,2.5206085101132865,6.560456788372946,1.6600226265930473
0,10.061087155294352,10.527194448934768,7.4230013457810005,13.180466852590936,1.6650226947454385
0,6.133806783953077,5.6300371250644625,5.71539300457452,8.160473382951428,1.6700227628978226
0,11.566528432741022,10.192878995061326,12.837783485177093,7.600476383211225,1.6750228310502138
0,6.359252097845692,5.265720055660664,6.590172785514305,0.3304758562809976,1.680022899202605
0,14.581977774577584,11.228560302827741,14.67256090260862,12.270471804431862,1.685022967354989
0,15.534705457246499,14.941399731688517,18.594947832423824,19.490464229270803,1.6900230355073802
0,24.037435138879506,25.134238336251617,24.627333569546327,22.650453131289712,1.6950231036597714
0,20.990166810829123,16.797076108960013,14.189718106799722,15.210438509323376,1.7000231718121555
0,18.73290046247787,9.10991304044194,12.752101435142691,6.160420360422087,1.7050232399645466
0,19.685636081185105,16.642749119685746,17.504483543885506,15.520398680165695,1.7100233081169378
0,22.41837365235287,20.395584334255556,19.74686442083065,17.790373462914445,1.7150233762693219
0,23.67111315938985,22.728418670148276,23.059244052122988,20.590344701660516,1.720023444421713
0,18.543854583603103,16.091252111503714,18.44162242200832,13.090312387749412,1.7250235125741042
0,24.126597904170957,15.704084640545895,16.40399951275372,10.580276510863868,1.7300235807264883
0,22.129343098158813,18.09691623774081,20.82637530474459,19.350237059222994,1.7350236488788795
0,19.39209014049835,12.339746881934756,15.678749776574989,11.76019401967267,1.7400237170312707
0,13.794839004056191,14.552576550443508,13.341122905103438,11.630147377657327,1.7450237851836548
0,14.497589659880704,8.385405219190243,13.273494665603002,10.87009711730663,1.750023853336046
0,11.80034207748414,7.038232862908925,8.455865031976087,1.8700432216454381,1.75502392148843
0,9.113096225052642,8.051059455377176,10.158233976952133,10.419985672837523,1.7600239896408212
0,3.945852069658344,0.6138849696230013,2.070601472287246,-1.3600755476026278,1.7650240577932124
0,8.648609577515911,7.056709378099918,9.522967488971359,2.499859541365044,1.7700241259455964
0,8.311368714141036,6.9495326527859875,6.375331997349144,1.1397909204974566,1.7750241940979876
0,3.344129444359055,4.082354765143441,2.467694967134914,0.9197185703962362,1.7800242622503788
0,4.306891732349457,4.955175686075439,4.200056367479913,0.9096424715411615,1.7850243304027629
0,-2.1703444581770412,-2.8720046139793354,-2.897583832852654,-7.250437395642833,1.790024398555154
0,0.18242083625258587,-4.739186164806146,-1.1752256652741502,1.0794789493769734,1.7950244667075452
0,-8.154812420889511,-12.586368996038825,-9.302869161122185,-11.700608512585084,1.8000245348599293
0,-7.572044265866383,-10.31355313672902,-6.580514351379812,-7.250699800253795,1.8050246030123205
0,-14.219274734363495,-12.28073861500981,-9.218161266427638,-8.490794931680359,1.8100246711647117
0,-9.81650386118636,-9.617925457944565,-7.09580993590451,-4.830893924136723,1.8150247393170957
0,-18.733731680033603,-13.30511369150498,-14.123460388636888,-10.470996794155267,1.820024807469487
0,-11.510958223326854,-5.052303340594818,-2.861112652566096,-5.9911035575497245,1.825024875621878
0,-8.778183522144033,-5.769494429164786,-6.898766754776984,-8.231214229385994,1.8300249437742622
0,-9.685407606353689,-10.25668698039536,-5.236422721662844,-7.371328823981245,1.8350250119266533
0,-6.432630504834527,-6.153881016765152,-5.7840805790466145,-2.641447354946833,1.8400250800790445
0,-7.949852245622589,-3.6910765600343955,-5.331740352201168,-1.4615698353146664,1.8450251482314286
0,-6.757072855994587,-5.2282736313319855,-2.4094020658740973,-6.2416962777169385,1.8500252163838198
0,-1.5942923625473764,-1.6354722513023296,-3.147065744367648,0.2881733055268093,1.855025284536211
0,-0.9415107913531862,-2.60267244021596,-0.38473141165203506,1.368038902361617,1.860025352688595
0,2.7512718317925824,0.260125781928095,4.107600908492996,4.857900500820017,1.8650254208409862
0,-1.5959445188479928,-2.1070776046961623,-1.6600688076968775,1.9477580887851151,1.8700254889933703
0,-5.563159869008208,-1.204282619792088,-0.5477405840637128,-4.982388346089378,1.8750255571457615
0,-14.770374244198768,-14.661489282858069,-11.955414444400516,-12.272538816151496,1.8800256252981526
0,-14.12758766925945,-11.368697612872474,-9.743090412114373,-8.292693333294993,1.8850256934505367
0,-15.774800167905141,-15.645907627863853,-12.050768509841625,-3.922851908630081,1.890025761602928
0,-11.602011762486407,-15.303119344606884,-8.87844875922065,-2.4530145525243325,1.895025829755319
0,-14.80922247397096,-17.72033277845811,-20.11613118080098,-17.393181274759538,1.9000258979077032
0,-9.97643232201092,-13.007547943254137,-10.26381579390262,-9.113352084403074,1.9050259660600943
0,-16.513641324995703,-18.154764851288963,-14.871502616480726,-14.613526989492382,1.9100260342124855
0,-2.680849500100308,-3.9519835133907106,-3.029191665190992,2.2062940030490283,1.9150261023648696
0,-4.418056863471381,-7.1792039391596205,-6.476882955660284,-0.5538891128912481,1.9200261705172608
0,-9.395263430529907,-12.286426137280728,-6.794576502781052,-7.014076343038573,1.925026238669652
0,-1.9124692161292298,-3.5636501156490543,-5.482272320846031,1.4657323070991062,1.930026306822036
0,-1.9996742345967493,-3.410875881404488,-4.07997042356524,-0.4844631677626715,1.9350263749744272
0,-3.8468784998624224,-8.60810344107828,-5.347670824111609,3.6753372272016014,1.9400264431268184
0,1.7659179744037121,-5.745332800670939,0.634626464792194,1.365133486744494,1.9450265112792025
0,4.328715174663153,1.357436034367898,3.8669214307125603,10.034925605392804,1.9500265794315936
0,0.41151308731066083,-3.0297969409857672,1.6892140612433255,3.8247135772691534,1.9550266475839848
0,0.19431169855225727,-4.277031731513398,1.031504343806773,4.044497395956172,1.9600267157363689
0,1.287110994450042,0.045731658220026776,-0.9562077343538661,1.6542770545357302,1.96502678388876
0,-1.6400890389985936,0.918493223864606,-0.4739221860715397,0.614052545743522,1.9700268520411441
0,0.8427115841843497,2.4312529611541995,1.5983609758221413,-0.18617613788045717,1.9750269201935353
0,4.805512849954228,2.554010865739234,6.3706417384521705,4.94359099609039,1.9800269883459265
0,-2.8916852558314785,-4.183233066877978,-1.9770799112405957,0.7233539399399217,1.9850270564983106
0,1.1111172525622288,3.7395211587258372,0.01519601346402999,0.22311268575334053,1.9900271246507018
0,5.5639203607929595,6.802273537917282,6.197469499155466,14.112867225378595,1.995027192803093
0,4.82672405435391,3.555024065825385,7.89974053223292,8.602617550211864,2.000027260955477
0,-0.6504716815880447,-2.9622272628034025,-0.2879909013097425,-2.877636349068058,2.005027329107868
0,-10.387666862105405,-7.309480453424266,-7.115724815867889,-12.897894482293115,2.0100273972602594
0,-0.8748615021400685,0.38326448866340196,-0.1734612258821513,-1.7281568591607972,2.0150274654126434
0,-0.7320556162422949,1.5460075584591055,-0.871200145564774,-2.658423488821692,2.0200275335650346
0,-3.6892492186330816,-3.5612512488716566,-3.398941588904741,-6.318694379928163,2.025027601717426
0,-5.5964423232982945,-5.008511938067564,-4.776685569699786,-8.148969540711558,2.03002766986981
0,-6.523634943890032,-0.49577451365201086,-2.2744321014710667,-7.589248978852457,2.035027738022201
0,-4.760827093573542,-2.8730389798586913,-8.572181197369588,-8.86953270132487,2.0400278061745922
0,-9.748018784941893,-7.150305340646006,-11.92993287004487,-5.639820714338519,2.0450278743269763
0,1.2547899700084089,5.822426400313865,-0.057687131457977325,2.0098869765807796,2.0500279424793675
0,-5.252400840205854,-3.1548437604397392,-4.405443992883364,-5.280409633641746,2.0550280106317587
0,-1.3395912267115195,-9.532115826253635,-5.2432034651114305,-5.3007105498019245,2.0600280787841427
0,0.0532187996178648,-13.759389800141783,-5.620965558535766,-7.731015776341194,2.065028146936534
0,-0.9839707719178139,-4.696665684364888,-4.158730283088549,-2.5713253171870485,2.070028215088918
0,-0.7411599519270862,-3.7739434802923095,-5.106497648209803,-0.4516391757579886,2.075028283241309
0,3.79165124901893,-4.041223188612323,-1.9242676628827229,-0.001957355147048978,2.0800283513937003
0,5.624462820273679,3.131495190402232,8.757959664225035,3.137720141659746,2.0850284195460844
0,10.127274750876998,10.924211656603786,7.100184324409277,7.517393311581156,2.0900284876984756
0,15.070087029237373,15.526926209491245,12.602406308474235,12.767062151163204,2.095028555850867
0,8.8028996428128,6.2696388476965215,5.63462560642199,5.876726656254267,2.100028624003251
0,4.27571257798933,-0.5676504311499583,0.19684220742965627,4.0563868218663375,2.105028692155642
0,6.678525820258123,5.465058369889133,8.209056100063618,7.146042642297736,2.110028760308033
0,12.761339354407717,18.117765247281334,14.001267272383979,16.55569411120305,2.1150288284604173
0,9.584153164455769,14.390470196741234,10.753475711705445,12.86534122135966,2.1200288966128085
0,22.07696723339728,19.213173212724655,19.685681404248466,19.644983964308718,2.1250289647651996
0,11.3497815429192,10.825874288153507,9.947884334909752,14.124622330110348,2.1300290329175837
0,7.062596073271303,2.7885734145064616,3.7300844872548784,-2.355743692636885,2.135029101069975
0,9.505410803463155,7.541270582197422,7.6122818438039825,9.923885883590174,2.140029169222366
0,1.8982257115923673,1.56396578096463,1.8344763863822942,-2.5664889542890363,2.14502923737475
0,-4.878959224848112,-6.6933409998601725,-8.063331903609988,-9.706868219624727,2.1500293055271413
0,-6.416144028551495,-4.9306497710101205,-2.9911430448331977,-3.607251925642015,2.1550293736795325
0,-7.643328721933884,-4.1479605429124815,-7.038957055628466,-4.917640085092004,2.1600294418319166
0,-1.6305133268739345,-2.9252733255421495,-5.046773953840302,-5.118032710190715,2.1650295099843078
0,0.3123021352528773,-0.2025881284890454,-2.7245937567947047,-3.7184298126805753,2.170029578136699
0,-3.8448823566285233,-4.849904961070974,-9.822416481317509,4.821168596086076,2.175029646289083
0,-3.252066823404748,-2.8672238323661543,-5.810242143694726,-5.929237495034222,2.180029714441474
0,-5.649251285706264,-5.194544751151388,-5.458070759581763,-5.759648097059739,2.1850297825938583
0,-3.4964357637939276,-0.20186772585187845,-0.11590234403236271,-0.7000632207424751,2.1900298507462495
0,-0.28362027753312025,2.320807235387244,3.2862630882831922,0.2895171235062721,2.1950299188986406
0,-7.540804846450865,-8.516519875432596,-7.661574477166231,-13.350907074448413,2.2000299870510247
0,-0.7179894897567423,1.6061509338394717,0.200584945189612,1.4486641756160985,2.205030055203416
0,-0.8151742263339026,2.2688196555571856,-1.437258658874646,-4.151769135602451,2.210030123355807
0,-9.282359074777577,-9.098513717791016,-7.725105303343097,-8.842207016981131,2.215030191508191
0,-1.6895440533537323,3.654150806412519,4.917044998052643,1.287350523008364,2.2200302596605823
0,1.4932708200673794,-1.36318677902797,4.689192231748601,-0.14309652372099801,2.2250303278129735
0,2.3260855278574875,-4.300526481174419,1.0613363840774395,-0.09354816505871001,2.2300303959653576
0,5.8389000523392545,7.35213169298723,5.843477441066385,10.615995591071355,2.2350304641177487
0,3.111714375562976,8.704787736407072,5.315615388385102,7.965534736437091,2.24003053227014
0,2.1145284792117147,6.407441641628703,4.34775021127949,11.845069262155885,2.245030600422524
0,7.357342344601856,3.5700934005470777,3.909881894522841,2.8645991584903263,2.250030668574915
0,2.22015595266871,1.2927430044716306,-0.33798957752856096,5.684124414907002,2.2550307367273064
0,0.862969283948944,8.55539044428867,6.5141357791690915,5.823645020257331,2.2600308048796904
0,-0.974217681308815,0.13803571050229052,-1.033742051602105,-0.6568390370945486,2.2650308730320816
0,-0.5214049629594624,0.10067879324674306,1.6083769137018469,4.802672230833501,2.270030941184473
0,4.381407419128939,9.213319682376524,9.540492658408851,14.042178811668695,2.275031009336857
0,9.244219444963187,12.845958367384425,9.03260516548625,11.771680692429838,2.280031077489248
0,12.587031094106637,11.8385948370386,9.764714417240608,12.171177859149182,2.285031145641632
0,11.60984234530446,11.551229079054185,10.286820395105995,10.960670296694413,2.2900312137940233
0,17.23265317620253,15.663861079968397,13.468923079549226,12.510157988773479,2.2950312819464145
0,25.055463563087592,24.776490824997694,26.161022449881298,16.97964091791806,2.3000313500987986
0,24.148273480500407,26.109118297670573,21.29311848384454,11.579119065377402,2.3050314182511897
0,25.651082900831927,25.581743479367304,22.405211157180098,19.49859241100893,2.310031486403581
0,23.75389179410664,23.48436634904963,20.65730044346082,11.328060933213267,2.315031554555965
0,22.986700127952975,27.366986883219653,22.46938631412349,15.617524608922782,2.320031622708356
0,22.729507867662058,26.29960505591321,18.791468738513448,12.526983413653783,2.3250316908607473
0,27.652314976228496,28.132220838627017,23.78354768391341,27.23643732148706,2.3300317590131314
0,27.96512141426882,29.57483420022254,20.745623115541232,16.435886304832763,2.3350318271655226
0,21.02792713988688,21.917445106872954,21.057694996518165,18.875330334191183,2.340031895317914
0,10.940732108774606,16.370053522192542,16.199763287902638,6.384769378223954,2.345031963470298
0,8.643536274687204,13.71265940762117,11.291827948870626,3.064203404163099,2.350032031622689
0,9.92633959002719,7.035262722910316,4.2638889370663025,5.213632378341154,2.35503209977508
0,3.1991420062255123,4.907863426577263,-1.4340537908964373,-6.006943733381801,2.3600321679274643
0,-6.578056525964173,-3.0795385236521087,-6.232000278860201,-9.29752496524682,2.3650322360798555
0,-0.2752560560379034,-0.35694317040882684,-0.4399505706333544,-4.0681113511701,2.3700323042322466
0,-13.572456633300183,-10.784350556299398,-4.067904709752175,-13.958702924429467,2.3750323723846307
0,-9.699658306515332,-9.511760723551674,-7.385862739432346,-10.689299717486277,2.380032440537022
0,-5.756861123633723,-5.199173713708881,-8.143824702462847,-9.829901761816034,2.385032508689413
0,-11.804065131707281,-13.646589567492228,-15.311790640969583,-13.140509087819769,2.390032576841797
0,-8.701270376918362,-5.814008324768033,-9.499760596145656,-4.02112172484982,2.3950326449941883
0,-12.55847690453051,-11.701430024506728,-14.677734608060831,-12.521739701299634,2.4000327131465724
0,-19.585684758741824,-14.718854704727939,-21.27571271552846,-15.542363044636545,2.4050327812989636
0,-21.32289398240113,-18.646282402327103,-24.393694955834544,-21.242991781184635,2.4100328494513548
0,-14.630104616674714,-14.383713152800054,-12.591681364401934,-7.483625935808045,2.415032917603739
0,-22.34731670090427,-17.31114699007617,-20.849671974721403,-21.5242655318268,2.42003298575613
0,-13.804530272630217,-12.38858394651875,-12.89766681851387,-10.554910591087335,2.425033053908521
0,-14.881745367663925,-18.666024052979534,-17.115665925865255,-15.01556113398967,2.4300331220609053
0,-21.248962020187296,-25.06346733874145,-29.003669325212567,-19.92621717949182,2.4350331902132965
0,-22.246180262713548,-23.67091383124414,-19.40167704310213,-22.466878744992894,2.4400332583656876
0,-21.123400125862972,-21.59836355577371,-16.80968910395069,-18.41754584607512,2.4450333265180717
0,-9.280621638264202,-10.235816535439268,-9.177705530190506,-11.268218496406305,2.450033394670463
0,-11.917844826804698,-9.2532727915265,-10.755726342701797,-7.308896707993966,2.455033462822854
0,-5.475069717059372,-5.800732344016264,-5.54375156120638,1.360419508320878,2.460033530975238
0,-4.542296333652266,-3.838195212006174,-5.821781204536873,-3.410269857661609,2.4650335991276293
0,-6.759524700508869,-8.62566141394822,-6.809815290822379,-9.060964815806361,2.4700336672800205
0,-9.126754840962908,-6.153130967709104,-4.097853837588057,-4.611665375593254,2.4750337354324046
0,-8.203986777684706,-6.09060389052475,-9.47589686177732,-4.52237154595687,2.4800338035847957
0,-7.061220532576455,-5.258080198992582,-9.1539443796961,-6.743083335270722,2.485033871737187
0,0.6115438731911371,-3.035559909138588,-2.4019964069254196,-0.19380075141008837,2.490033939889571
0,-2.4956935810391476,-4.7930430365078704,-2.5600529583821237,-6.404523801822145,2.495034008041962
0,-5.672932915629465,-10.790529596187074,-9.068114048497142,-6.74525249355824,2.5000340761943463
0,-13.070174150605125,-15.768019602623026,-12.606179691196104,-12.665986833148498,2.5050341443467374
0,-11.467417305339202,-11.385513069279957,-14.974249899598252,-12.186726826337068,2.5100342124991286
0,-8.724662398241264,-5.45301000844364,-7.252324685717157,-11.547472477834829,2.5150342806515127
0,-12.291909446662084,-11.86051043132931,-11.6204040604098,-13.718223791193543,2.520034348803904
0,-12.039158466902338,-12.378014348215538,-10.898488033477545,-13.528980768752637,2.525034416956295
0,-7.656409474191438,-10.05552176838284,-9.206576613708014,-6.389743411626701,2.530034485108679
0,-12.593662482703584,-8.27303270004238,-8.27466980888904,-6.510511719836556,2.5350345532610703
0,-5.0109175056279955,-0.6705471504588194,-1.0327676259281828,-5.231285692566195,2.5400346214134615
0,0.8518254446826766,-3.608065126236058,3.0891299288661425,6.7779346715622,2.5450346895658456
0,0.154566356390369,-3.605586633580955,-1.1189771505876072,-1.452850625841069,2.5500347577182367
0,0.9973052178148317,-4.153111678388865,-0.9470888703752726,-1.593641583201323,2.555034825870628
0,-4.3099579827180525,-5.780640266195122,-5.225205236555892,-7.98443819893654,2.560034894023012
0,-10.00722325676205,-11.808172402060931,-7.103326254974956,-4.875240471188183,2.565034962175403
0,-3.8544906154713283,-4.7957080903964755,-0.5614519310808297,-2.956048397621792,2.5700350303277943
0,-7.021760069399287,-2.3432473348834977,-4.799582269886484,2.2731380245375914,2.5750350984801784
0,-8.599031628465056,-7.540790138602864,-8.117717276013297,-6.067681201678405,2.5800351666325696
0,-4.366305301940472,-0.7383365041730287,0.14414304634643044,0.6314939269247298,2.585035234784961
0,-5.173581098451085,2.6541135661511075,-2.5240013065709674,0.060663413709674874,2.590035302937345
0,-2.6608590260684903,0.7065600702706091,-3.752150338223171,-1.4601727378423521,2.595035371089736
0,4.251860907522263,7.279003005991841,7.129695948118218,5.118985475773581,2.60003543924212
0,2.0845786947695544,4.01144237083364,4.9615375491753815,4.648138057957405,2.6050355073945113
0,6.037294327975307,6.153878161880442,8.393374461344916,9.187285011788083,2.6100355755469025
0,11.530007799060737,9.456310375681053,6.535206680447199,10.306426339772617,2.6150356436992865
0,4.112719099344173,9.798739008127713,5.917034201636605,13.475562043604928,2.6200357118516777
0,-1.3245717805292871,1.211164054346803,-1.0011429805438155,-3.365307875957007,2.625035780004069
0,2.6881351496336903,4.493585508782234,3.9206751280231202,5.593816581093217,2.630035848156453
0,-3.1191601201419163,-5.333996634539466,-5.717511478753397,0.8429354143529069,2.635035916308844
0,-0.03645759984605512,0.658417618280727,0.18429719301907843,4.202048623168651,2.6400359844612353
0,7.866242700540991,7.930828261155751,7.866101137300097,12.331156206563264,2.6450360526136194
0,13.048940770828832,13.433235287801944,15.25790034787338,13.850258162966792,2.6500361207660106
0,14.831636600151459,15.565638691240531,14.049694817808533,8.6293544898616,2.6550361889184018
0,10.764330176548157,12.728038463348387,12.981484539003958,8.74844518363479,2.660036257070786
0,5.457021486855483,3.6604345947261367,6.403269502070273,7.337530239688134,2.665036325223177
0,12.41971051686768,9.062827074904243,14.875049696462378,16.966609652527552,2.670036393375568
0,11.382397251455298,11.375215892584851,7.556825110591346,10.295683415649382,2.6750364615279523
0,9.535081674501809,8.957601035640819,8.338595731855142,9.294751521390856,2.6800365296803434
0,14.067763768821148,14.139982490982346,14.22036154668481,12.823813960951005,2.6850365978327346
0,6.070443516146707,5.692360244481213,6.112122540548705,4.032870724498352,2.6900366659851187
0,11.203120897180476,13.77473428098274,8.013878697949028,18.981921801230403,2.69503673413751
0,5.345795891696724,10.497104584326198,7.665630002525835,9.05096717931069,2.700036802289901
0,6.348468478658091,9.359471137310278,8.417376437153084,9.070006845757892,2.705036870442285
0,1.8511386363563642,0.6018339217485112,2.1891179839740476,0.9190407865466096,2.7100369385946763
0,0.03380634260776816,-4.635807081213208,1.1008546245290605,0.48806898695873097,2.7150370067470604
0,5.5664715749388645,3.6465481093476733,5.9225863399639564,5.937091431918625,2.7200370748994516
0,1.039134310649767,-5.9011005256013025,2.094313111122826,-0.43389189388662763,2.7250371430518427
0,8.221794526749289,8.151246994977452,11.046034918475044,10.435118993942705,2.730037211204227
0,13.184452199792553,12.22359065200358,9.24775174193723,10.64412407935559,2.735037279356618
0,-5.312892694313992,-4.854069574047682,-6.990536439247185,-5.226876654332995,2.740037347509009
0,-3.470240180201329,-0.4817337031889798,0.26117035371434044,-0.647883224317137,2.7450374156613933
0,4.54240971737937,4.470598244381566,4.172872099545443,3.061104352074237,2.7500374838137844
0,-0.8649430262526703,1.832926248407112,4.614568776944474,7.770086057476657,2.7550375519661756
0,3.9277015641698902,5.535250288430591,6.686260364340463,6.459061874232915,2.7600376201185597
0,5.900343463725018,7.897570343639034,8.667946839675055,10.058031784112808,2.765037688270951
0,2.902982647179166,6.8098863927117375,7.279628180252502,8.936995768142896,2.770037756423342
0,3.365619088901698,4.292198413701569,5.17130436266072,5.035953806529557,2.775037824575726
0,1.9282527628947006,2.0645063840694613,-1.9670246371440223,3.944905878721643,2.7800378927281173
0,13.610883642800815,16.006810280757982,12.704641156346153,22.793851963470562,2.7850379608805085
0,7.5035117017154915,9.149110080042764,8.28630171818087,17.472792038544856,2.7900380290328926
0,-3.7138630879905374,-3.378594242663901,2.2679570227465073,-4.198273919645963,2.7950380971852837
0,-3.4012407544527723,-5.486302712570606,-7.830392956178215,-6.859345935765857,2.800038165337675
0,-1.0386213258473478,-7.724015354902136,-3.018748244967495,-7.480424034677163,2.805038233490059
0,0.09399516984321743,-4.131732194443133,1.3728911302499802,-0.8215082408086467,2.81003830164245
0,2.446608704762512,2.9705467445407536,7.3645251435543955,4.287401421870879,2.8150383697948342
0,0.5892192510337919,-1.2771785619083984,2.2561537689039044,-4.023695070433652,2.8200384379472254
0,-2.7381732193029844,-7.634908137631707,-7.172223020038688,-10.284797741447582,2.8250385060996166
0,-2.4255687342079026,-3.972642006260675,-2.840605249688745,-10.66590661453335,2.8300385742520007
0,-7.602967321464997,-4.7503801910093655,-4.898992946200405,-9.087021712290738,2.835038642404392
0,-1.6703690085112148,-4.448122714610176,-3.907386135320049,-6.9781430563911995,2.840038710556783
0,3.582226177588741,0.2841304006278442,-2.7657848423902314,1.730729332307403,2.845038778709167
0,-1.4851817900470277,-3.2236208672893154,-2.284189092392964,-5.6404045665192974,2.8500388468615583
0,-5.802592938272974,-5.3413765401177615,-4.9225989099986345,-9.311544772839618,2.8550389150139495
0,-2.580007293809108,-3.4091366393248745,-1.0510143195767823,-4.102691306163916,2.8600389831663335
0,-0.02742488308630775,3.2730988139569526,-0.4394353452163786,1.8161558145533725,2.8650390513187247
0,-6.8448457322483405,-6.7946702011688345,-7.987862010774917,-7.4050034292302955,2.870039119471116
0,0.33773013282457437,4.907556294532903,3.0837056601375106,7.0938309441697545,2.8750391876235
0,-0.05969731348895635,2.7597782803500586,1.1152676441377658,0.30265891651487553,2.880039255775891
0,6.962871903303017,6.35199573543109,5.006823917869668,6.241480469431333,2.8850393239282823
0,-2.92456224242356,-2.4557913613943176,-1.0716255422055945,2.6202955842386237,2.8900393920806664
0,-5.321999776444099,-3.0935830315469155,-5.230080759797723,-6.220895758048138,2.8950394602330576
0,-0.13944072446595623,2.0486207035335466,0.3114582414195024,-1.0620935765056347,2.9000395283854488
0,0.2431148880287619,1.6208198224817947,3.0229914379329426,-2.4632978900440774,2.905039596537833
0,-0.06433296429520874,1.363014303900235,-2.675481193705349,6.225491282622733,2.910039664690224
0,-1.9617843067326577,-0.29479587373048677,-0.6739596769602207,2.7742739227660875,2.915039732842608
0,-1.7792391645224361,2.1673892679626325,3.857555964718614,2.243050011415268,2.9200398009949993
0,2.7233024371949,5.619569707233264,6.949065707816568,9.251819529250486,2.9250398691473904
0,-0.9441595266682585,0.17174542211695049,1.24056952853407,2.9505824565214733,2.9300399372997745
0,6.868374918737185,4.313916390362398,3.8020674026745107,7.409338772951354,2.9350400054521657
0,1.710905748061628,0.23608258945564886,0.7135593057063211,3.278088457716304,2.940040073604557
0,3.0834329356507393,2.798243996663888,7.785045212821757,5.85683148947799,2.945040141756941
0,3.305956455530904,4.380400589044806,6.166525098859723,3.435567846416677,2.950040209909332
0,8.318476281401068,4.742552343386285,3.877998938160477,3.914297506265874,2.9550402780617233
0,2.920992386533838,1.8246992361201098,6.519466704510945,0.9230204463703715,2.9600403462141074
0,-0.3164952562708814,1.6868412433262536,1.7709283711892834,0.5017366437869442,2.9650404143664986
0,1.5360133254561168,1.6989783408245709,1.7023839110500407,-0.819553924584725,2.9700404825188897
0,16.95851810393315,13.021110504179308,15.70383329656363,17.74914871800228,2.975040550671274
0,2.171019050885872,3.493237708502129,4.635276499644814,3.8678445478512264,2.980040618823665
0,-0.02648386266756786,-2.054640071695141,-0.423286508527809,-6.343466459421739,2.985040686976056
0,10.23600933372773,4.3074771376680046,2.968144242654483,5.3052156713534195,2.9900407551284403
0,7.788498610074776,9.869589310417883,8.809568723481455,6.823890915205125,2.9950408232808314
0,12.250983935725944,14.751696419922059,11.770986903830359,15.772559246836977,3.0000408914332226
0,2.9334652791835567,7.163798438692291,0.7323987528958272,2.781220640211639,3.0050409595856067
0,3.0359426081607017,4.325895338234222,2.503804239176835,3.609875068427467,3.010041027737998
0,14.08841588975791,12.087987089193472,10.15520333068252,9.87852250390749,3.015041095890389
0,16.810885090373112,17.890073661389987,12.96659599491481,13.937162918453728,3.020041164042773
0,9.363350175331732,7.852155023569936,10.917982198557013,4.885796283033307,3.0250412321951643
0,12.435811108679607,12.074231143240432,12.289361907215545,8.764422567669413,3.0300413003475484
0,16.378267853222887,15.826301986722115,12.9807350853421,12.293041741519037,3.0350413684999396
0,18.830720370469702,18.52836751909629,13.502101696196341,9.501653772857786,3.0400414366523307
0,16.98316862040786,15.780427703976946,14.843461701778825,17.380258628931962,3.045041504804715
0,14.485612561361206,14.892482503367502,14.034815062759057,5.328856275832403,3.050041572957106
0,22.128052149987347,22.98453187764459,20.216161738391644,10.547446678514758,3.055041641109497
0,25.480487341192628,26.446575785423207,26.257501686322673,21.76602980086964,3.0600417092618812
0,25.30291808784432,30.74861418318863,23.97883486224219,19.93460560551525,3.0650417774142724
0,17.49534434052909,22.200647024925907,17.520161219612746,17.51317405339348,3.0700418455666636
0,21.887766047594905,27.212674262006452,24.59148070968209,27.84173510352784,3.0750419137190477
0,15.270183155353307,18.084695843308147,13.972793281630254,6.06028871296894,3.080041981871439
0,9.622595608305701,12.746711715468997,8.244098882775887,8.468834837003733,3.08504205002383
0,13.93500334943713,18.23872182324718,11.905397458948453,14.767373429616708,3.090042118176214
0,-4.112593679438409,-4.729273890086404,-5.393311045070812,-7.424095556148302,3.0950421863286053
0,-4.210195537217359,-4.3972754822053846,-4.2720266850640085,-3.285572167829371,3.1000422544809965
0,-1.257802282933719,-6.345283010986871,-5.540749516818614,-6.107056452987168,3.1050423226333805
0,-2.6754139754055837,-3.9832965339644497,-3.599479595750317,-2.2785484588090545,3.1100423907857717
0,-12.50303067313611,-13.951316108122017,-14.28821697676093,-12.830048232000433,3.115042458938163
0,-3.5006524341486935,-0.8393417897717663,-7.136961714068418,-0.6115558186984618,3.120042527090547
0,-15.908279315755227,-18.247373634449303,-17.965713860964264,-13.893071264379873,3.125042595242938
0,-14.595911374342545,-19.03541169673515,-21.674473469539905,-19.98459461371226,3.1300426633953222
0,-18.243548665088593,-21.4634560298437,-21.17324059031303,-23.91612591013083,3.1350427315477134
0,-15.121191241693058,-16.041506685224213,-17.352015271907334,-17.71766519530828,3.1400427997001046
0,-18.428839156256373,-21.94956371244305,-17.890797561004437,-14.749212508951105,3.1450428678524887
0,-16.56649245924412,-19.46762715918888,-15.579587502473974,-12.630767888978637,3.15004293600488
0,-15.284151199472632,-16.90569707125031,-16.638385139499917,-18.512331371773943,3.155043004157271
0,-9.191815424184327,-13.593773492578146,-9.637190513691934,-13.493902992258597,3.160043072309655
0,-10.629485179258891,-14.191856465480564,-13.826003665244775,-16.285482783853006,3.1650431404620463
0,-11.627160509437699,-13.359946030811987,-16.62482463306318,-11.65707077848931,3.1700432086144374
0,1.5751585415165734,0.7819577718461423,0.5463465451906457,3.1913329932010273,3.1750432767668215
0,-7.332528069412721,-5.746145096155346,-4.482490167128862,-7.51027149854096,3.1800433449192127
0,-16.74022038467171,-16.204254672843838,-12.321334806014018,-12.591884282948232,3.185043413071604
0,-1.3679184459899414,-2.112370995567021,0.6598125930905528,5.206494611288987,3.190043481223988
0,1.0743777057100052,5.999505899069426,2.57095199526439,-2.8351348440057844,3.195043549376379
0,-3.4733319699970626,0.3613759748181926,-0.09791663417171437,-0.986772676771996,3.2000436175287703
0,-0.8010475133509787,0.29323919535244336,1.2432066700628668,-3.7984189148481744,3.2050436856811544
0,-5.968768964426494,-1.5849044757986452,-3.8756781268209597,-1.8200735858960857,3.2100437538335456
0,-13.406496362964367,-9.393055075066234,-11.604571059505936,-13.55173671727057,3.2150438219859367
0,-11.454229748050118,-8.751212638550761,-10.33347216221739,-11.713408335760057,3.220043890138321
0,-7.461969157805237,-8.429377201708448,-7.072381468375279,-5.205088467273725,3.225043958290712
0,-7.469714629342832,-7.0175487991893215,-10.621299010478957,-3.3167771368046357,3.230044026443096
0,-7.877466198912666,-9.12572746483887,-10.430224820125007,-8.538474368655406,3.2350440945954873
0,-8.505223901997006,-6.8439132317237235,-12.309158927957963,-9.350180186544385,3.2400441627478784
0,-10.882987773289265,-11.862106132116063,-11.678101363568755,-17.711894613430243,3.2450442309002625
0,-12.160757846596034,-15.630306197389078,-17.387052155389824,-16.763617671168525,3.2500442990526537
0,-11.028534154707998,-13.268513457799095,-12.28601133056552,-15.185349380187388,3.255044367205045
0,-15.466316729291943,-11.186727942309584,-11.484978914876642,-14.957089759353376,3.260044435357429
0,-9.224105600816756,-6.734949678633248,-7.643954932834429,-11.35883882602911,3.26504450350982
0,-6.981900798576546,-9.523178693433664,-6.342939407900842,-17.58059659617529,3.2700445716622113
0,-8.659702350862046,-4.381415012516772,-7.341932362704916,-12.51236308437657,3.2750446398145954
0,-7.38751028513417,-2.399658660987109,-4.980933819178824,-10.744138303837813,3.2800447079669866
0,0.23467537186721532,-0.16790966345692437,0.030056201335576765,-12.955922266468892,3.2850447761193777
0,-1.4031454060718727,0.603831955714421,-0.2989623221031375,-5.917714983023937,3.290044844271762
0,2.409027355078177,4.695566172215436,2.502010589720562,-6.269516463263858,3.295044912424153
0,-1.2088063706137109,-0.09270703838257877,1.0629749159953175,-4.791326716170451,3.300044980576544
0,-4.386646609077839,0.069012299308504,0.3239306357976144,-7.083145750113815,3.3050450487289282
0,-5.464493386110257,-5.4192758394067315,-8.67512227184908,-12.644973572850738,3.3100451168813194
0,-3.8123467271758704,1.782428520868758,3.695816172214531,-2.6868101914002183,3.3150451850337106
0,-3.9502066573087133,3.7441253556625327,-2.113254052626903,2.901344387929958,3.3200452531860947
0,-0.2980732011459668,1.1458146404705065,-1.2023329668556266,2.669490159194523,3.325045321338486
0,5.344053616920441,6.937496350571234,5.168579409083924,15.277627116326599,3.330045389490877
0,6.836173772457075,12.369170460855191,6.679483054653654,19.795755252614747,3.335045457643261
0,0.598287240696412,3.150836945588241,0.38037794900384303,8.233874560174716,3.3400455257956523
0,-0.2796060035198521,1.552495778322415,0.8812640709076074,3.7319850297876993,3.3450455939480364
0,2.6924940144194114,2.9141469320956066,3.152141398889379,9.930086651207594,3.3500456621004275
0,6.954587268971564,12.59579037958936,10.663009911249802,9.228179413432708,3.3550457302528187
0,-2.9633262656525834,5.307426092982613,2.1438695858778694,5.706263304698586,3.360045798405203
0,-0.07124661548761202,0.6290540437807831,2.8747204001212348,5.704338312465192,3.365045866557594
0,1.720826193345651,11.080674202888192,4.655562330872038,10.022404423498953,3.370045934709985
0,3.462892134696103,11.502286540640366,3.976395354662693,13.350461623837448,3.375046002862369
0,2.434951182270005,8.803891026586573,2.777219447658759,8.4585098986019,3.3800460710147604
0,3.0970033095277008,6.565487629328156,2.4980345856668214,4.646549231912867,3.3850461391671516
0,0.5690484896669576,6.51707631659749,0.8888407442006013,6.074579607045518,3.3900462073195357
0,2.1910866956646307,7.4786570553986165,2.109637898556226,13.132601006590143,3.395046275471927
0,-2.6168820996507227,5.730229812066962,2.24042602385462,1.7606134124201187,3.400046343624318
0,3.705142076477864,11.281794552257875,4.581205095020333,12.178616805635777,3.405046411776702
0,3.0571591967373175,8.853351240866953,3.9919750867034205,6.556611166579726,3.4100464799290933
0,3.689169233632626,8.664899841924228,4.402735973195168,5.234596474835548,3.4150465480814844
0,2.7611721593760903,6.346440318577127,1.0534877284022106,9.102572709257014,3.4200466162338685
0,-0.7968320541139569,2.4479726332027396,-0.1657696740793857,0.9505398480454025,3.4250466843862597
0,2.635156564874656,3.0194967476035335,3.8449637391570657,8.72849786882584,3.430046752538651
0,5.627137987895265,5.401012623178704,5.065687941347363,6.666446748682124,3.435046820691035
0,3.5191121862489063,4.012520220963001,6.216402905423291,9.68438646407924,3.440046888843426
0,5.591079130852154,9.304019501551156,6.327108603849043,8.152316990734919,3.44504695699581
0,5.353038792171178,3.935510424990762,4.057805008536192,-1.1397616963940567,3.4500470251482014
0,9.434991140160015,5.416992950730237,7.318492090839592,11.148150377034904,3.4550470933005926
0,14.486936144101945,13.098467037611554,15.86916982149912,11.73605318480557,3.4600471614529766
0,11.438873772348456,9.909932643746954,11.589838170392945,9.563946699928575,3.465047229605368
0,12.920803992102442,9.601389726314641,10.82049710626854,12.541830894411838,3.470047297757759
0,2.0227267694115683,1.9528382415330774,3.461146596734425,-2.15029426073163,3.475047365910143
0,0.0946420694351664,-4.415721855071717,4.771786608511672,-5.612428795165254,3.4800474340625343
0,-2.96345014311009,-8.544290608179596,-2.747582892238615,-1.4245727386918718,3.4850475022149254
0,-1.4015499035580752,-0.13286806220633784,-1.3369619396047512,-0.7967261208939096,3.4900475703673095
0,6.420342752846049,7.908545738795181,0.8636494323153345,3.5711110288457006,3.4950476385197007
0,2.642227790807317,3.5699507507975814,-0.8957488105051816,-1.4110613188364245,3.500047706672092
0,2.424105174769512,1.4713469294438912,-2.5851567020378106,-0.013243193371478834,3.505047774824476
0,-2.8540251311098634,-0.9772657699748675,-3.1045742761523876,-8.10543462417171,3.510047842976867
0,-1.072163162788917,0.35411260766513475,-2.1140015665192946,-8.847635640384851,3.5150479111292583
0,3.6596910438069097,0.12548201745638554,1.5165613934151558,-6.789846270596977,3.5200479792816424
0,2.031537452744728,1.566842414480806,2.397114570321687,-1.7620665426973554,3.5250480474340335
0,6.623376027911726,8.578193753722609,10.197657930765558,-2.0742964840069535,3.5300481155864247
0,5.465206732843575,4.209535989869016,8.188191440902191,-5.316536121480227,3.535048183738809
0,7.307029530584768,5.890869077116657,11.848715066175375,-0.2387854817806072,3.5400482518912
0,-0.3411556163694549,5.4421929691133535,7.4192287711331435,-0.9110445913048915,3.545048320043584
0,-2.8493487459384226,-0.636492380991621,1.5697325194390048,-10.613313476212063,3.5500483881959752
0,2.5024501038139135,3.054812979579964,3.4102262740880693,-8.675592162278551,3.5550484563483664
0,-0.19575910516825834,1.9261090033751003,0.8007099976773697,-12.417880674582495,3.5600485245007505
0,2.0860235890313072,3.3473956427443237,1.5611836525669625,-4.4801790372913075,3.5650485926531417
0,4.807798148212482,6.03867284977893,4.351647200930553,-1.8524872737228997,3.570048660805533
0,1.0595645339648099,1.7499405762247742,-0.5678993952579612,-3.6848054066084996,3.575048728957917
0,-1.998677292360997,-6.118801226491488,-6.027456174176014,-13.707133458253649,3.580048797110308
0,3.4930726304446553,1.9124473929628016,2.4729768260359553,-8.179471450373617,3.5850488652626993
0,-13.605185736392773,-10.266313613919628,-9.546600432557089,-13.851819403798103,3.5900489334150834
0,-1.8834524313905896,-2.3650842953131366,-4.8561879875682,-11.104177338297209,3.5950490015674745
0,-4.9317274925659405,-8.123864698919366,-4.925785876137031,-11.496545272511767,3.6000490697198657
0,-9.260010957380931,-9.13265487186175,-9.095394134833064,-17.82892322390144,3.60504913787225
0,-8.628302862710576,-7.431454860579189,-5.1650127996165365,-15.591311208622015,3.610049206024641
0,-5.906603244713995,-5.0802647107529415,-3.5346419058186296,-9.053709241395811,3.615049274177032
0,-0.9849121388298554,-4.989084467366747,0.5357185117524611,-10.906117335584504,3.620049342329416
0,-1.0632295799841132,-2.877914174843218,-3.5739315813925012,-6.598535503424954,3.6250494104818074
0,-4.991555602813989,-8.086753877134461,-6.243592219519747,-16.260963756180676,3.6300494786341986
0,-5.3298902417039615,-9.495603617680324,-2.5232634365890636,-10.983402104090544,3.6350495467865827
0,-6.1982335306567995,-11.074463439226015,-5.392945266154139,-14.82585055621451,3.640049614938974
0,-6.776585503160319,-8.123333383636451,-10.732637741305991,-8.838309120360528,3.645049683091365
0,-3.51494619212934,-10.862213491827445,-9.60234089451937,-10.87077780314675,3.650049751243749
0,-10.09331562990059,-10.71110380376098,-8.922054757442124,-13.603256610093469,3.6550498193961403
0,-9.731693848174746,-11.550004358405705,-12.04177936078656,-7.825745545638997,3.6600498875485243
0,-6.5300808778800254,-13.128915193663905,-11.751514734275101,-14.738244613126424,3.6650499557009155
0,-5.77847674912807,-3.2578363463494684,-9.651260906569648,-2.2807538148421918,3.6700500238533067
0,-5.476881491319251,-5.926767852334819,-8.781017905266765,-8.403273152154702,3.6750500920056908
0,-3.375295133270596,-4.3057097468127115,-2.6607857570209545,-0.10580262573700439,3.680050160158082
0,-0.2537177033350544,-2.6346620644792265,0.1294355122046295,-1.45834223579838,3.685050228310473
0,-0.0021492295675178963,1.996375160342837,2.619645876797512,3.1391080176904254,3.690050296462857
0,1.5494102600927824,-1.702598106470239,2.2698453111811423,8.516548134737569,3.6950503646152484
0,-6.379039262265687,-5.131581898952059,-5.169966210327477,-1.6360218849247672,3.7000504327676396
0,-14.477497824365983,-10.830576250915719,-13.249788713352272,-12.66860204182612,3.7050505009200236
0,-13.655965453300071,-9.23958119563749,-11.199622223008689,2.8588076636282627,3.710050569072415
0,-2.6044421751367155,-6.358596765599067,-7.219466763499437,-7.373792768540755,3.715050637224806
0,0.27707198500719665,-9.927622992434312,-9.869322358028054,-8.546403337866563,3.72005070537719
0,-1.5014229974670106,-1.8366599070009424,2.210810971045926,5.390975956569385,3.7250507735295812
0,-5.459927146951818,-11.785707539466461,-8.04906679803739,-5.971654883934859,3.7300508416819724
0,-1.738440487631917,-11.464765919293932,-10.258955686575854,-4.99429585784916,3.7350509098343565
0,-8.946963043361205,-10.833835075065695,-14.578855715228485,-6.436946963343849,3.7400509779867477
0,-6.135494837532694,-10.122915034321599,-11.838766903669896,-12.049608198064188,3.745051046139139
0,-1.0840358929808465,-5.002005823577884,-4.1986892704294405,-2.3722795589542147,3.750051114291523
0,4.717413767910095,3.348892531454185,4.161377166890352,4.285038957700967,3.755051182443914
0,-1.19114587710827,-4.340219994496742,-1.3985676088754162,7.072347355888013,3.760051250596298
0,3.280285149616094,-1.599343426525455,3.0414763851461992,4.419645639369108,3.7650513187486894
0,-8.188293174359616,-9.448477789522759,-7.918490868222401,-5.1430661885181035,3.7700513869010805
0,-2.1868808713848438,-2.87762310798817,-3.9984693860440097,0.22421187532804132,3.7750514550534646
0,1.454522036461706,-2.1567794059274883,0.631540814935807,-8.66852016590617,3.780051523205856
0,2.515915527310011,-1.4959467069399242,1.9015397182648726,5.318737691234381,3.785051591358247
0,6.137299579241118,-0.0651250343814588,1.8115273075562197,-5.30401454955,3.790051659510631
0,-1.011325829920945,-5.794314411446556,-1.1784964336745785,2.813223115568607,3.7950517276630222
0,3.050039277359482,-2.6435148611205785,1.9714684779884468,3.99045069044218,3.8000517958154134
0,-2.768605121567195,-3.732726406079346,1.131422025893704,-1.3023318211724328,3.8050518639677975
0,3.6627409505704516,1.7280509313196841,5.951364193271477,10.064875584270219,3.8100519321201887
0,-2.19592252899898,-2.2711828710731248,4.031294963100412,5.582072909969394,3.81505200027258
0,2.475404416906519,-1.110427835301482,0.9712143179981267,4.449260158601349,3.820052068424964
0,4.066721765391861,-1.7396839833079332,3.461122240238435,9.546437332234774,3.825052136577355
0,2.1180294933907993,4.451048663065732,9.601018711782539,7.573604432300046,3.8300522047297463
0,-2.4806724223949597,-3.978229918002227,-4.449096285789725,6.760761459510792,3.8350522728821304
0,-0.9993840053886192,1.3024802516420781,-2.5892227712152915,6.977908413837302,3.8400523410345215
0,-1.188105278967557,-2.076820849819012,-3.4893607632391825,3.7150452945679087,3.8450524091869127
0,1.6831637335935428,-2.9261332441127004,0.790489719618245,15.982172100337504,3.850052477339297
0,-28.34557699076542,-31.305456952635794,-30.77967134077768,-11.940711170882322,3.855052545491688
0,9.255672525502574,10.705208004061518,8.83015603820613,14.986395478362722,3.860052613644079
0,-1.5430877392693698,1.0558616063893533,-3.550028159864468,-1.106507954806754,3.865052681796463
0,-2.131857806356044,0.9965038351151874,-1.180223950907669,2.1905785263892787,3.8700527499488544
0,7.47936230297802,4.687134670845022,5.77956864925386,6.237654918387832,3.8750528181012385
0,9.700572567285937,9.227754093887292,11.0093496246655,12.474721217253714,3.8800528862536297
0,-0.2482270353256481,-2.521637915860853,2.4791189589286664,1.671777418463495,3.885052954406021
0,-4.17703652724228,-6.451041378858924,-2.7411233649346114,-10.811176483102415,3.890053022558405
0,-0.3258559310183003,-4.330456315544074,-2.201377364216014,-8.164140492653193,3.895053090710796
0,0.005314730899204666,0.33011725399089153,-0.9516430561750864,-9.657114614862198,3.9000531588631873
0,0.9864754361723935,2.5406793099602725,5.01807954205333,-5.620098853582173,3.9050532270155713
0,-2.182373837514337,-1.868770167339504,1.2277904133097692,-13.303093211830442,3.9100532951679625
0,-4.741233112428642,-9.018231197585978,-3.532510459720351,-14.326097691723051,3.9150533633203537
0,-5.040102410636351,-2.997703800214519,-1.5328230944175107,-10.259112294283286,3.9200534314727378
0,1.2510182461320227,5.042812005741265,5.316852491911345,-3.3721370193823907,3.925053499625129
0,0.08212883642790705,5.713316201430744,6.066516281927412,-2.2951718659909153,3.93005356777752
0,-5.856770661057705,-1.776191232181425,-0.7438317419867082,-8.588216832511126,3.935053635929904
0,-4.82568026746446,-2.8057103143834423,-2.904191597754357,-5.491271916874068,3.9400537040822954
0,1.615399996379745,1.4747589354909394,0.32543669661692654,1.3156628835048574,3.9450537722346866
0,9.496470109868504,11.58521649811232,10.295053123136274,9.77258757154238,3.9500538403870706
0,1.377530052249761,-0.47433764610251755,-1.3853423363661062,0.7395021500509924,3.955053908539462
0,2.498579802365981,6.30609648279426,4.154250299582152,4.336406621442932,3.960053976691853
0,3.7196193386845233,6.276518864284929,1.7438310121395273,6.513300987712243,3.965054044844237
0,7.240648639355765,3.836929477386329,6.953399782199026,12.860185250380084,3.9700541129966282
0,3.6716676821259133,7.387328300596784,5.452956590294671,13.73705941022298,3.9750541811490123
0,0.6426764442779126,7.287715311859045,4.502501416478553,0.463923467025005,3.9800542493014035
0,10.233674902683497,15.828090488440502,14.022034240228596,19.850777419583864,3.9850543174537947
0,-1.2153369661844466,4.298453806727484,0.5415550403383586,7.287621265739476,3.9900543856061788
0,-3.034359186216578,-3.8511947577755916,-3.6889362050443637,-4.435544997638965,3.99505445375857
0,-6.013391781401992,-7.900855230009192,-10.149439518008831,-7.758721374279058,4.000054521910961
0,-4.5524347754774555,-3.6705276347594897,-5.8299549203254335,-4.611907867827841,4.005054590063345
0,0.8385118082270122,-3.490211996345633,-3.2104824331457666,0.3548955185247811,4.010054658215736
0,0.3394479466902476,-2.6899083386356706,-2.001022077048499,0.12168878196400201,4.0150547263681275
0,-13.32962638291948,-16.16961668506852,-17.591573872135417,-9.061528080126164,4.020054794520512
0,-15.328711203020863,-17.259337058378854,-13.972137837808068,-13.084755070046398,4.025054862672903
0,-15.897806535088979,-13.629069480120544,-13.382713992335399,-10.32799218939006,4.030054930825294
0,-18.726912399215315,-19.238813970357768,-19.153302352592913,-11.481239438731082,4.035054998977678
0,-20.006028813878334,-21.918570547536333,-19.213902933936474,-19.114496817496402,4.040055067130069
0,-19.725155795784858,-23.45833922828556,-22.044515750009268,-16.487764323796583,4.04505513528246
0,-15.564293359782578,-15.988120027214144,-18.605140812554556,-14.861041954209474,4.0500552034348445
0,-22.153441518883998,-18.457912956921167,-18.155778131362293,-15.854329703716775,4.055055271587236
0,-24.242600284243412,-17.04771802816375,-20.886427714319666,-20.997627565725594,4.060055339739627
0,-19.151769665000266,-14.287535249990523,-15.20708956746216,-11.090935532022819,4.065055407892011
0,-18.630949668194035,-16.407364629832607,-19.45776369501812,-17.00425359277788,4.070055476044402
0,-22.750140298847164,-19.667206173552493,-23.118450099426667,-23.347581736591323,4.075055544196786
0,-17.62934156002661,-13.647059885399564,-11.78914878128382,-16.410919950375842,4.080055612349177
0,-17.96855345285878,-16.176925767987456,-16.559859739386887,-17.454268219203986,4.0850556805015685
0,-21.26777597659192,-17.516803822351825,-16.25058297091882,-11.927626526379,4.090055748653953
0,-21.997009128598066,-23.39669404791628,-21.84131847150113,-11.490994853664308,4.095055816806344
0,-20.11625290426951,-22.726596442279558,-20.632066235029153,-14.804373181492762,4.100055884958735
0,-21.825507296944814,-20.736511000980776,-22.802826253462598,-17.00776148901657,4.105055953111119
0,-22.644772297893212,-24.636437717397726,-23.473598516678464,-20.2411597539574,4.11005602126351
0,-7.4740478963659305,-8.686376582801842,-7.464383012468323,-2.12456795247931,4.115056089415901
0,-22.393334079814753,-19.16632758659316,-20.83517972677676,-14.637986059361744,4.1200561575682855
0,-26.752630834025958,-27.116290716496255,-25.09598864390502,-14.691414048264178,4.125056225720677
0,-26.471938142835167,-23.48626595837091,-22.47680974632063,-16.32485189167927,4.130056293873068
0,-24.391255987716878,-27.476253295827398,-23.80764301432928,-15.948299560699075,4.135056362025452
0,-23.65058434765277,-24.31625271002392,-24.06848842595128,-14.001757024898614,4.140056430177843
0,-27.319923199183787,-21.166264179657038,-24.529345956901704,-18.955224252327167,4.145056498330234
0,-18.0792725164564,-21.58628768107597,-17.900215580593446,-14.518701209484684,4.150056566482618
0,-21.008632271326487,-21.7663231884393,-23.9610972682306,-10.992187861320135,4.1550566346350095
0,-10.268002433606112,-16.446370673823267,-14.471990988947846,-11.14568417136995,4.160056702787401
0,-21.60738297135174,-21.746430107321654,-17.952896709957635,-1.3991901020198005,4.165056770939785
0,-23.746773850952437,-26.916501457072535,-20.053814396691998,-14.352705614770878,4.170056839092176
0,-29.51617503687177,-27.37658468906449,-24.924744012788786,-14.456230670297472,4.175056907244567
