labels,F4,F3,Fz,Cz,timestamps
0,-5.282584856864538,-6.527765187753025,-8.81511313208873,-4.507347219411775,-1.999999999999968
0,0.8463058608674503,6.0124148724937045,7.563657696595905,1.242127437967291,-1.994999999999969
0,6.165193501398259,7.482595347631465,7.20242796511248,2.7016008079483553,-1.98999999999997
0,-4.135921921470405,-1.6072237566689638,-3.588802318368604,-0.13892710604090078,-1.9849999999999675
0,-0.9170403940439986,1.982957564910544,-2.660033145966865,0.3105436993273851,-1.9799999999999685
0,2.98183809737191,7.2931393174351165,10.498735490108569,5.050013227274237,-1.9749999999999694
0,0.9807135664897586,-0.47667849428354486,1.357503597525391,0.8094814808685549,-1.9699999999999704
0,-6.2204139730253,-0.5364958657236891,-4.633728816350469,-3.191051537012301,-1.9649999999999679
0,10.318455492477618,7.633687207430383,9.315038255614109,4.39841417640545,-1.9599999999999689
0,3.047321976564786,3.5238707292742864,2.0438048203851196,2.9778786238366184,-1.9549999999999699
0,-0.3938145075007737,-5.025945296414723,-3.357429115336389,1.0973418078288195,-1.9499999999999709
0,4.0050460532044845,-2.0357608660359485,5.041336454928396,-0.08319626929301549,-1.9449999999999683
0,-2.626096328600112,-5.1255759758566155,-2.099898462435608,-3.2737356053213826,-1.9399999999999693
0,-11.197241640218397,-13.245390621763047,-16.201133861008415,-12.734276197933205,-1.9349999999999703
0,-5.81838986864522,-1.6752047990415417,-7.512369733955502,-9.224818044324476,-1.9299999999999713
0,-5.349541000252602,3.1849814976641797,3.34639392633253,-4.515361140893394,-1.9249999999999687
0,-6.730695020740279,-0.5748317259489467,-6.104842871897518,-4.205905483235776,-1.9199999999999697
0,-4.011851915214207,-4.934644464134619,-6.756080120049712,-2.38645106636327,-1.9149999999999707
0,6.036988331692213,8.645543288874546,7.442682190778334,3.0930021150715694,-1.9099999999999717
0,7.3458257354966126,3.6157315387882734,6.421444069643735,4.842454066528415,-1.9049999999999692
0,5.194660311424492,2.615920291020118,-2.1797944746096496,2.4819047933046647,-1.8999999999999702
0,3.683492074161446,5.576109550573404,5.538966566506705,-4.888645699570807,-1.8949999999999712
0,-0.5976789620983323,-0.3337006779184424,2.237727201210761,-0.4291974071746728,-1.8899999999999721
0,-3.698852783429576,-4.723510390074704,-6.51351256248267,-0.40975032448200654,-1.8849999999999696
0,0.49997062408085036,4.6766804184327,0.6052472833927516,0.30969555365979284,-1.8799999999999706
0,7.208791274416947,5.846871751928764,9.9340067468779,4.469140232423533,-1.8749999999999716
0,-4.082390818512382,-7.572936385411573,-4.887234164075723,-4.091416283100335,-1.8699999999999726
0,-0.49357564094873374,-0.9727439895214516,-0.8384754417303646,1.9180260120982373,-1.86499999999997
0,8.675236820795842,7.857448943747409,8.370282921554107,8.177467122971414,-1.859999999999971
0,1.174046580264712,-7.42235758141857,-2.35095906668254,-2.7530929457085795,-1.854999999999972
0,-1.3471463492994649,-5.942163560833166,-10.472201399035121,0.776345810572427,-1.8499999999999694
0,-0.26834195487060286,-0.5719689900762602,-0.1634440679553293,1.405783396190714,-1.8449999999999704
0,-1.3295402234401086,-3.2417738643441196,4.095312934473099,1.8752198154659103,-1.8399999999999714
0,-8.010741141882814,-12.541578178466992,-10.545930383593792,-4.75534492735265,-1.8349999999999724
0,0.538055303181368,-0.9513819267952365,-0.05717401382479115,2.324089171978519,-1.8299999999999699
0,-2.3931508745391366,4.248814896858489,9.011582052344526,0.9335221177602855,-1.8249999999999709
0,-1.004359661087938,-5.120987701030684,-5.819662176471657,-0.6570460857059446,-1.8199999999999719
0,-9.045571042306415,-7.2207897138748915,-8.530906691728912,-3.3476154341438527,-1.8149999999999729
0,-3.276785003703631,-0.910591134815293,6.067848515281383,-1.3181859232007072,-1.8099999999999703
0,-5.038001530308865,-8.680391956555468,-4.953396546451299,-6.088757548321913,-1.8049999999999713
0,-6.789220606641312,-18.69019217123359,-18.784641867680868,-15.80933030457472,-1.7999999999999723
0,-3.770442216712893,-4.9399917701194225,-1.875887438607288,-5.959904186330059,-1.7949999999999733
0,-3.5416663440317784,-6.619790743422275,0.362866751382697,-6.4204791870411,-1.7899999999999707
0,-5.242892971653867,-14.489589080413863,-11.1883792864821,-4.481055299337312,-1.7849999999999717
0,-1.4141220822364655,-1.5093867695276004,-4.459625540526561,-6.021632515226593,-1.7799999999999727
0,-1.025353658095369,5.760816201524931,8.439128001393026,3.3477891737656758,-1.7749999999999737
0,-5.956587681284502,-4.128980154634322,-3.852118648328642,-3.6727902235769347,-1.7699999999999712
0,-3.2478241335888898,-5.638775825334273,-6.363365477295772,-7.093370698286289,-1.7649999999999721
0,-3.7490629964404465,-1.958570797734726,1.2153875269973649,-9.203952241076527,-1.7599999999999731
0,-6.370304250871251,-1.598365058666685,-3.3258596226781463,-6.934534842067004,-1.7549999999999741
0,-5.651547877471399,-3.6181585946661015,-9.837106913276152,-2.0951184906643197,-1.7499999999999716
0,1.9972061436381,1.8720486079481757,2.701645668603206,1.254296824289102,-1.7449999999999726
0,0.8259578326671462,2.7922565629776366,5.4103981366939875,0.3237111142196132,-1.7399999999999736
0,-6.325292790052611,-10.367534715751656,-12.710849495163112,-13.136875609326783,-1.7349999999999746
0,-8.406545704028662,-3.0573252142679506,-4.572097212993398,-9.337463334457068,-1.729999999999972
0,-2.597800888349265,3.6028850817522287,6.76665499756398,-0.278052048584695,-1.724999999999973
0,-2.949058321565321,0.5230961868884667,-2.3945928488367394,0.32135826154054925,-1.719999999999974
0,2.3596820181679217,-0.9866918842801452,-7.065840737498356,-2.9892323905029317,-1.714999999999975
0,4.128420152834613,4.563520882733229,5.992911346362401,-0.8298239910071453,-1.7099999999999724
0,-0.3128438956781653,-0.7962654976893275,-2.2083365823284664,-1.5604165261315703,-1.7049999999999734
0,-7.014110105623332,-7.976051011243686,-13.02958450854418,-2.3210099818819834,-1.6999999999999744
0,-0.4853784551834568,0.9141643564869946,0.2391675830357336,0.4283956558848627,-1.6949999999999754
0,3.1733510776898144,5.054380620149209,4.967919708188867,6.297800401391384,-1.6899999999999729
0,-2.4879214848264217,-4.335402205541175,-6.8533281170644536,-2.7927957312259983,-1.6849999999999739
0,3.8308038794203636,4.154815894053296,4.825424123325631,1.42660727200201,-1.6799999999999748
0,10.599527192441734,14.065034933413408,14.26417644533262,10.526009424892196,-1.6749999999999723
0,3.358248475871898,-0.11474507339931195,2.2929288645289696,8.395410740931133,-1.6699999999999733
0,10.676967750733072,1.3754758870829282,1.461681395825683,7.074811232955798,-1.6649999999999743
0,9.095685037327716,11.525697827860341,15.510434053543115,8.424210913008004,-1.6599999999999753
0,-0.36559964479709195,7.925920761471392,8.649186851375227,3.1336097923780675,-1.6549999999999727
0,11.373113723232592,8.606144699755074,3.4179398021684504,9.543007881691143,-1.6499999999999737
0,16.161825159642298,19.406369653644305,19.336692917865612,13.012405190897782,-1.6449999999999747
0,9.820534681742206,16.426595632921696,13.145446209428757,7.931801729107326,-1.6399999999999757
0,8.739242305684924,10.146822645941254,5.204199686625932,5.22119750447734,-1.6349999999999731
0,15.567948046494209,18.757050699571035,14.1829533580402,11.17059252430553,-1.6299999999999741
0,12.966651918078615,19.727279799212962,21.481707231150402,13.829986795070266,-1.6249999999999751
0,12.705353933112578,8.577509948704252,5.640461312153179,8.269380322279224,-1.6199999999999761
0,5.054054103024259,5.84774115039852,4.579215605918187,0.1787731104286085,-1.6149999999999736
0,18.20275243813337,24.23797340545145,21.137970116259254,13.288165163222796,-1.6099999999999746
0,17.57144894763614,18.03820671377587,16.036724845942437,11.467556483680132,-1.6049999999999756
0,15.910143639339054,5.50844107373224,4.535479796397699,7.146947073956547,-1.5999999999999766
0,26.10883651938592,24.54867648211224,22.834234967677126,10.026336935229013,-1.594999999999974
0,31.39752759197402,30.578912934135637,30.542990358405756,18.535726067696547,-1.589999999999975
0,28.806216858912272,24.449150422988055,17.691745965315107,16.38511447039663,-1.584999999999976
0,31.29490431923797,32.60938893931288,29.18050178282871,18.854502140888332,-1.579999999999977
0,36.2535899690301,37.999628470940706,37.56925780290177,18.723889075046515,-1.5749999999999744
0,30.19227380126471,29.4198690026249,21.588014014760386,14.863275266999098,-1.5699999999999754
0,36.15095580570108,36.240110515850816,25.96677040475628,19.632660709149715,-1.5649999999999764
0,43.009635968779875,40.920352988773466,38.405526956493745,22.562045392172504,-1.5599999999999774
0,32.80831427341819,30.680596396093115,23.604283650795225,16.14142930490128,-1.5549999999999748
0,30.936990698910545,24.860840709055008,17.833040465633076,13.610812434300772,-1.5499999999999758
0,22.94566522119246,24.021085895814895,22.371797376453596,11.930194765673285,-1.5449999999999768
0,12.054337813376454,15.96133192194197,13.210554356617743,4.559576282975122,-1.5399999999999778
0,5.53300844645626,0.2715787509455496,0.8093113777647613,-1.7910430308030163,-1.5349999999999753
0,8.55167709005179,3.741826344986025,3.1480684103589547,4.898336806803229,-1.5299999999999763
0,-2.79965628704415,2.2520746655741752,5.016825424270093,-0.6222842219753058,-1.5249999999999773
0,-11.470991716420807,-5.087676326043681,-7.494417610923836,-1.9529061350440453,-1.5199999999999747
0,-15.672329229432638,-12.637426668595191,-14.415660725639437,-9.393528950288948,-1.5149999999999757
0,-15.123668856525011,-11.167176400324381,-7.436903949764469,-11.324152685241996,-1.5099999999999767
0,-13.20501062682588,-11.026925558564004,-13.54814731224466,-8.174777356714772,-1.5049999999999777
0,-10.756354568072055,-15.836674179535454,-19.54939084090831,-6.72540298062506,-1.4999999999999751
0,-7.577700706746352,-6.6364222982823335,-6.210634562306182,-7.066029572051731,-1.4949999999999761
0,-5.979049068304051,-8.61616994871922,-2.811878501731322,-4.636657145360028,-1.4899999999999771
0,-10.060399677374226,-15.245917163762716,-15.563122683528151,-6.51728571429075,-1.4849999999999781
0,-13.461752557790895,-12.855663975307182,-7.184367131245375,-3.4779152920224776,-1.4799999999999756
0,-8.993107732446186,-4.895410414097058,6.104388132380901,0.9614541087389081,-1.4749999999999766
0,-17.464465223133583,-12.495156509787991,-13.176856914795295,-2.759177524404809,-1.4699999999999775
0,-19.165825050387188,-14.484902291058539,-17.30810229444704,-6.929810203653522,-1.4649999999999785
0,-10.197187233273455,-5.454647785547534,-2.6793480274330785,-0.7704439409349022,-1.459999999999976
0,-17.738551789322138,-14.684393019808049,-12.850594133552814,-3.3410787478231736,-1.454999999999977
0,-15.719918734589818,-14.764138019317848,-19.46184063157452,-5.101714635566356,-1.449999999999978
0,-9.38128808368028,1.5761171915526255,1.4469124608386035,-1.0823516150986667,-1.444999999999979
0,-7.86265984985253,-7.863627410627371,-2.134334872958703,-3.5129896970341745,-1.4399999999999764
0,-15.994034045243433,-17.80337184859728,-18.715582648946377,-11.603628891646705,-1.4349999999999774
0,-7.5554106809428285,-12.593116144247682,-9.356830882430543,-7.554269208695648,-1.4299999999999784
0,-3.0667897670053406,-1.4528603183212794,2.471920412222449,0.48508934275647986,-1.4249999999999794
0,-9.828171312637396,-9.672604390525064,-13.249328778522878,-1.7155532457741938,-1.4199999999999768
0,-10.319555326349931,-9.122348379807015,-6.880578467585849,-4.656196982464586,-1.4149999999999778
0,0.9990581840708564,0.7479076955679993,4.798171332733307,0.6731581247147003,-1.4099999999999788
0,-7.272330788506106,-5.151836182074068,-6.0530793893868,-3.8174879319915096,-1.4049999999999798
0,-12.353722250685152,-8.761580029974752,-15.774330645451077,-8.088135160096693,-1.3999999999999773
0,-4.2851162084393115,-1.9613238649249527,0.5244175535627338,1.7812164332231755,-1.3949999999999783
0,-11.496512666945188,-7.771067703179295,-5.666834802607177,-1.6594331588569862,-1.3899999999999793
0,-15.527911630503104,-17.000811560383337,-20.028087723560617,-8.39008394291544,-1.3849999999999802
0,-7.48931310239011,-11.180555451315824,-10.439341218055944,-6.300735925221408,-1.3799999999999777
0,-10.740717084762432,-10.420299389597245,-2.9005952937132764,-5.611389111520389,-1.3749999999999787
0,-16.2121235786942,-17.960043387615453,-15.031849957086937,-12.47204350690087,-1.3699999999999797
0,-13.343532584114042,-9.63978745650579,-12.953105213804255,-10.812699115672157,-1.3649999999999807
0,-6.064944099689553,-1.2795316061831692,-0.6243610684900822,-4.473355941222515,-1.3599999999999781
0,-11.306358122924312,-7.56927584563239,-8.415617524845779,-6.314013986059875,-1.354999999999979
0,-15.427774650307272,-12.269020183188355,-15.826874585841871,-7.704673251988785,-1.34999999999998
0,-11.919193677237116,-3.6087646264987643,-3.378132253641291,-6.855333740179295,-1.3449999999999775
0,-10.170615197884711,-1.2185091824759564,-0.6093905295341837,-2.3159954511575647,-1.3399999999999785
0,-16.802039205190848,-11.34825385745654,-16.950649414132545,-7.696658384870468,-1.3349999999999795
0,-15.003465690840354,-10.837998657227983,-13.121908907354857,-12.277322540703885,-1.3299999999999805
0,-3.494894645197108,-1.5677435868378058,2.9268309918367477,-3.767987917342717,-1.324999999999978
0,-3.1363260575018606,-12.797488650538181,-11.024429714628189,-12.008654512656909,-1.319999999999979
0,-4.887759916293817,-10.897233851812533,-9.615691024177366,-9.459322323682859,-1.31499999999998
0,-0.8891962096967675,2.8330208066751648,5.243047066375175,2.0700086533658486,-1.309999999999981
0,-0.4106349255340788,-5.356724677056036,-2.468215439295372,-5.610661577079633,-1.3049999999999784
0,-6.1720760514109445,-10.476470304553168,-15.329478537250711,-4.08133301019874,-1.2999999999999794
0,-0.37351957471367725,-1.7162160769046013,0.8092577768369629,-3.022005640841243,-1.2949999999999804
0,-2.194965482565212,0.07403800533858916,1.8579935078525698,1.7173205364796185,-1.2899999999999814
0,-5.696413761833838,-8.875708057972199,-11.163271338937546,-3.403354472526727,-1.2849999999999788
0,-5.8378643990867785,-4.8654542666366325,-6.75453675794821,-8.094030661982895,-1.2799999999999798
0,-8.509317380433433,-2.645200619987301,2.8441972569104124,-3.194708025694125,-1.2749999999999808
0,-8.29077269136031,-7.484947116852919,-8.057069287784735,-5.625386556985481,-1.2699999999999818
0,-5.7922303166288716,-8.084693755562133,-11.438336385062252,-3.746066248687712,-1.2649999999999793
0,3.396309759665335,5.855559466085593,4.910395972564082,6.953252906749861,-1.2599999999999802
0,-1.4851524461817487,-2.724187449341789,0.9191277930519353,0.052570917001626194,-1.2549999999999812
0,-2.486616917755274,-5.523934499147703,-9.182140915459199,-2.3981122103732266,-1.2499999999999822
0,2.9519163614089727,7.6563183194585,6.056589855273424,2.5312035320789223,-1.2449999999999797
0,4.000447407785364,5.356571009280849,10.065320113566802,1.01051815178787,-1.2399999999999807
0,-2.141023762274533,-5.253176427103671,-6.165950132472802,-1.4701683438662343,-1.2349999999999817
0,0.7375028674256774,1.2470760126537188,0.8527791249466219,-0.30085594755015804,-1.2299999999999827
0,0.8360273130223346,0.367328330884077,7.271507893495218,-2.391544651894586,-1.22499999999998
0,-8.665450409315184,-8.642419469988027,-5.7897638192409655,-7.522234449385822,-1.219999999999981
0,-8.946930283187383,-10.642167387274625,-10.141036005721938,-6.872925332181472,-1.214999999999982
0,-1.3884122916767065,1.2780845822627132,4.18769134184286,0.9863827080572143,-1.209999999999983
0,-4.4598964172720015,-4.451663557544695,-2.433581768375873,-5.564310319872641,-1.2049999999999805
0,-3.6313826420100668,-8.111411802442383,-10.344855327956052,-9.19500440680487,-1.1999999999999815
0,-0.812870947582907,-1.0111601477760996,-0.8361293281698363,-1.0456995431223752,-1.1949999999999825
0,-0.6043613154095056,1.359091411521618,3.0825962401237263,-1.8363957187057953,-1.18999999999998
0,-3.925853726724965,-7.280657119208795,-11.81867861364018,-3.4270929230741993,-1.184999999999981
0,-0.5573481626014064,-4.340405734398953,-3.149953879748541,-4.447791145487642,-1.179999999999982
0,0.9811553960598296,2.629845571848338,7.068770451906894,6.84150962503682,-1.174999999999983
0,-3.6703430315245402,-3.259903194286505,-1.002505608347454,1.0008093995663443,-1.1699999999999804
0,0.1981565739519846,-0.6496520264855599,-2.963782050252244,1.000108189017214,-1.1649999999999814
0,4.10665423187947,2.070599081653634,6.784941136366369,3.2894060040850266,-1.1599999999999824
0,-3.494850038354188,-5.169149863398253,-1.7863360383824833,3.9287028552588374,-1.1549999999999834
0,-4.766356217379883,-8.418898855033515,-12.94761356443699,-4.532001247191024,-1.1499999999999808
0,0.6421357143105362,0.36135211370092823,5.28110856846603,-1.6327062931035885,-1.1449999999999818
0,1.720625776432907,-0.7483969498253612,5.7798303709010375,0.786587727767031,-1.1399999999999828
0,-2.4708860112096245,-6.648146037960899,-9.261448146508606,-2.5241191741910574,-1.1349999999999838
0,-1.9423996287913914,-2.08789514280975,-6.0227269731382655,-6.16482698845224,-1.1299999999999812
0,6.616084943564434,8.002355743785145,11.215993901880527,4.994464295711932,-1.1249999999999822
0,4.384567725667924,3.0126066300100964,3.4147144895325625,0.9337546891844701,-1.1199999999999832
0,8.113048736993415,4.252857523751268,0.07343480051255302,4.263044202782811,-1.1149999999999842
0,11.591527996437609,19.75310843237895,20.602154845026718,12.162332847028065,-1.1099999999999817
0,3.5800055221499347,2.8933593624870757,7.120874632581972,5.381620631903858,-1.1049999999999827
0,3.2984813315247825,1.4836103197468564,-0.2704058282615278,5.1709075666772195,-1.0999999999999837
0,10.106955441352039,6.68386130913994,12.688313470223319,5.46019365993759,-1.0949999999999847
0,5.405427867864646,4.71411233521168,9.637032535107169,3.9294789197232216,-1.089999999999982
0,-0.22610137330613533,-3.9256365978814483,-3.804248627251331,4.098763353593813,-1.084999999999983
0,0.6923677330084068,2.1346145137556762,0.2644699889383134,-0.7919530312940282,-1.079999999999984
0,6.720835201734532,4.74486567392511,11.273188389218479,0.40732977195441955,-1.074999999999985
0,0.709301047577569,-1.8748831136861182,-2.2480934211049997,-0.12338822986994202,-1.0699999999999825
0,1.097765284958285,-6.784631845505451,-3.6593754370442855,-1.8841070299825033,-1.0649999999999835
0,4.9062279280465555,6.265619482106583,9.03934234622855,1.3551733784386668,-1.0599999999999845
0,3.9546889907707183,4.5958708728734115,5.0680599334101135,1.9544530022398106,-1.0549999999999855
0,0.04314848675241778,-3.903877669621635,-6.493222671114193,-0.4762681517806137,-1.049999999999983
0,7.211606429297352,8.536373857968435,7.505494536770499,6.473009923055409,-1.044999999999984
0,10.440062831344424,11.426625458705889,10.26421156099249,2.4422872332149543,-1.039999999999985
0,2.1185177052770348,-2.3631228648557046,-7.17707159487306,2.4815637848535066,-1.034999999999986
0,-0.21302893712916243,0.14712888929231907,-2.9583549275764325,4.440839583795425,-1.0299999999999834
0,1.125422915524327,4.707380722882553,6.500361566131213,3.8201146355438764,-1.0249999999999844
0,-0.5961267254950594,-4.5123673624569856,-5.1309221104082,-1.9906110547160716,-1.0199999999999854
0,0.022322151045490513,-4.992115365119185,-4.742205953820419,-5.6413374819797255,-1.0149999999999828
0,4.460769556346975,7.438136716628605,9.796510039371663,1.8379353588368543,-1.0099999999999838
0,2.259215501494689,2.8483888845844083,5.375225872632518,4.537207472976074,-1.0049999999999848
0,-2.0723400026282928,-4.681358859617682,-10.916058450849015,-2.5835211343317526,-0.9999999999999858
0,5.336103054688023,8.78889348546246,10.952657071909023,1.1757495420233426,-0.9949999999999832
0,0.21454468401546078,5.489145921073657,5.981372443793651,-2.314980492890917,-0.9899999999999842
0,-1.8770151042257899,-5.000601551862721,-8.589912332568403,-0.9457112339518436,-0.9849999999999852
0,0.8514237002997285,2.059651067297801,2.718802745223483,-1.0864426759357682,-0.9799999999999862
0,6.069861107900435,14.62990377905591,14.207517679518542,6.262825186453333,-0.9749999999999837
0,-1.4717028712406341,-0.20984341642946386,1.2862324723857463,0.47209235843258324,-0.9699999999999847
0,-4.213268227109902,-1.7195905195379204,-7.255052874626006,-0.05864115498831962,-0.9649999999999856
0,1.755165050298774,7.660662468984862,10.95366163973261,5.090624651007393,-0.9599999999999866
0,-1.2864030288905548,-0.7990844518093646,0.2723760165897574,4.329889781038869,-0.9549999999999841
0,-7.86797245442717,-6.1888312830487795,-10.718909743099058,-4.180845760542258,-0.9499999999999851
0,-4.189543215813294,-2.0985780258445157,1.6698043616400562,-2.031581969551853,-0.9449999999999861
0,-0.40111530213881624,5.471675318908498,6.558518332018489,4.807681158230606,-0.9399999999999871
0,-3.012688702112717,-3.3580712495647793,-5.722767830678682,0.04694362705805449,-0.9349999999999845
0,0.5757365957900746,-3.317817732048849,0.5459458747545101,0.12620544108070963,-0.9299999999999855
0,8.604160603173847,13.52243587067274,13.954659449465055,7.865466604291488,-0.9249999999999865
0,8.992583331433282,0.7526895576519527,3.7533728943167053,7.824727120409131,-0.9199999999999875
0,0.4510047914312909,-1.887056672458636,-6.957913790364002,3.2639869926511262,-0.9149999999999849
0,2.6094249934625164,2.833197178685679,4.990799395408232,1.523246223668276,-0.9099999999999859
0,-3.08215605251109,-1.7565488906606637,-0.7204875484206152,2.0925048157037467,-0.9049999999999869
0,-2.343738336599304,-3.5862948822403258,-6.271774621884601,-0.168237229231945,-0.8999999999999879
0,10.024678151130445,10.593959202233135,12.436938175006508,11.981020090669412,-0.8949999999999854
0,8.72309342045821,13.044213360865395,13.995650842070916,8.600276776817779,-0.8899999999999864
0,8.871507480607386,0.6044675911520081,-2.845636621493643,7.699532829920649,-0.8849999999999874
0,3.7799203400137884,2.8547218898435536,-0.34692421719408334,1.4387882498843807,-0.8799999999999883
0,4.758332006394501,6.33497625317848,10.181788053096577,0.7180430360121507,-0.8749999999999858
0,0.3567424869416922,-3.0947693229388546,-2.2194998127323817,-4.152702812677399,-0.8699999999999868
0,-0.7748482114766099,0.3754851571646662,-5.030787817053046,-3.1234492971537273,-0.8649999999999878
0,3.633559917852547,2.5357396890789023,8.13792403767059,-0.8941964181792285,-0.8599999999999852
0,-9.428033118398286,-7.314005731600559,-1.9033642510362614,-7.634944176237199,-0.8549999999999862
0,-9.869627313382972,-14.723751109093158,-13.764652685679282,-7.88569257144301,-0.8499999999999872
0,-1.7212226597438298,-6.033496447020049,-2.7659412685103377,-6.766441603359123,-0.8449999999999882
0,-0.38281914951120577,-1.563241748145386,-1.7172300012038193,-6.617191270863571,-0.8399999999999856
0,-7.044416774302171,-14.052987014486114,-15.008518884853032,-10.467941572123667,-0.8349999999999866
0,-5.316015525414281,-8.39273224737227,-6.689807919931277,-3.2286925045778627,-0.8299999999999876
0,0.8623846062565332,3.6275225526365045,4.648902893829744,-3.679444064978596,-0.8249999999999886
0,-4.899216369809032,-7.65222261440275,-6.402386442755666,-0.560196249572351,-0.8199999999999861
0,-7.800818443822538,-14.79196774799924,-13.723675928549195,-10.27094905425254,-0.8149999999999871
0,-0.6624216056111404,-1.011712847053585,3.49503443806175,-2.1617024745197346,-0.8099999999999881
0,-6.004025844550416,-7.46145790969155,-2.3462553407521973,2.037543494577018,-0.8049999999999891
0,-9.27563114956917,-13.061202933334117,-15.487545262423424,-2.6832111417119555,-0.7999999999999865
0,1.692762490902211,-1.7509479146861064,0.41116467607456675,-1.3239663780224684,-0.7949999999999875
0,2.7511550888645706,6.909307150213163,9.819874478299894,1.0452777910972562,-0.7899999999999885
0,-4.730453343519069,-3.580437734394802,-6.89141585200997,-3.9754786288009405,-0.7849999999999895
0,3.4579372059234657,-0.24018256430991025,-2.3027063112101467,3.5637643679202182,-0.7799999999999869
0,1.796326749364523,5.91007266461096,8.996003104355644,3.6030067869173457,-0.7749999999999879
0,-7.425284701049734,-5.179672043547676,-6.795287601641991,-7.027751366237982,-0.7699999999999889
0,-10.846897133047612,-2.8094166847461244,-11.166578425529304,-8.348510085946236,-0.7649999999999899
0,2.091489466100665,3.660838745148166,6.3621306366436015,-0.3792693662550169,-0.7599999999999874
0,-3.6201248903380203,-3.478905749607577,-1.0491604108032728,-2.460029200733484,-0.7549999999999883
0,-7.611740188729364,-9.098650164649648,-13.63045156336034,-11.670789582559964,-0.7499999999999893
0,-2.0233564150938843,-1.4383944953291639,-1.081742816228358,-7.57155050443265,-0.7449999999999903
0,-1.8849735550379316,4.2918612634066475,4.076965835878348,-5.552311958342763,-0.7399999999999878
0,0.4134084061566232,-2.9578828831806807,-3.8843256014524865,-4.073073935545901,-0.7349999999999888
0,0.5817894833591253,3.0923730701570706,1.1043828774152766,-1.4238364267314858,-0.7299999999999898
0,6.760169691426531,10.172629128543411,11.5330912780697,2.6954005777592203,-0.7249999999999908
0,-5.561450954934859,-3.957114703189039,-4.858200394122789,-0.24536291229387808,-0.7199999999999882
0,-6.673072441106171,-5.806858420504755,-7.349492134057494,-2.0361268871316414,-0.7149999999999892
0,4.735305247699932,6.723397981110283,8.819216063385685,5.7931086629711634,-0.7099999999999902
0,0.8236821264887153,-0.37634549374484844,3.0279242034100093,7.32234374761847,-0.7049999999999912
0,-3.08794178971251,-1.806088840530959,-4.91336770893855,2.451578376060145,-0.6999999999999886
0,0.12043351409310477,6.724167945179582,7.585340331178755,3.840812557066819,-0.6949999999999896
0,6.658808052923204,12.304424867609812,13.284048328387156,7.54004629896669,-0.6899999999999906
0,-3.462818158280389,-4.845318069486526,-6.387243713148622,-0.27072039033861944,-0.6849999999999881
0,3.645554895259327,-0.7850608628353363,-2.838535789731003,1.5285124966658767,-0.6799999999999891
0,6.653927228153677,4.795196490663932,7.580172102224031,5.177744967229204,-0.67499999999999
0,7.692298854715367,2.5754539940510757,1.4088799662859033,12.226977028304828,-0.669999999999991
0,3.380669788738909,2.8357116501594772,-3.0024121941610233,5.186208686292167,-0.6649999999999885
0,0.9190400434653319,7.605969461501003,6.766295624080753,4.085439946857573,-0.6599999999999895
0,5.887409631726283,7.306227430162318,7.25500342402915,4.794670815019626,-0.6549999999999905
0,-2.604221433936849,-1.033514442304044,-8.556288791605306,-0.3160987046675011,-0.6499999999999915
0,5.1341468587913255,3.6667438451877525,5.372418979652166,1.5331313920423517,-0.6449999999999889
0,6.562514522007621,7.72700229340092,10.071126740178865,5.892361109191999,-0.6399999999999899
0,1.7908815674779457,-2.9027390972252247,-3.5301655079037624,1.0515904505968803,-0.6349999999999909
0,3.739248006552935,-3.7324803265231035,-2.4314577628200547,-3.6291805801815284,-0.6299999999999919
0,11.837613850163855,14.867778605570736,11.857249977043628,6.640048020274568,-0.6249999999999893
0,13.535979108650853,6.528037698877904,5.245957713093642,0.2692762552910517,-0.6199999999999903
0,12.034343791416859,11.008296952559522,2.9346654462384163,3.24850412800681,-0.6149999999999913
0,13.542707906684027,15.558556364836141,12.36337317677403,0.927731641326351,-0.6099999999999923
0,10.781071461437527,12.02881593282462,9.692080904329233,1.876958797954917,-0.6049999999999898
0,13.259434461449242,9.089075652417101,6.87078862770013,1.6061856004270696,-0.5999999999999908
0,19.78779691125068,18.649335518285923,13.329496344761157,7.895412051079818,-0.5949999999999918
0,30.67615881387552,32.609595523730974,29.3582040523212,17.584638151840377,-0.5899999999999928
0,20.454520170374387,15.32985566018857,11.686911745689846,1.9838639038570272,-0.5849999999999902
0,24.542880979467217,23.06011591688112,15.515619418358801,11.153089307317297,-0.5799999999999912
0,36.131241237441756,36.39037628078004,32.1343270620232,18.07231436147834,-0.5749999999999922
0,31.679600937931465,27.300636736390167,24.443034666416786,12.561539064517884,-0.5699999999999932
0,17.247960071651317,20.9608972654397,11.831742218983223,6.850763413322271,-0.5649999999999906
0,23.046318626569438,29.161157846945123,28.470449704934794,15.069987403552545,-0.5599999999999916
0,24.78467658832051,30.55141845737456,29.169157107389807,20.37921102971228,-0.5549999999999926
0,21.69303394034868,15.231679070617524,11.697864407208078,9.488434284957254,-0.5499999999999936
0,14.81139066390809,14.411939658151363,11.996571583060758,7.737657161012113,-0.544999999999991
0,11.009746738288813,15.322200189530939,13.625278611932742,3.3568796484578898,-0.539999999999992
0,7.518102141246968,10.082460632793456,-1.3660145304151112,3.786101737132973,-0.534999999999993
0,12.03645684938724,11.342720954658002,4.802692130921023,6.995323416372318,-0.5299999999999905
0,9.11481083833294,9.862981120678416,10.531398570308893,6.724544675032172,-0.5249999999999915
0,2.3331640827811815,-4.296758904559041,-4.1098952383403375,5.633765501402901,-0.5199999999999925
0,-10.908483443232884,-9.206499157004808,-7.511189321462899,-0.6570141167976893,-0.5149999999999935
0,-9.490131765731336,-1.1762396725306647,-0.7824837054430809,-3.3377941922274785,-0.5099999999999909
0,-15.011780910127545,-16.215980486499774,-11.583778416265131,-7.418574737571883,-0.5049999999999919
0,-22.733430900732778,-23.765721633442705,-23.115073479254054,-12.399355765156722,-0.4999999999999929
0,-15.105081760366861,-14.685463146544704,-11.636368918613053,-10.74013728658431,-0.4949999999999939
0,-15.666733510132648,-14.095205057277393,-5.6476647570965115,-6.300919312502905,-0.48999999999999133
0,-24.748386169404018,-19.994947395433385,-17.918961016153588,-7.021701852625127,-0.4849999999999923
0,-12.030039755800377,-17.89469018919239,-16.480257716066383,-10.882484915859452,-0.4799999999999933
0,-7.7316942852237425,-3.3044334651151592,-1.531554875843443,0.8767314896210059,-0.4749999999999943
0,-14.76334977216006,-13.204177248375153,-11.97285251331029,-3.9040526437478267,-0.46999999999999176
0,-16.775006229908122,-18.453921563033685,-20.974150645306892,-5.234837323127276,-0.46499999999999275
0,-12.706663670479607,-5.653666431996612,-5.06544928755656,-0.5256225553603425,-0.45999999999999375
0,-13.368322104476235,-9.72341187695697,-8.546748454540186,-2.2664083469827117,-0.45499999999999474
0,-12.729981541133997,-12.693157918557485,-13.148048159681856,-5.067194704273326,-0.4499999999999922
0,-15.291641988386015,-10.372904576463672,-8.449348415470721,-5.07798163322957,-0.4449999999999932
0,-11.073303452857537,-4.052651869328441,-1.9406492334590721,-0.21876913948017318,-0.4399999999999942
0,-12.374965939879012,-19.582399814839903,-15.941950624374151,-6.819557228284514,-0.43499999999999517
0,-11.106629453557375,-13.152148429651312,-9.613252598139647,-3.0503459045546766,-0.4299999999999926
0,-7.588293996868252,-2.121897729205315,-0.07455516376363802,-2.4611351728280506,-0.4249999999999936
0,-3.3199595718076633,-5.781647727875948,-8.875858329447183,1.4680749626875167,-0.4199999999999946
0,-4.051626179643044,-12.931398439300464,-9.287162102784814,2.0572844979418248,-0.4149999999999956
0,-2.9432938211518054,0.8488501235361527,4.41153350921286,4.876493428829653,-0.40999999999999304
0,-7.814962496716908,-3.35090205172486,-5.569771499982448,-4.004298248944371,-0.40499999999999403
0,-12.706632206227106,-14.600654976952793,-14.671077136555056,-6.0050905397788465,-0.399999999999995
0,-3.9683029488560004,-2.2604086634671834,-3.0123834061609465,1.2841165520812052,-0.394999999999996
0,-8.48997472295633,3.249836878057429,4.116309686236676,1.88332302263489,-0.38999999999999346
0,-12.821647526094097,-6.919918362631966,-10.91499786385786,-3.7174711320178857,-0.38499999999999446
0,-10.573321354974563,-10.859674395528412,-10.376306060598946,-6.928265915708205,-0.37999999999999545
0,-3.9049962053224365,-0.8994312301677729,4.362385092401984,-3.5890613319943667,-0.37499999999999645
0,-13.936672071932417,-10.959188875451712,-9.52892440789507,-7.569857383969097,-0.3699999999999939
0,-11.058348948714297,-15.878947339579142,-14.06023456405245,-7.0306540741754935,-0.3649999999999949
0,-3.550026828618343,-2.198706629860299,-1.671545377975025,-1.8614514045681452,-0.3599999999999959
0,-7.9717057036927175,-8.808466752646096,-5.722856850773109,-4.012249376568496,-0.3549999999999933
0,-12.203385565233216,-13.058227713459402,-13.53416898287366,-2.3430479912011184,-0.3499999999999943
0,-7.265066403749564,-7.547989516987407,-0.04548177403838502,-3.153847249179489,-0.3449999999999953
0,-3.856748208889369,0.36224783296923474,-0.5167952233809489,-5.974647150909176,-0.3399999999999963
0,-3.3384309695749033,-1.5475156667421264,-4.558109329608516,-0.24544769645226755,-0.33499999999999375
0,-1.7901146742441665,0.37271998101130527,-4.439424091187809,-1.3862488855469444,-0.32999999999999474
0,7.498200688922878,8.712954773393886,14.389260493614298,5.272949282243859,-0.32499999999999574
0,0.8965151317283182,-0.3968112926179462,-1.3520555735350241,1.1521468073147485,-0.31999999999999673
0,-3.0851713342385727,-6.316578220317469,-7.063372291282321,-0.9386563101193651,-0.3149999999999942
0,-0.9568586975123806,1.093653986949082,5.535310341590131,-2.2094600699691576,-0.30999999999999517
0,-1.0985469465521986,-1.7461146739930227,0.2239923263672296,-1.8802644721062076,-0.30499999999999616
0,-3.340236069665308,-5.875884206124121,-9.417326335636202,-3.5310695162380203,-0.29999999999999716
0,3.118073944985192,1.8543453877831315,-0.5386456429726283,0.948124798136243,-0.2949999999999946
0,2.32638310930104,1.7745741051504853,5.920034406087223,-0.5326815283143138,-0.2899999999999956
0,-1.4753085648896,-5.27519805652557,-10.991286186556788,-4.1634884948192825,-0.2849999999999966
0,-1.7970010658525717,-3.3049710996738733,-4.002607418858666,-2.8942961004714727,-0.2799999999999976
0,-1.2386943818238447,-0.294745026503112,5.096070711554677,1.4148956558574615,-0.274999999999995
0,-3.470388500900805,-6.684519838935406,-3.7652517926670535,-1.1959132245209192,-0.269999999999996
0,0.4479165889988621,-4.744295538578142,-9.206574928748198,-1.3067227402137838,-0.264999999999997
0,0.8562209001094991,3.865927873324954,8.87210130629507,-2.8375328897525094,-0.259999999999998
0,-0.25547555527841115,1.3161503957659166,3.6807769156048455,1.3216563284610399,-0.25499999999999545
0,-6.677172764848568,-4.92362797225047,-10.360548097780187,-3.209155083845123,-0.24999999999999645
0,2.2311292838501946,3.7965927682642437,4.498126269109141,1.5200328751547831,-0.24499999999999744
0,7.089430603416421,5.156812616298745,15.12680001927514,7.159220207308397,-0.23999999999999844
0,-0.13226879364051264,-6.602968429270339,-4.494526844555312,-2.201593085683297,-0.23499999999999588
0,4.816031104890196,-1.2127503696490198,-3.3458543201245505,-5.062407002313535,-0.22999999999999687
0,8.454330310868851,5.777466794043379,10.92281759460859,3.3467784589239136,-0.22499999999999787
0,5.292628835701945,5.057683060689934,5.031488901528088,7.945963299600418,-0.21999999999999886
0,-2.7290733097415,1.6178984288991407,-2.719840397878151,1.2251475211007754,-0.2149999999999963
0,4.009223885021009,5.128112896891149,5.868829697478917,1.9243311244274968,-0.2099999999999973
0,0.10752043029296088,-5.071673537425502,0.9674991884498363,1.3635141102691255,-0.2049999999999983
0,-7.914183663688778,-10.641460876211593,-12.433831924241634,-6.827303520825916,-0.19999999999999574
0,1.2941116134125303,-0.9012491213124796,-0.28516363972872233,1.431878231744223,-0.19499999999999673
0,-1.5275937278264806,-0.821038274065819,0.7035040432528039,-3.5189406312276748,-0.18999999999999773
0,-5.699299676612488,-6.030828335429556,-9.267828873686165,-1.569760108747552,-0.18499999999999872
0,4.0289937780344145,-3.6906193060755004,-1.4191623886435076,-2.9605801996304475,-0.17999999999999616
0,8.797286647180329,10.979588813593242,17.20950350053595,10.088599097454143,-0.17499999999999716
0,1.4955789416684828,-0.990203976800941,0.29816879585952866,8.557777783706374,-0.16999999999999815
0,1.5838706719116327,2.5500023220982047,-4.253166501184293,6.606955859790969,-0.16499999999999915
0,7.242161847946418,11.660207709305322,10.195497610513,11.046133325604428,-0.1599999999999966
0,-3.449547520494022,-2.4495878165698723,0.7541611318504252,4.235310180237078,-0.15499999999999758
0,-6.561257423864411,-3.9593842573161258,-11.297175936493188,-5.205513577908471,-0.14999999999999858
0,-1.1729678525128153,-0.9091816148299933,1.7314864061754438,1.2136620492255499,-0.14499999999999957
0,1.465321203511978,0.37102010914505673,3.260148160819942,1.542837059678113,-0.13999999999999702
0,-1.9463902456387918,-5.0687790869680835,-7.051190671425174,-1.4579885484842894,-0.134999999999998
0,1.5418978102386847,-2.3185792045762597,-3.072530089327626,-7.518814777167684,-0.129999999999999
0,2.2901853813395747,1.5116197551426058,3.436129908566526,-1.7496416280764755,-0.125
0,-2.0315275222022597,-6.148182208782924,-5.575210676074426,-5.390469102538513,-0.11999999999999744
0,-3.4232408902920084,-7.427985097097138,-13.456551841372342,-2.9612972014766434,-0.11499999999999844
0,2.315045287243574,4.682211089809728,4.55210641498964,1.3578740745354276,-0.10999999999999943
0,-3.9266689792944343,-6.887593648112678,-1.0192359041698267,1.9070447251293905,-0.10500000000000043
0,-7.388383679452937,-7.65739931065301,-8.230578795761875,-0.9337852500482821,-0.09999999999999787
0,-1.7900988024801503,2.1727941027559834,-1.171922256481678,-5.684615851378789,-0.09499999999999886
0,-0.8918143372240188,1.742986593037134,7.366733717256939,-1.6754470791150917,-0.08999999999999986
0,-5.973530272204963,-9.216821838724327,-9.09461087083436,-5.216278933218725,-0.08500000000000085
0,-8.735246595623728,-8.906631191234098,-12.775956016935172,-4.997111413288775,-0.0799999999999983
0,-1.2469632952099223,1.0535585372934746,2.622698283230132,-3.8079445185131457,-0.07499999999999929
0,-6.638680358152371,-8.766252650789214,-8.85864796542962,-6.198778247629638,-0.07000000000000028
0,-11.150397771115706,-14.216064752594932,-12.81999475744094,-6.15961259889525,-0.06500000000000128
0,1.4978844798239637,3.1341222354392335,4.7586579132902385,3.4795524299118483,-0.05999999999999872
0,-6.913833590827359,-7.415691682428482,-6.142689946552369,-7.671283158625843,-0.054999999999999716
0,0.5944480318582792,-4.515506501446909,-6.744038329902077,-2.76211936166128,-0.05000000000000071
0,5.212729363046735,1.6846777835163103,2.354612770644167,0.057043823952315664,-0.04499999999999815
0,1.1910104179070842,7.074861177835566,7.043263362756198,9.576206401568694,-0.03999999999999915
0,-4.350708788556995,-2.244956313179733,-2.0880865459392646,-0.9046316255742084,-0.03500000000000014
0,2.567571758574748,-0.8347746844323697,-1.2394369480307885,0.8445297454438845,-0.030000000000001137
0,5.155852074226411,10.065406069033578,9.159212163758,4.433690517295347,-0.02499999999999858
0,-0.23586782679673596,2.5955859519547912,0.2978607965317981,0.7228506924730713,-0.019999999999999574
0,-0.16758792990735716,-2.1442350313155436,-4.353491042877137,0.2020102732739787,-0.015000000000000568
0,0.6206917793499318,0.3459431232909864,3.585156652221335,-0.8388307381441156,-0.010000000000001563
0,1.52897131538617,-0.6138795802082844,6.253803888487911,1.680327660334417,-0.004999999999999005
0,-3.0927493074226975,-1.0837031377504325,-8.987549327540988,-2.6505145291778978,0.0
0,0.285529925302514,4.066472454756064,0.7110970105962273,2.218642695440282,0.004999999999999005
0,1.6438090279962299,1.556647201346552,4.3197429094719295,-0.32220066368093836,0.00999999999999801
0,-4.027911984867174,-6.513178894060277,-9.001611624237334,-3.103044604411233,0.015000000000000568
0,0.9603669012308291,-4.993005827505689,-4.75296658372702,-8.113889124521604,0.019999999999999574
0,4.438645700863638,3.337166405245127,5.175678038110807,-0.08473422147707228,0.02499999999999858
0,-3.43307557142949,-3.442662191301501,-2.8056777513583464,-1.275579892359217,0.029999999999997584
0,-3.844796901163336,-8.382491612465307,-11.76703394464754,-2.9864261339804288,0.03500000000000014
0,-2.346518273733119,2.8376781466961565,5.081609465991247,-2.0372729429702066,0.03999999999999915
0,-7.6282396742337415,-10.672152908509558,-5.989747511314624,-8.448120315716158,0.04499999999999815
0,-3.579961087352154,-6.631984772352968,-10.651104868109165,-1.0189682482390687,0.04999999999999716
0,-0.9616824973230248,-0.9718174385652557,2.4875374044746597,3.1401832638222893,0.054999999999999716
0,6.166596111935618,8.878349099576548,11.056179315679957,7.409334224962941,0.05999999999999872
0,2.8448747565070445,-1.1214851511518091,-2.845179125297157,1.1484846394520596,0.06499999999999773
0,4.16315345219985,5.628679815758181,2.8134620903920724,8.627634511137394,0.06999999999999673
0,8.99143221441826,13.148844006428666,19.402102971229247,12.31678384334013,0.07499999999999929
0,0.7697110580838609,-0.7909925735661218,0.4107435251201992,1.975932638681261,0.0799999999999983
0,-6.872010002305612,-10.150829919181266,-8.480616240747558,-5.754919100898542,0.0849999999999973
0,-3.993730952333368,-3.960668025426262,4.12802368049031,-1.8557713737314045,0.0899999999999963
0,-2.625451777291789,-3.050506886885433,-2.0533367042082773,-2.776624178000631,0.09499999999999886
0,-4.427172462073674,-5.260346497640356,-10.23469738771981,-4.637477511597483,0.09999999999999787
0,-2.4988929912139906,1.8498131486142522,0.16394163735356315,1.0116686278750795,0.10499999999999687
0,5.509386651029671,8.929972058374517,10.082580378743017,5.4808142430044064,0.10999999999999588
0,2.6576664804643975,-0.739869761996969,-4.138781155784832,2.339959336322936,0.11499999999999844
0,-4.29405348725475,2.010287693528515,-1.6501429586625431,-4.480896089862966,0.11999999999999744
0,-2.275773236570211,3.91044443070545,8.158494977572541,-5.8117520333277675,0.12499999999999645
0,-7.557492751764553,-3.1793995448971337,-2.222867339702487,-1.6226084916210983,0.129999999999999
0,-3.1792120167453186,-1.379244227812075,-6.03422990325212,-4.583465461918121,0.134999999999998
0,-1.8809310149736878,3.0509103874519305,3.7444072941756916,-4.024322941029633,0.13999999999999702
0,-9.662649729491935,3.5710643063937946,0.48304425996386524,-3.4151809254052683,0.14499999999999602
0,-4.894368142885248,-10.268782465570451,-11.188318998424721,-5.396039411110416,0.14999999999999858
0,3.8539137627750266,5.481370076995633,8.960317526618661,4.913101606141964,0.15499999999999758
0,5.932196005713182,4.191521939639033,5.928953842822621,1.9822421308118074,0.1599999999999966
0,-0.029521395953680418,-7.208326872123489,-10.77241004222084,-2.3286178327023017,0.1649999999999956
0,-3.6412384243660547,-1.348176352815223,-4.753774120995087,-3.6694782800818126,0.16999999999999815
0,2.127044938244263,2.621973503185104,5.11486161429556,-0.26033920691042983,0.17499999999999716
0,-1.8746712902973295,-2.6678772983495693,-1.9765028282656816,-2.591200608571179,0.17999999999999616
0,1.2336129078839129,-6.297728751562084,-3.537867440531513,-0.8220624802656462,0.18499999999999517
0,7.431897550626376,5.462419149566751,6.870767785666358,2.017075182935326,0.18999999999999773
0,6.250182655536918,6.822566411160539,7.549402858429101,3.036212385988304,0.19499999999999673
0,4.078468239755253,1.3127130391387605,-2.161962214465632,0.9753491337319078,0.19999999999999574
0,1.8667543198938512,4.352859039018603,2.50667257437578,-4.915514569144136,0.20499999999999474
0,4.965040912142667,5.063004415933233,10.975307232072291,0.6936212820437465,0.2099999999999973
0,3.9933280323413234,-2.426850825325566,-0.7760582346045395,-1.0872433078940769,0.2149999999999963
0,6.921615695938011,7.053293319751527,4.792576180657793,4.061891665943225,0.2199999999999953
0,5.299903917902136,10.903436855374537,11.911210483728322,3.2310262083904067,0.22499999999999432
0,-2.8718072872888323,2.683579785241938,-1.7001553200265638,1.1501603240704006,0.22999999999999687
0,4.8064820944968005,0.8837221124265173,-2.8415212257288758,3.4192940173471964,0.23499999999999588
0,5.574772077173388,9.753863839513407,13.25711277123075,9.258427292299576,0.23999999999999488
0,0.1630626743807193,-0.3659950313114317,5.315746675179101,4.227560152582624,0.2449999999999939
0,-4.338646100522262,-6.955854498204893,-7.615619510044842,-1.9733073986681093,0.24999999999999645
0,1.8996457657465964,3.394285440595436,3.193014219064307,4.135824641305235,0.25499999999999545
0,4.567938286515864,4.324424786946194,11.46164786593226,5.024956275041919,0.25999999999999446
0,-1.1837685249546213,-3.705436457330729,-2.84971856624045,-1.495912495160849,0.26499999999999346
0,-1.0054746555567098,-0.22529829052028716,-7.251085074589774,-4.946781667211516,0.269999999999996
0,0.06281990776207036,6.094839289070362,2.9075483437125413,-1.7876512389802228,0.274999999999995
0,-4.308884821883129,-3.545023716920545,-1.163818308304272,1.4414787918844219,0.27999999999999403
0,-7.290588831198528,-6.214887306925332,-11.755185027423451,-2.3793915720920933,0.2849999999999966
0,1.0377078934427784,3.7852485207344535,7.003448189831252,2.269737671680854,0.2899999999999956
0,2.5760053659977826,2.5353837679060085,5.3120813471733,7.36886652575643,0.2949999999999946
0,-4.905696399443704,-4.894481563560974,-5.889285551739904,-2.4120050075107278,0.2999999999999936
0,1.0726026112463491,1.355652528147381,3.7993474965763085,2.04712307397054,0.30499999999999616
0,8.910902412225424,6.195786044868116,7.907980495509044,5.026250772105375,0.30999999999999517
0,2.14920301748578,1.4459189883328358,-0.2633865517730917,7.505378088570438,0.3149999999999942
0,4.677504440616945,5.636051359973963,0.4652463575563016,3.584505024618565,0.3199999999999932
0,9.945806694732116,9.136183160819417,14.513879226018028,6.663631580966029,0.32499999999999574
0,-0.87589020757012,-2.4536856085895082,-0.6074879442756599,4.952757757792037,0.32999999999999474
0,0.46241374583736883,-0.9235549481257364,-2.1388551517246204,7.581883554733019,0.33499999999999375
0,6.61071856679129,8.446575142141496,10.299777604926643,5.031008970844912,0.33999999999999275
0,1.4190242669027135,4.446704661948057,9.158410326631548,5.6101340045887955,0.3449999999999953
0,4.197330857475227,-1.183166389342177,-2.4329569861850056,4.339258653864241,0.3499999999999943
0,6.745638349453353,5.106961987269673,7.305675666344104,3.7683829160684623,0.3549999999999933
0,8.433946753337954,10.24708979047944,11.464308283641545,5.567506788147463,0.3599999999999923
0,5.232256079035389,2.6572170185323642,0.22294086458607282,1.9766302666220987,0.3649999999999949
0,2.080566335814109,3.867343669093821,-1.9484265925191369,0.12575334764260654,0.3699999999999939
0,3.078877532435395,-0.7525302606379913,4.520205910317443,-0.0751239728738973,0.3749999999999929
0,2.4671896773158903,-7.492404773669224,-3.2511616290071337,-3.8460016990718526,0.3799999999999919
0,1.205502778609762,-4.892279872876799,-9.022529212580752,-2.8568798349968487,0.38499999999999446
0,2.553816844248698,7.247844439205884,2.2761031577352293,-2.367758384469109,0.38999999999999346
0,0.8821318819736499,0.9379681602289341,1.3847354803966698,-2.6486373510364456,0.39499999999999247
0,-6.589552100593269,-15.77190871218421,-11.576632245947325,-12.839516737924498,0.3999999999999915
0,-3.521235095749718,-0.3817861802049027,-2.818000022399649,-2.16039654786148,0.40499999999999403
0,1.5170829044865404,1.5283357545049447,4.870632150350943,-3.771276782951935,0.40999999999999304
0,-0.014598091654978829,-4.451542909334712,-6.760735728085178,2.397842555184504,0.41499999999999204
0,-11.056278075807015,-10.901422172779402,-15.172103657879543,-12.383038534786326,0.41999999999999105
0,-7.867957039299897,-2.681302036475298,-2.8034716386716196,-6.743920053838462,0.4249999999999936
0,-9.23963497282127,-6.751182500464739,-6.0048396693068,-2.014802002352568,0.4299999999999926
0,-1.361311866268569,-4.211063564209592,-12.79620774789333,-0.6256843801232659,0.4349999999999916
0,-10.12298770884813,-10.070945226629522,-8.327575871797146,-13.56656718653396,0.4399999999999906
0,-11.034662489129884,-17.76082748595639,-10.188944037488616,-11.10745042045709,0.4449999999999932
0,-10.706336194890927,-20.680710339351844,-17.52031224043095,-8.828334079917992,0.4499999999999922
0,-11.02800881292232,-13.650593782471468,-11.841680474935758,-12.06921816191334,0.4549999999999912
0,-6.169680328987715,-5.990477809352365,-1.8330487340762547,-11.61010266239966,0.45999999999999375
0,-9.71135072791049,-11.230362412707253,-13.58441700987714,-8.140987576277888,0.46499999999999275
0,-10.793019993652866,-12.580247584221521,-11.275785293501531,-8.961872897424318,0.46999999999999176
0,-0.6246881093383735,-2.0601333146223477,2.2228464247614164,-5.782758618808065,0.47499999999999076
0,-7.456355057361379,-6.52001959377768,-5.948521844641595,-5.6636447326267785,0.4799999999999933
0,-5.338020819557486,-7.109906410903358,-10.23989009078044,-7.124531230417737,0.4849999999999923
0,-4.289685377253038,-1.5297937546678768,-1.3512583022356577,-2.7854181031254797,0.48999999999999133
0,-4.191348711263858,-2.0996816132586162,2.057373532937982,-1.7663053411826837,0.49499999999999034
0,-10.863010801905437,-13.269569974462367,-14.653994572940242,-10.147192934607284,0.4999999999999929
0,1.9053283710494302,-0.1594588255845214,0.6046373928222022,-1.8380808729833846,0.5049999999999919
0,4.433668828279854,7.450651846573242,7.773269443349292,3.231030854560694,0.5099999999999909
0,0.39201059057499044,-2.5492379446151285,-4.508098408074728,-1.579857740847492,0.5149999999999899
0,3.2803536785521343,2.250871814085398,-1.3494661482569223,1.8992533519352803,0.5199999999999925
0,2.4686981125998706,5.84098113573227,8.45916623594854,2.9783641439776996,0.5249999999999915
0,2.597043912874521,3.371090033154209,-2.722201242390046,0.9174746462200487,0.5299999999999905
0,-0.22460890070198436,-4.598801481126287,-5.223568570355088,-2.423415130550521,0.5349999999999895
0,2.023739691610421,8.451306605194373,11.955064264927168,5.675694824360072,0.539999999999992
0,-1.8279102905563236,3.96141430424027,4.493697276217548,4.184804521530097,0.544999999999991
0,-3.5695588275881414,-6.638478372137734,-8.217669524075472,-0.7860860287131122,0.5499999999999936
0,-0.3112058997636668,-2.3683714122353026,-1.849036123755433,-2.466976816284192,0.5549999999999891
0,-0.05285148719067734,1.5417351957948209,2.779597489520055,-5.177867831114264,0.5599999999999916
0,-4.094495569841575,-6.4881585359741525,-6.871768671692069,-6.268759062886146,0.5649999999999871
0,-7.136138127514183,-5.058052595238385,-1.9831345946618808,-5.679650500841436,0.5699999999999896
0,0.5522208603166665,1.3020530306351723,3.395499733562626,-0.7705421337089107,0.5749999999999922
0,-3.9394185854524766,-1.7778416454081152,-0.3158656739244161,-0.09143394980595754,0.5799999999999876
0,-3.5010564436292935,-3.337736610244127,-6.2172308040170945,2.067674062743971,0.5849999999999902
0,-0.03269269276218645,4.4023681493699245,5.6514043564481815,3.136781915804774,0.5899999999999928
0,2.005672688809644,3.232472646706898,8.350039820660896,6.655889621054853,0.5949999999999882
0,3.6340397227862784,0.3325768948906348,1.8386756015427208,11.884997189773745,0.5999999999999908
0,2.7324084307117045,2.932680906813668,6.197311711528176,0.58410463261598,0.6049999999999862
0,4.920778833851724,10.722784695114532,12.975948162516852,5.603211959572348,0.6099999999999888
0,1.5591509531425292,-3.0871117279457967,0.014584965770217784,2.942319180127912,0.6149999999999913
0,1.6575248092039003,3.5929916494819842,0.9632221319076024,4.371426303378367,0.6199999999999868
0,12.455900422345804,14.46309483890546,18.63185967105698,13.570533337982777,0.6249999999999893
0,10.514277812382469,7.773197851311169,8.930497592723821,5.029640291973653,0.6299999999999919
0,4.732656998338532,1.7233006968889475,2.3091359054778593,4.448747172613917,0.6349999999999874
0,10.751037998360227,11.43340338505908,10.99777461697986,8.437853986465884,0.6399999999999899
0,5.859420829791706,5.863505924587267,7.10641373416423,6.306960739480365,0.6449999999999925
0,-0.8221944907326836,-7.116391676366994,-6.114946736682743,1.5460674369981602,0.6499999999999879
0,2.696192052920445,0.19371059002469937,0.9836932103266036,-0.26482591613911044,0.6549999999999905
0,6.184580476603084,6.123812731596318,5.572333581005402,-0.9357193153389795,0.6599999999999859
0,-1.537029204088295,-3.166085243817472,-8.809025618845428,-4.1666127560272255,0.6649999999999885
0,-2.9486369737883593,-5.235983328458235,-8.770384383347468,-5.237506233465151,0.669999999999991
0,0.93975718282356,2.454118485510523,4.698257293742788,1.9716002573781684,0.6749999999999865
0,-6.0218467188107425,-6.885779793861604,-3.5731005809228384,-1.0092932782097876,0.6799999999999891
0,-5.383448663023174,-7.455678158254549,-14.434458000421959,-8.480186834784385,0.6849999999999916
0,-3.475048633778262,0.014423401056668006,2.1541850425756066,-0.15108040667268133,0.6899999999999871
0,-2.006646614606324,-6.105475106741158,-1.2171714440593437,-6.311973987837704,0.6949999999999896
0,-6.798242588652538,-11.685373672018274,-12.858527452053357,-2.5028675718548716,0.6999999999999851
0,-5.469836538672594,-5.875272284556501,-8.869882972686126,-3.343761151932794,0.7049999999999876
0,-3.5414284469490123,-2.415170933404563,3.458762003443895,1.7553452790369128,0.7099999999999902
0,-10.603018295236156,-12.015069606942797,-11.18259251363335,-4.005548271634204,0.7149999999999856
0,-10.424606064662537,-11.574968292886052,-17.213946513342883,-4.7364417964756385,0.7199999999999882
0,-6.5961917355558475,-10.824866978067934,1.0447000156814361,-3.3073352877576063,0.7249999999999908
0,-4.047775287397879,-5.554765648294488,-0.6366529143358228,-1.2082287374024845,0.7299999999999862
0,-5.179356698981107,-3.4746642884648162,-6.518005290665747,4.340877862930796,0.7349999999999888
0,0.3190640513982974,8.115437117093972,5.690642899647321,4.249984521605343,0.7399999999999842
0,3.2574869857443307,4.025538584160913,4.739291669638738,2.7590912467548985,0.7449999999999868
0,-3.2640878738591663,-1.8243598717499385,-5.372058967784066,-2.741801953790731,0.7499999999999893
0,4.84433949462618,5.485741764562985,3.3265910001249215,-0.5026950723628683,0.7549999999999848
0,5.102769113127882,7.755843508039575,11.535241586006652,1.4464118987178458,0.7599999999999874
0,-1.7187989966575778,-2.2240546267359553,-1.5761071977888477,-3.564481032814396,0.7649999999999899
0,0.3496351867212193,-1.5539526255217484,-5.177455339311278,-3.7753738591395987,0.7699999999999854
0,3.848071684593002,6.006149525784506,9.991197173211368,0.0037334277521427484,0.7749999999999879
0,-3.083489481790512,-2.343748158783235,0.00985035146487001,-1.1371591639064422,0.7799999999999905
0,-1.9750482912291518,-4.68364566527357,-8.601495793041943,-2.7080516257249836,0.7849999999999859
0,2.8233952775250977,1.7664570203172487,7.30715875115239,1.421056050808783,0.7899999999999885
0,0.3518412457730955,3.8865599121176277,9.025813995529681,-3.6398361256790377,0.7949999999999839
0,-2.3997103652146388,0.46666302422252937,-3.3955300486849165,0.28927185354575424,0.7999999999999865
0,3.9587404657973284,3.9567663705347815,4.373126629334504,1.43837999731623,0.8049999999999891
0,2.227193759996387,8.246869964688289,8.361784040116243,-0.8525116854946967,0.8099999999999845
0,1.665649538417009,-2.19302618005005,-2.2595578061333343,-0.9134031860255601,0.8149999999999871
0,5.064107821859404,-0.7629220507556362,-3.2408988995243133,0.5557055045984141,0.8199999999999896
0,11.332568630792133,11.057182365302397,11.747760769692816,8.984814395229362,0.8249999999999851
0,-0.38896801482883075,0.4972870806136509,-0.573578788892394,3.4739234944864066,0.8299999999999876
0,0.7094979044100265,-3.9226078926921737,-5.304917565980681,-1.8669671894207445,0.8349999999999831
0,4.767966407583332,4.8974974572971295,9.333744447554228,3.1721423513946703,0.8399999999999856
0,2.836437513547168,7.907603142390572,8.832407260693744,6.221252124633346,0.8449999999999882
0,-2.8150887590838294,0.33770917411591894,-3.9989291179797433,2.360362137738417,0.8499999999999837
0,1.7433876081391833,4.237815563582717,4.099735319670974,6.839472397760815,0.8549999999999862
0,4.681866633598772,7.317922321518165,7.758400581510142,7.098582911284574,0.8599999999999888
0,-1.3896516644404744,-0.11197054173935461,-7.082933324849909,-2.4923063156090604,0.8649999999999842
0,-3.991167267852208,-0.5518630162179028,-3.6742663919609453,-2.0931952772056115,0.8699999999999868
0,3.0473198414948124,1.8282449078568943,7.044401387716805,2.5059160321215708,0.8749999999999822
0,-1.494190318182362,-3.001646759788707,-0.9469299781833066,-0.16497238196701147,0.8799999999999848
0,-1.835697728624478,-2.7915380093906093,-9.018260482074673,-1.845860513820813,0.8849999999999874
0,6.5827976284368,10.388571168887935,5.680409883699831,8.493251642161704,0.8899999999999828
0,5.871295771158518,7.4086807847501,11.489081126898563,6.42236409139202,0.8949999999999854
0,0.5797967173649405,-0.26120915257340516,-2.212246744968586,0.05147683886105897,0.8999999999999879
0,8.858300484448387,8.588901365595834,7.396426275114207,2.240589889114304,0.9049999999999834
0,11.906807089308804,13.799012347408643,14.735100193659163,6.399703246393816,0.9099999999999859
0,5.805316548147375,6.24912380028953,2.143775016520448,6.098816914626634,0.9149999999999814
0,5.4838288763364,6.509235730759536,-1.797549251193902,3.7579308972796133,0.9199999999999839
0,7.842344088510864,12.079348144491021,14.09112739509992,4.937045197305744,0.9249999999999865
0,2.490862198685454,1.4094610463794848,2.829804959549055,-0.18384018278576186,0.929999999999982
0,4.779383220329818,1.9995744406364393,-2.171516554238983,-1.67472524078004,0.9349999999999845
0,13.447907166399908,10.779688330973618,15.247162856867748,2.53439002542665,0.9399999999999871
0,15.736434049145311,15.159802720566969,16.795843195452274,6.013505617875547,0.9449999999999825
0,18.434963879697598,15.969917611675072,10.664524463102385,10.682621538345547,0.9499999999999851
0,31.663496667614975,31.68003300514639,23.013206660034417,15.981737787986843,0.9549999999999876
0,29.622032420366022,31.58014889984731,27.961889784842672,14.53085436692005,0.9599999999999831
0,20.64057114287053,17.740265292128758,12.62057383416103,-0.9400287259629634,0.9649999999999856
0,31.049112837391668,26.98038217572332,19.069258802553232,10.399088507204171,0.9699999999999811
0,33.39765750356472,34.240499541887786,30.96794468264807,13.078206063538323,0.9749999999999837
0,33.05620513819361,27.300617379269397,23.966631465000034,11.867323939319935,0.9799999999999862
0,36.544755734952766,25.830735673677232,19.305319137790057,12.996442129736183,0.9849999999999817
0,34.67330928420566,31.46085440810464,28.994007686806786,16.2255606287437,0.9899999999999842
0,33.00186577292739,33.71097356275662,29.232697095477345,18.09467942895052,0.9949999999999868
0,27.720425184762785,24.531093114923515,16.871387344739205,15.923798521445564,0.9999999999999822
0,32.16898750021359,28.151213038972077,24.190078413080194,18.08291789568466,1.0049999999999848
0,25.74755269681359,24.421333306526122,25.048770276741912,15.242037539469447,1.0099999999999802
0,20.926120749291606,19.76145388666363,17.717462909775623,17.35115743896617,1.0149999999999828
0,25.594691629818147,18.64157474614083,15.226156284101648,20.85027757869754,1.0199999999999854
0,17.903265308243984,20.511695849647204,22.034850369730908,17.539397941456702,1.0249999999999808
0,12.941841752304082,15.511817159967274,9.98354513493675,9.508518508274747,1.0299999999999834
0,0.22042092801219404,-3.138061361796401,-4.187759453508624,4.577639258669398,1.034999999999986
0,2.039002800299632,2.7720602443384283,1.0109365702688538,3.8367601711220467,1.0399999999999814
0,0.017587333615700418,0.5221819378953991,3.329633171873968,5.035881223484339,1.044999999999984
0,-9.683825507690146,-14.89769632164302,-14.411669683077518,-5.384997606791256,1.0499999999999794
0,-9.7152357590254,-6.937574574456943,-8.602972028687208,-6.065876342389501,1.054999999999982
0,-6.316643455181479,0.9125471399516796,3.685726101569553,0.02324499420302073,1.0599999999999845
0,-14.63804863011632,-15.187331217236185,-15.355575325133987,-8.137633619129158,1.06499999999998
0,-16.809451316802733,-16.497209684142597,-20.206876340964996,-8.598512204071294,1.0699999999999825
0,-13.780851546972556,-10.707088297848102,-6.198176977037205,-7.699390781718948,1.074999999999985
0,-20.602249350887764,-15.016967094114147,-18.999477263108112,-8.540269372415693,1.0799999999999805
0,-27.203644757141053,-28.04684610728032,-29.960777227478257,-19.51114799563858,1.084999999999983
0,-16.735037792370303,-19.256725369976245,-17.242076896645536,-9.71202666977818,1.0899999999999785
0,-19.92642848110517,-18.076604912797304,-11.743376295021557,-11.172905411953332,1.094999999999981
0,-21.6378168458592,-18.236484764309655,-23.124675445116182,-15.563784238034,1.0999999999999837
0,-25.44920290716291,-20.436364951210976,-19.73597436772466,-16.434663162647528,1.104999999999979
0,-20.820586683422945,-16.95624549837443,-10.31727308186309,-14.135542199035354,1.1099999999999817
0,-23.78196819081598,-26.896126428795824,-26.668571604778535,-17.666421358939797,1.1149999999999842
0,-18.933347443312535,-19.07600776347189,-16.63986995196888,-14.757300652571754,1.1199999999999797
0,-8.124724452841873,-7.665889521368065,-0.18116813718025038,-3.3781800886724977,1.1249999999999822
0,-13.316099229656704,-9.345771719751461,-8.232466172784031,-7.21905967480176,1.1299999999999848
0,-14.607471782693851,-20.74565437462677,-20.78376407025052,-11.43993941768359,1.1349999999999802
0,-8.748842119681703,-9.505537500791531,-4.245061840111557,-6.120819323290291,1.1399999999999828
0,-4.500210247200959,-4.205421111753988,1.2936405081574143,0.8883006031637783,1.1449999999999783
0,-6.951576170923814,-10.3153052199481,-10.897657034173113,-3.852579642988027,1.1499999999999808
0,-6.132939895849521,-8.575189836992692,-4.488954475357123,-9.673460066073073,1.1549999999999834
0,-1.3643014264030537,-3.975074973736705,4.929748176823075,0.8256593299680511,1.1599999999999788
0,-5.405660766522296,-6.584960640302066,-3.1715490850940093,-3.385221458363007,1.1649999999999814
0,-6.607017919731887,-9.984846846172754,-8.382846268446116,-3.996102434228849,1.169999999999984
0,1.4616271108635532,4.595266399772146,7.535856619610498,2.7630163994505925,1.1749999999999794
0,-5.549725677461167,-7.86462091086152,-4.585440427882696,-1.4778649600792568,1.179999999999982
0,-9.761076287096138,-9.004508786105877,-13.816737417740173,-10.08874651545863,1.1849999999999774
0,-11.282424719917817,-7.624397233491281,-3.4980343563835974,-7.16962826902741,1.18999999999998
0,-16.453770976944764,-9.054286259814914,-4.589331249551172,-6.740510222522121,1.1949999999999825
0,-18.475115057998906,-19.684175870987854,-20.220628102253873,-11.421392376929237,1.199999999999978
0,-21.206456961387815,-14.244066071783926,-18.301924918562044,-8.512274732422732,1.2049999999999805
0,-15.507796683664141,-9.543956865586004,-4.463221701201373,-6.493157288304958,1.209999999999983
0,-16.659134219576632,-18.32384825437809,-15.164518451507682,-13.734040043006337,1.2149999999999785
0,-13.180469562192618,-18.643740238769297,-13.745815169632017,-10.034922994047637,1.219999999999981
0,-5.191802703111713,-2.7636328179093166,2.8428881453661683,0.8341938620010729,1.2249999999999766
0,-8.66313363277281,-8.28352598964469,-6.0384085047065605,-1.8166894706986902,1.229999999999979
0,-8.354462340740788,-6.923419750911789,-10.62970511750863,-0.3275729876420868,1.2349999999999817
0,1.284211184138182,2.7666859019885286,4.578998309767586,0.33154331578939256,1.2399999999999771
0,0.19288695353309843,0.5267909731559516,1.3977017803276282,5.9406594442207545,1.2449999999999797
0,0.13156497931697914,-5.98310453316817,-3.873594702504981,3.27977540211931,1.2499999999999822
0,4.630245273343776,-3.2430006126214423,-4.0348911353856725,3.5888911936276973,1.2549999999999777
0,4.06892784731285,1.8871027394148165,5.633812485173594,2.5380068225191557,1.2599999999999802
0,-3.602387287327416,-8.802794472171973,-6.477483837203537,-7.352877707697316,1.2649999999999757
0,-1.4737001192938435,-7.822692242186123,-7.4987800987742,-2.16376239352045,1.2699999999999783
0,3.074989362717998,4.057409435029282,6.019923704474625,2.655352768772414,1.2749999999999808
0,-2.6463188299293328,-0.2924894344772324,-0.8413724231883221,-1.4355322169092848,1.2799999999999763
0,-5.457624685830142,-8.992388844499363,-7.672668477424876,-1.6964173466103858,1.2849999999999788
0,1.1510718065778793,1.5677112113381546,1.9860355462076904,-2.3873026163189,1.2899999999999814
0,-2.1902293409124702,-1.2721892603090337,2.704739652351357,-1.7681880218733466,1.2949999999999768
0,-2.0315281163357666,-5.18209025255935,-7.566556154252292,-3.739073558908969,1.2999999999999794
0,-1.0728245075854748,-3.771991758318645,-3.487851868756515,1.200040777155808,1.304999999999982
0,1.3758814975834501,3.0781062297905764,6.520852513928904,6.389154991028403,1.3099999999999774
0,-1.795410088504735,-4.041796280632346,-4.680443000940737,1.0682690873124019,1.31499999999998
0,-1.326699253485778,-5.641699281844524,-7.541738408057592,-4.302616929628591,1.3199999999999754
0,-5.037985984893627,0.9683972341238878,5.036966298072747,-0.29350305552610567,1.324999999999978
0,-4.649270270027628,-6.321506724456311,-4.454328876801226,-6.514389285972624,1.3299999999999805
0,-5.3505520958138355,-7.33141114898926,-11.07562392672683,-8.565275616240926,1.334999999999976
0,1.8781685512409756,3.0286839695227,1.7730811545934302,-1.256162041116248,1.3399999999999785
0,0.6668916849196889,1.788778640408475,0.9517863738903611,-1.5170485548705335,1.344999999999981
0,-3.7043826808986666,-9.171127126884489,-10.819508261830247,-2.7079351514285226,1.3499999999999766
0,-2.325654532268077,-4.821033322750313,-6.470802745270437,-1.0888218245037986,1.354999999999979
0,5.4030761448887805,5.109060062775989,5.7279029313517995,2.6502914323435416,1.3599999999999746
0,-0.6581906353071345,-4.770846960047211,-7.423391223781764,-0.8405953743905825,1.3649999999999771
0,-3.239454858817452,-4.720754380830232,-8.014685202245637,-5.361482238211446,1.3699999999999797
0,0.25928348838027915,0.8293378110058773,5.46402100471873,-2.962369152502597,1.3749999999999751
0,-2.301975579582436,-1.5305703737133376,-3.3472725938041696,0.3067438896226261,1.3799999999999777
0,-2.853232048427103,-11.30047892394262,-11.658565988536566,-7.774143104665143,1.3849999999999802
0,-3.40448590368776,-2.6703878282805893,-1.5998591698690272,-5.355030127879923,1.3899999999999757
0,-1.84573713064534,-7.330297074771497,-0.34115212767696607,-1.6659171721005417,1.3949999999999783
0,-13.09698571424831,-14.260206650812052,-16.45244485136459,-7.136804228938782,1.3999999999999737
0,-2.4582316389435954,0.22988345694861412,-5.093737329782029,-0.1576912895931568,1.4049999999999763
0,4.560525111398184,-1.4900267374196987,3.8749704489400596,0.37142165507330593,1.4099999999999788
0,-8.310715446734315,-7.009937219384592,-5.256321502802524,-5.7194653855867905,1.4149999999999743
0,-5.901953296640859,-7.019847974064619,-9.507613172345488,-3.310352402027962,1.4199999999999768
0,-0.3731884212677081,2.520241013868202,2.6210954533198043,-0.07123938442255207,1.4249999999999794
0,-1.0344208031558337,-3.83967023985978,-0.34019561240820595,0.9678736773107517,1.4299999999999748
0,-6.8856504245708,-4.659581719278977,-11.5114863558849,-5.603013206618224,1.4349999999999774
0,3.6631227324497404,3.550506591793647,6.907223236779234,4.956099974093212,1.43999999999998
0,1.6818986860479002,1.2105947096958067,6.085933179681112,3.7152132297860647,1.4449999999999754
0,-1.1493225456282326,-7.419317349211928,-10.505356513136368,-1.405673429331311,1.449999999999978
0,0.6494590554849504,-1.8392295684794728,-5.706645827660275,-5.046559993207501,1.4549999999999734
0,4.428243507387019,7.160858068564278,5.002065250424415,0.8425535482568978,1.459999999999976
0,-1.6429691720264967,-2.04905442133093,-4.179223264236478,1.0916672053304968,1.4649999999999785
0,-1.5741789649807492,-1.7689670215261712,-7.4105113568299945,0.6807809883515401,1.469999999999974
0,-4.515385853687147,-1.358879715419681,2.9682009876847553,0.18989490761114736,1.4749999999999766
0,2.383410179809128,-1.3887924862971759,2.9869137846002913,4.099008973314056,1.479999999999979
0,0.9022091536125858,-1.5487053172959966,-4.024372950741747,3.948123195511063,1.4849999999999746
0,1.921011085826515,6.641381808538602,6.524340796922445,5.867237583962669,1.4899999999999771
0,0.8598159944385566,6.0314689080615,7.733055042706834,2.896352148023627,1.4949999999999726
0,-3.64137610266878,-0.20844400221471782,-5.0782301985905605,-1.0645331033509289,1.4999999999999751
0,-1.692565187597837,-0.968356906138815,1.040485087528798,-0.945418161446695,1.5049999999999777
0,-1.1537512423024472,1.661730212274101,8.559200915443453,2.3836969823916903,1.5099999999999731
0,-1.3449342485547473,-5.028182630997172,-6.7720827005966795,-4.407187663168921,1.5149999999999757
0,-7.346114187943823,-9.16809541983145,-11.673365746412813,-4.358072089385232,1.5199999999999783
0,5.092708958176569,4.841991862235436,11.625351792420027,3.2710437126810064,1.5249999999999737
0,0.0015352086366345885,-0.827920767998283,-0.9459300694114319,-0.2198402478585028,1.5299999999999763
0,2.500364582252665,-5.097833293605967,-5.857211317260809,-4.840723961843434,1.5349999999999717
0,8.619197097648044,5.332254302398932,1.1215080634765402,-5.001607420010528,1.5399999999999743
0,3.248032773094102,5.842342037014412,7.980228087495609,2.417509387172933,1.5449999999999768
0,0.04687162640717679,-1.4875700729606214,-7.421051230550365,-3.8133735304938954,1.5499999999999723
0,0.7957136750536462,-1.9274820109911805,-5.212329876078847,-5.25425616302434,1.5549999999999748
0,2.6645589363312214,7.422606239338879,9.516392165631638,0.1348614998064438,1.5599999999999774
0,6.623407427382203,3.902694694312352,4.235114909367561,4.9039794684602604,1.5649999999999729
0,4.352259165044277,3.9227833698779344,-6.9061616303212645,-1.446902246565591,1.5699999999999754
0,12.351114165662223,14.272872281490294,14.012562560843207,5.39221636507837,1.5749999999999709
0,9.929972444883019,11.722961443901662,10.821287496823096,6.571335313502776,1.5799999999999734
0,14.40883401742682,5.263050870905967,4.670013190919045,7.730454608419642,1.584999999999976
0,12.807698896894689,17.653140575262018,17.40873965551761,12.059574258916703,1.5899999999999714
0,15.326567095639298,20.483230568609276,23.2874669019201,15.458694273218619,1.594999999999974
0,20.295438624637203,16.613320861142828,10.436194939981693,11.197814658436716,1.5999999999999766
0,25.334313493257095,28.363411461270495,21.44492377786988,13.366935420422802,1.604999999999972
0,32.90319170885767,36.923502375271234,34.743653421963984,20.506056563719454,1.6099999999999746
0,33.25207327628121,29.873593606777696,27.632383876449847,23.865178091369486,1.6149999999999771
0,25.34095819746323,23.533685156411256,19.42111514286715,17.00430000458825,1.6199999999999726
0,32.69984647135321,32.93377702185641,30.95984722010824,18.82342230260985,1.6249999999999751
0,29.928738093986077,32.61386919798534,28.188580104545952,13.922544982798222,1.6299999999999706
0,29.637633058473615,22.453961676781137,18.697313789980754,9.881668040870883,1.6349999999999731
0,25.846531355004583,26.54405444738205,24.626048267706036,9.77079147117494,1.6399999999999757
0,33.20543297092562,35.72414749624718,32.584783526659095,22.319915266868993,1.6449999999999712
0,31.744337890733398,31.834240807057032,22.483519553320438,25.70903941972925,1.6499999999999737
0,25.84324609597142,28.07433436045813,21.292256331589552,16.398163919692664,1.6549999999999763
0,17.752157565320257,21.704428134086328,24.050993842936226,17.187288754650037,1.6599999999999717
0,12.461072275032901,13.554522102948459,10.13973206665919,15.266413910619578,1.6649999999999743
0,15.289990199494971,9.384616239993667,7.618470980229913,9.625539372005559,1.6699999999999697
0,11.71891131160353,14.474710516660004,15.37721055975502,5.894665121865941,1.6749999999999723
0,-3.852164416976523,4.264804903201737,-1.2640492196974016,1.373791142278855,1.6799999999999748
0,-3.153237015343416,-8.215100631020107,-7.845308383789497,1.9129174147344028,1.6849999999999703
0,-7.604306512710142,-6.535006116970463,-2.8965669583496165,0.15204392042298276,1.6899999999999729
0,-8.885372937912653,-8.534911585294727,-2.6378249688955813,-3.488829359586652,1.6949999999999754
0,-18.796436319078293,-18.41481706590579,-21.379082440446304,-8.669702444148598,1.6999999999999709
0,-12.837496683269269,-15.594722587652,-13.580339397202888,-10.520575351729567,1.7049999999999734
0,-13.878554056201535,-11.384628178012576,-5.471595862139339,-7.631448100093005,1.7099999999999689
0,-22.199608462137242,-23.724533862974884,-22.14285185692909,-14.62232070611075,1.7149999999999714
0,-23.74065992371924,-25.02443966688833,-23.17410740190438,-17.74319318560281,1.719999999999974
0,-16.651708461683825,-12.324345612179277,-6.945362515766043,-9.164065553117185,1.7249999999999694
0,-15.122754094777378,-15.244251719319962,-12.736617215549275,-6.274937821889967,1.729999999999972
0,-21.103796839928105,-19.36415800708926,-22.16787151689117,-8.635810004095928,1.7349999999999746
0,-13.844836712363348,-12.114064492711629,-5.949125434077362,-8.24668211108903,1.73999999999997
0,-14.695873725643432,-8.30397119191227,-4.28037898006036,-2.257554153484359,1.7449999999999726
0,-10.91690789179269,-14.843878119116917,-14.231632166766987,-9.158426141236848,1.749999999999968
0,-10.967939221500032,-9.17378528761773,-9.10288500528603,-11.63929808367152,1.7549999999999706
0,-9.398967724289344,-8.163692709615583,-3.5341375058026543,-9.940169989329542,1.7599999999999731
0,-10.889993408633524,-14.543600396276872,-13.615389677628002,-7.2910418658039635,1.7649999999999686
0,-9.571016282004788,-11.193508357733643,-14.726641529214556,-7.651913719761348,1.7699999999999712
0,-5.842036350913357,-0.2934166030576977,5.372106931950048,2.207214442884115,1.7749999999999737
0,-11.643053620984407,-5.733325140465986,-7.409144300816642,-3.043657383299599,1.7799999999999692
0,-13.9640680969616,-12.983233977585067,-14.490395233683014,-4.374529203493709,1.7849999999999717
0,-5.925079782586688,-5.953143121404142,-2.7216458722187267,-4.165401022643245,1.7899999999999743
0,-14.786088680537958,-12.763052578074406,-7.852896221202146,-8.776272845318232,1.7949999999999697
0,-11.457094792436608,-10.722962352802162,-13.274146284642185,-12.447144675521722,1.7999999999999723
0,-8.898098118800924,-9.132872449786674,-7.395396065738198,-7.938016516456857,1.8049999999999677
0,0.990901340875819,-1.842782872255239,4.153354433157981,-0.43888837043679574,1.8099999999999703
0,-14.870096412139056,-12.102693622643702,-14.837894789675108,-11.939760239045087,1.8149999999999729
0,-12.121091375891956,-16.84260470263588,-21.099143735359867,-10.480632123225352,1.8199999999999683
0,-3.9820835475368606,-9.102516112907335,-2.7603924040022787,-5.381504023138328,1.8249999999999709
0,-7.903072923283671,-10.362427852927695,-6.701640794493438,-7.102375938093832,1.8299999999999734
0,-14.574059498530108,-14.812339921007872,-20.2228889047332,-12.623247866627752,1.8349999999999689
0,-7.2750432678150165,-5.192252314363586,-3.66413673166617,-6.054119806476989,1.8399999999999714
0,-12.286024224676268,-11.11216502916763,-3.3353842712087265,-9.694991754505658,1.8449999999999669
0,-12.117002361610124,-13.47207806062678,-16.6566315184274,-7.535863706723605,1.8499999999999694
0,-4.9279776700728135,-3.3219914029767486,-0.26787846764734513,-3.526735658357701,1.854999999999972
0,-2.7389501405981367,5.368094950388896,5.560874887491021,3.042392395981073,1.8599999999999675
0,-6.019919763066308,-4.821818993507326,-4.860371446322984,-2.4584795380061517,1.86499999999997
0,-7.8208865268697565,-8.971733227504235,-10.591617462312314,-9.62935145447906,1.8699999999999726
0,-0.4418504208910947,4.078352255818832,2.4671368465867514,-3.7802233473027256,1.874999999999968
0,-2.462811433538069,-2.3915625357900203,1.2358914878417315,-5.631095209822686,1.8799999999999706
0,-6.373769552876689,-9.301477594368846,-11.395353530843233,-8.111967034810405,1.884999999999966
0,-1.6047247666593918,0.028607088313392204,-2.446598201512319,-3.7328388144608717,1.8899999999999686
0,0.014322937695684657,1.3286915208520533,5.322157484188691,3.98628945955418,1.8949999999999712
0,-3.8566264269774457,-6.161224287912286,-7.569086465110258,-3.174582204146435,1.8999999999999666
0,-4.617572847645496,-2.111140328968804,-3.750330040637487,-4.595453796844268,1.9049999999999692
0,-0.09851631101187966,4.0589434069125385,7.3984267665867565,4.463674690305706,1.9099999999999717
0,-7.529456803469083,-3.8309730708946192,-4.092816034324107,-0.2871967337375563,1.9149999999999672
0,-9.77039431102745,-7.020889752940008,-8.094058434240605,-1.038068060033635,1.9199999999999697
0,0.7986711808413747,-0.7708066295437093,7.184699576112374,2.891060720295378,1.9249999999999652
0,1.2677396871795372,0.4592763093151796,-0.05654199381451508,-1.2998103839173885,1.9299999999999677
0,-7.153188776703693,-4.330640926104676,-10.327783134546685,-2.6006813638699935,1.9349999999999703
0,-2.4841141953158354,-3.0205583253761623,-0.67902383647755,-4.501552210686222,1.9399999999999658
0,0.3049634471196474,2.1495241221400767,3.2397359103311016,2.8575770847113477,1.9449999999999683
0,-10.395955833307609,-11.400393572686554,-7.071503883941522,-5.793293468398403,1.9499999999999709
0,-0.45687202015900136,-0.18031139868653734,-3.3327432089628095,1.4458361394166388,1.9549999999999663
0,-2.027785096585081,1.0097706556903452,5.446017945831462,-0.07503408227676961,1.9599999999999689
0,-6.288695045380816,-2.8701473977416363,-7.50522040880724,-3.1759041238195973,1.9649999999999714
0,-2.499601849024222,-4.230065547035597,-7.306458261974854,-6.276773975434736,1.9699999999999669
0,2.689494510333097,2.0000162199274287,7.01230439752972,-2.067643627070333,1.9749999999999694
0,2.7185940507140844,-2.169902084550828,2.0210675811410472,-2.758513068300625,1.979999999999965
0,1.7876967900658265,-4.999820448037807,-8.420168699736866,0.8606177116100611,1.9849999999999675
0,10.326802746079176,7.4702611420315,4.608595566276944,7.459748723520166,1.98999999999997
0,2.155911936032566,9.300342698207062,9.637360390608135,5.098879978123897,1.9949999999999655
0,0.34502437671248765,-1.6395757673157534,-4.293874215501764,1.4480114857058757,1.999999999999968
0,-2.8458599154266566,1.9905057571950224,-7.175108241075895,-0.2828567438561862,2.0049999999999706
0,10.90325907594443,11.440587283141234,14.353658324843922,11.626275299029231,2.009999999999966
0,-1.6076186330183777,2.6806688215403556,0.0024254931743849517,3.3854076235938475,2.0149999999999686
0,0.35150697354688143,6.3707503828494625,-0.7588067254867399,4.244540238534482,2.019999999999964
0,11.830635911232097,15.770831976885798,19.28996167905337,14.69367315195007,2.0249999999999666
0,8.549768195248891,8.480913612663329,12.778730716380345,9.362806371216594,2.029999999999969
0,4.6989038401410825,0.7009952982374463,-2.4024996049029737,5.48193990278768,2.0349999999999646
0,4.758042859706722,4.871077040884473,5.926270722896718,4.15107375223257,2.039999999999967
0,0.6871852671716951,2.891158847416127,3.1350417069685617,-1.9997920754859104,2.0449999999999697
0,-1.1236689245881246,-3.7387592756500663,-5.926186645774421,-0.9106575756930044,2.049999999999965
0,-0.484519702836137,-0.65867732192997,1.4025856714723652,3.4484772562258477,2.0549999999999677
0,-0.38536705482636374,4.1014047149881865,8.841358665529597,3.287612424837961,2.059999999999963
0,-2.05621096775003,0.9914868415074738,-1.6498676569133217,1.066747934532276,2.0649999999999658
0,1.2129485712771384,-1.338430936095782,-7.041093289405001,0.0858837894730089,2.0699999999999683
0,2.462111575182369,6.23165138831741,6.6576817744734,1.1450199936751078,2.0749999999999638
0,4.051278056816191,3.0317338207152167,6.426457541182846,3.9041565510528247,2.0799999999999663
0,-0.25955197117474005,-5.748183633173816,-7.0347659829908675,-1.4967065346161905,2.084999999999969
0,0.49962150364422253,-3.1681009677163323,1.304011208047295,-1.9175692596768517,2.0899999999999643
0,4.118798493566068,2.3619818228821043,6.782789120379256,1.8315683795139122,2.094999999999967
0,-1.1020209892461563,-7.077935255361421,-9.068432239938433,-5.799293613327391,2.0999999999999694
0,5.7071630672015825,5.4221478037356245,3.050347133116411,6.189844765608253,2.104999999999965
0,1.5963506746914684,0.5522310064404137,5.499127245616203,-0.16101647984105727,2.1099999999999675
0,-13.604458155157078,-17.237685640928255,-17.94209189632306,-16.751877345827392,2.114999999999963
0,-14.455263410495789,-17.99760213163139,-21.3833102862383,-13.982737828119186,2.1199999999999655
0,-3.276065078681322,-0.7675184579038836,3.655472083334965,-4.583597921538217,2.124999999999968
0,-6.896863146098749,-8.24743461083784,-5.155744779011876,-3.4344576198542405,2.1299999999999635
0,-6.077657598373676,-15.377350580659744,-12.036960863992126,-6.4653169161039425,2.134999999999966
0,-3.8784484205406002,-5.607266356757876,0.33182383820152384,-2.776175802827622,2.1399999999999686
0,-1.9692355971173328,-3.137181927597463,1.520609337901983,3.1429657278308567,2.144999999999964
0,-9.030019112187441,-14.457097280850183,-12.33060435420734,-6.837892316027712,2.1499999999999666
0,-0.9807989494050288,-4.6370124034622435,-2.8018172271160515,-2.5087499261285484,2.154999999999962
0,-0.3815750919965752,1.8030727183604167,7.906970730617635,-0.3796070939431957,2.1599999999999646
0,-2.102347522898714,-3.6368419010692667,-2.4342404693487847,-0.3304638106931046,2.164999999999967
0,-2.1831162248909903,-4.446756247187441,-4.95545081541398,-2.971320067456757,2.1699999999999626
0,4.676118819364007,4.303329694768663,8.733339704004424,1.817824144784849,2.174999999999965
0,2.4353576272082016,0.533415939693969,5.292131100435953,-1.113031164867384,2.1799999999999677
0,-0.8653997841754725,-1.0664974975497439,-6.599076614861975,-3.8838859872543483,2.184999999999963
0,6.243846602189592,7.2735893977834625,5.349716569120301,4.3652596868659765,2.1899999999999658
0,2.5230968030563528,6.343676640223828,12.738510663243634,3.424405866766226,2.194999999999961
0,0.4723508348916079,0.5237642439008946,-3.9526943219842736,2.903552561559839,2.1999999999999638
0,0.10160871391104509,0.32385222252704526,-4.4738983764874645,-3.1873002198988862,2.2049999999999663
0,7.840870456163563,7.293940589544542,14.034898509634885,9.511847531048293,2.2099999999999618
0,2.4301360774616345,1.1640293581475591,-0.03630365387562573,3.110995822833585,2.2149999999999643
0,-1.4805944067241958,-1.1758814587681643,-4.78750485762718,2.7701446635093214,2.219999999999967
0,6.028679018795728,9.884208151439307,9.661294907516728,6.2292940606963745,2.2249999999999623
0,2.4679563689962087,8.38429820109037,6.970095650505171,6.408444021590277,2.229999999999965
0,1.9372376585814002,-3.19561129801885,-7.211102620074814,1.937594552904505,2.2349999999999604
0,8.186522901930447,16.374479665346243,11.637700104007907,11.926745660830232,2.239999999999963
0,6.40581211301649,10.614571101809,12.636503830659032,9.775897350943932,2.2449999999999655
0,2.055105305282917,3.5846630211413655,-0.8546914328103543,5.165049628030555,2.249999999999961
0,3.5444024916563808,4.614755432232684,3.1241143202117003,-1.0157975039037106,2.2549999999999635
0,5.1237036846651725,14.074848343285161,10.972921095846765,2.34335595865836,2.259999999999966
0,0.32300889649229386,-0.8550582381570812,-2.918271100203155,0.35251001902658924,2.2649999999999615
0,-1.0576818609668166,-1.704964305166891,-9.789462262577178,1.0316646804036789,2.269999999999964
0,3.031631424032617,11.34513014881548,9.209347614088255,3.4008199458826183,2.2749999999999666
0,-1.5290512368296008,1.7652251300603425,1.6681585352842483,6.079975818376181,2.279999999999962
0,-1.7197298319129628,-4.5046793555453615,-7.753029493571897,-6.1108676994653806,2.2849999999999646
0,0.7795956504486161,1.7754166976538999,0.8857835328951043,-4.181710605128614,2.28999999999996
0,2.218925221970392,5.515513295289346,5.114597620194155,-0.812552895938803,2.2949999999999626
0,-2.7017411056473666,-2.1943895570947336,-7.306587226099474,-4.7433945689081956,2.299999999999965
0,1.5375966792627729,-1.8342918541066684,-0.8077710003889668,0.20576437923408242,2.3049999999999606
0,7.506938588324604,6.025806409588217,9.811046303019458,3.9249239519485677,2.309999999999963
0,2.706284632959,3.915905239240857,1.8398646897457112,3.484084152691885,2.3149999999999658
0,-1.5743651757648296,-1.053995360148913,-3.871315834905758,1.0532449847099454,2.319999999999961
0,8.684989172916877,12.296104616091073,11.707504734091346,7.012406450955991,2.3249999999999638
0,7.1343476894589335,7.366205172195042,8.346326401464216,3.691568554043101,2.329999999999959
0,1.723710383836114,3.7063063117479507,-0.9948508286017063,1.8107312961803166,2.3349999999999618
0,7.143077265475755,3.656408037660318,7.23397304749274,4.759894679191475,2.3399999999999643
0,9.872448343281144,11.016510352296686,12.79279803285461,7.459058704540386,2.34499999999996
0,10.201823625506883,7.286613257440311,3.8516241299650202,4.738223373240082,2.3499999999999623
0,14.181203119527652,13.9167167540984,6.670451340533298,4.377388685761936,2.354999999999965
0,21.95058683158279,24.08682084223587,22.509279665473116,13.666554642003964,2.3599999999999604
0,24.38997476640177,21.026925520350094,20.518109104609547,17.565721241103773,2.364999999999963
0,27.569366926743104,19.06703078504729,18.48693965614747,15.604888481041312,2.3699999999999584
0,27.968763313011802,24.977136630877748,24.795771316352297,8.82405635836177,2.374999999999961
0,29.018163923020627,21.957243050294803,23.664604079429544,10.143224868252977,2.3799999999999635
0,24.687568751883493,15.55735003361751,10.623437937462834,8.572394004793955,2.384999999999959
0,26.586977792042656,22.16745756912482,22.572272880559,9.591563761116154,2.3899999999999615
0,36.07639103329437,29.547565643120926,30.07110889697665,15.120734129411792,2.394999999999964
0,26.675808462644888,24.15767423972098,18.64994597290127,11.599905100813011,2.3999999999999595
0,25.66523006417914,25.88778334058047,18.568784092238353,13.589076665248855,2.404999999999962
0,31.22465581915202,30.24789292480329,26.927623236726244,14.848248811376749,2.4099999999999575
0,25.3040857060973,23.578002968899337,18.03646338602221,18.807421526506918,2.41499999999996
0,21.083519700875872,14.07811344683631,9.265304517738517,12.736594796470284,2.4199999999999626
0,26.822957776831352,26.768224330320496,29.194146607656403,20.915768605528708,2.424999999999958
0,9.662399905018479,15.828335589037444,11.702989629833304,4.114942936396142,2.4299999999999606
0,11.571846054539307,7.2584471907788215,3.9418335566158276,8.654117770445058,2.434999999999963
0,12.331296193004182,10.698559101778757,9.860678358999634,3.163293088080574,2.4399999999999586
0,6.07075028686515,9.918671287136695,6.51952400709394,3.9524688690629586,2.444999999999961
0,1.7402083016246221,-8.201216288903233,-7.311629529633777,-1.7183549072843625,2.4499999999999638
0,-5.03032979781935,-6.941103662522151,-8.622782281987806,1.4108217381208867,2.454999999999959
0,-11.610864046661781,-5.800990869703961,-2.583934280498335,-6.770001215684663,2.4599999999999618
0,-12.631394479633746,-14.300877945811097,-11.115085555111696,-3.6908237895109144,2.4649999999999572
0,-13.26192113054192,-13.580764925344418,-21.10623613502619,-6.871646003812716,2.46999999999996
0,-16.43244403199527,-10.740651841702581,-9.467386048346867,-7.8724678785384015,2.4749999999999623
0,-28.0729632151688,-20.950538727015612,-22.678535321753042,-17.273289432957384,2.479999999999958
0,-29.6734787093732,-29.720425611912358,-34.13968398023622,-22.864110685302013,2.4849999999999604
0,-20.083990541567932,-19.990312525066376,-17.020832046665422,-11.41493165231352,2.489999999999963
0,-18.30449873624407,-17.030199492899747,-10.671979541573423,-11.11575234908401,2.4949999999999584
0,-18.7050033157062,-22.630086539700365,-18.77312648352741,-9.616572789297138,2.499999999999961
0,-20.18550430034195,-20.669973687789504,-17.574272889518326,-9.97739298551866,2.5049999999999564
0,-14.536001708707726,-6.269860957583635,-2.4454187750449976,-0.7182129493754232,2.509999999999959
0,-17.686495557593695,-14.899748367846286,-13.036564154303173,-5.609032691776258,2.5149999999999615
0,-19.726985862103117,-17.659635936000143,-22.907709040400135,-9.769852223106215,2.519999999999957
0,-11.087472635668252,-6.779523678174066,-5.758853445207367,-3.4506715532084025,2.5249999999999595
0,-11.487955890141631,-11.509411609215421,-6.799997379245741,-4.73149069131501,2.529999999999962
0,-20.108435635980587,-18.71929974280909,-18.111140851912587,-9.252309646088905,2.5349999999999575
0,-10.198911882280703,-11.729188091419468,-5.792283871600799,-1.5531284256414524,2.53999999999996
0,-15.359384636714275,-8.689076666167217,-2.36342644568564,-2.6339470375561627,2.5449999999999555
0,-13.709853905563511,-14.248965476920354,-14.354568580703479,-3.1347654890224965,2.549999999999958
0,-11.970319693772407,-12.5688545324061,-10.185710282441296,-8.84558378690914,2.5549999999999606
0,-6.590782005016042,-2.218743840228866,4.113148444154046,0.623598062314549,2.559999999999956
0,-7.221240841900643,-13.248633406999248,-11.657992405157534,-8.98721994736529,2.5649999999999586
0,-7.82169620619317,-11.058523238463959,-13.999132834061683,-2.9680378215142262,2.569999999999961
0,-7.822148098925291,-4.878413339456231,-0.49027284551262995,-4.4288555652314745,2.5749999999999567
0,-10.502596520372613,-14.678303713861167,-8.70141244162931,-6.439673183145761,2.579999999999959
0,-10.393041469971443,-17.688194364570318,-17.43255162378285,-12.070490679366708,2.5849999999999547
0,-15.603482946188338,-12.308085293247412,-10.36369039244184,-11.06130805728147,2.5899999999999572
0,-13.28392094634593,-9.047976500168092,-5.084828746939803,-7.4721253193376835,2.59499999999996
0,-9.864355466496253,-13.987867984332745,-16.995966685526845,-10.242942467001518,2.5999999999999552
0,-11.764786501451134,-11.02775974359606,-11.63710420542419,-11.413759500804352,2.604999999999958
0,-1.7652140449461862,0.3123482252601485,1.7217586972277577,-1.2145764203686742,2.6099999999999604
0,-4.475638089896104,-7.657544073708422,-8.459377972832065,-6.695393224534914,2.614999999999956
0,-9.906058628634906,-13.26743663583642,-16.560514210233777,-14.106209911509712,2.6199999999999584
0,-7.696475652930882,-8.707329455743269,-5.781650008831157,-11.43702647874318,2.624999999999961
0,-12.906889153804412,-14.007222527081735,-14.352785361449348,-11.107842922653331,2.6299999999999564
0,-15.747299121316138,-14.267115842388897,-18.023920259788266,-10.038659238524657,2.634999999999959
0,-7.817705544376371,-4.9170093930199315,-6.165054694305383,-4.809475420597579,2.6399999999999544
0,-6.678108410728227,-5.176903169263479,-2.82618865424787,-1.9302914622771228,2.644999999999957
0,-11.898507707131754,-17.91679716056084,-18.087322127932353,-11.751107356361643,2.6499999999999595
0,-7.398903419482305,-7.2666913554768655,-10.338455102808904,-6.251923095076731,2.654999999999955
0,-11.009295532783117,-0.24658574158756597,0.9704124346852481,-5.5027386699566545,2.6599999999999575
0,-8.379684031117495,-10.696480305664618,-11.700719501004142,-4.363554071848668,2.66499999999996
0,-4.240068897684193,-9.596375033865607,-10.16185089475817,-4.80436929103987,2.6699999999999555
0,-2.5104501149441067,-2.7062699116570337,-1.4029817307351378,-5.335184317336506,2.674999999999958
0,0.31917233512699106,-1.46616492381801,1.2358880075835181,2.1940008598873884,2.6799999999999535
0,-8.551201529156444,-12.816060054616342,-11.185241662875672,-1.7468137484470376,2.684999999999956
0,1.0984283107969015,1.8440447121590915,3.3936292751164645,9.262371868646833,2.6899999999999586
0,7.938061873823175,6.7241493931536995,11.39250083902398,8.221557721922814,2.694999999999954
0,6.7876991786900565,2.594254005087169,-0.44862695382277673,8.900743821571043,2.6999999999999567
0,14.327340243648038,12.26435856432874,6.340245913448197,7.749930177002682,2.704999999999959
0,19.58698508603154,21.554463086548125,22.999119457132746,11.989116796785188,2.7099999999999547
0,8.906633721906617,6.57456758629784,8.447993692625143,5.358303688611731,2.7149999999999572
0,10.666286165952119,6.814672076827208,-2.023131365865483,2.2874908593501324,2.7199999999999527
0,14.605942431608401,22.054776570245444,18.335744294900298,8.306678315227076,2.7249999999999552
0,16.575602531133512,16.154881077486042,14.744620687353784,7.6258660619334195,2.729999999999958
0,13.905266475449734,12.384985608002246,6.023497822858632,3.3850541045620575,2.7349999999999532
0,20.834934273987695,27.25509016961092,16.412375711559093,3.7442424476057323,2.739999999999956
0,25.614605934514124,24.745194768334454,26.791254362345835,9.743431095046995,2.7449999999999584
0,37.44428146274356,38.46529940796297,26.770133782458245,26.032620050206706,2.749999999999954
0,36.113960861731115,34.76540408949525,27.099013976903738,18.211809315193467,2.7549999999999564
0,37.30364413130671,37.39550881068208,37.88789494806897,14.400998890373526,2.759999999999959
0,32.92333126780465,28.50561356583275,24.726776695462416,15.620188774308879,2.7649999999999544
0,35.92302226406852,32.26571834591916,25.195659215630197,20.049378963930923,2.769999999999957
0,38.31271710950306,40.535823138716985,38.244542502281135,24.438569454502037,2.7749999999999524
0,33.60241579003431,30.835927928726733,26.71342654627681,15.837760239392507,2.779999999999955
0,25.662118288138988,16.28603269715864,13.922311335582462,12.98695131003188,2.7849999999999575
0,35.7218245830722,35.516137422300304,29.07119685558679,23.116142656096876,2.789999999999953
0,29.381534651051386,31.176242079791887,32.5700830893802,18.675334265578854,2.7949999999999555
0,22.37124846530791,18.78634664251841,15.208970017603773,7.654526124710509,2.799999999999958
0,18.09096599631874,12.606451080727613,9.98785761848506,5.673718218179608,2.8049999999999535
0,18.570687212257084,21.19655536256974,21.006745868354706,11.342910529591375,2.809999999999956
0,11.500412079389355,3.486659454549489,5.615634742064092,7.91210304171951,2.8149999999999515
0,4.320140562420628,-4.083236678083867,-6.385475786736415,-1.9787042634423089,2.819999999999954
0,4.109872624943108,7.496866929252377,3.2934142549615313,2.8004885955313217,2.8249999999999567
0,-4.380391770075319,-6.173029759068925,-4.397695159918602,-0.41031840018983057,2.829999999999952
0,-16.970652659781962,-23.292926778578313,-22.788804058206544,-9.761125269468327,2.8349999999999547
0,-10.880910080811175,-10.902824164104906,-10.269912465995098,-6.401932030931668,2.8399999999999572
0,-10.801164068764997,-13.692721949173553,-4.911020408177719,-10.072738702640475,2.8449999999999527
0,-22.24141465800952,-25.812620165815343,-20.7821279084447,-13.293545301854957,2.8499999999999552
0,-19.43166188148815,-16.92251884442226,-16.98323498930879,-11.474351844858582,2.8549999999999507
0,-15.621905770434225,-12.182418013557257,-6.734341671886834,-7.155158346841982,2.8599999999999532
0,-25.682146354227033,-19.65231770003697,-16.465447975875012,-8.455964821965805,2.864999999999956
0,-21.722383660309,-20.222217929061923,-21.456553919651874,-7.896771283515002,2.8699999999999513
0,-10.182617714094842,-5.362118724190072,-1.0576595201981354,-1.6375777440191652,2.874999999999954
0,-13.05284853915745,-11.622020107486517,-7.448764793197686,-5.3883842153974,2.8799999999999564
0,-15.44307615760096,-16.311922099826244,-18.12986975338118,-4.429190709107094,2.884999999999952
0,-11.193300590227873,-5.701824720973839,-8.080974414560195,-2.459997236197766,2.8899999999999544
0,-15.773521856528497,-11.6917279895723,-7.312078789454826,-4.810803807327047,2.89499999999995
0,-14.063739974658588,-16.5616319232031,-16.91318288972213,-10.221610432742331,2.8999999999999524
0,-8.993954961434223,-13.461536538297121,-13.404286725951371,-5.942417122143621,2.904999999999955
0,-11.794166832414266,-10.171441849970767,-3.125390307541329,-3.1432238845613427,2.9099999999999504
0,-9.48437560204604,-14.72134787203723,-12.886493642790168,-4.084030728429283,2.914999999999953
0,-10.2545812837477,-13.661254617067767,-13.207596739058314,-2.474837661745088,2.9199999999999555
0,-7.454783889953886,-6.591162096393313,-0.6386996027521039,0.01435530781585781,2.924999999999951
0,-7.044983432197411,-4.4610703202378374,-0.4598022394444399,1.313548172778687,2.9299999999999535
0,-13.49517992117788,-16.880979297950624,-15.690904654177778,-8.09725907422937,2.934999999999956
0,-7.605373366718258,-2.270889038049729,-1.9220068514882662,-2.2980664404033435,2.9399999999999515
0,-5.165563777715206,-6.170799548194502,-2.993108835258652,-11.708873932547283,2.944999999999954
0,-7.9357511622419,-13.320710835292152,-15.064210608751981,-12.429681556831202,2.9499999999999496
0,-9.035935527667005,-12.550622905465254,-12.495312174536728,-12.150489318515547,2.954999999999952
0,-1.1861168806701987,1.0794642361131372,5.233586465725968,-1.4612972218027644,2.9599999999999547
0,-7.416295227302091,-6.810449414894316,-4.64751468888272,-10.052105269980775,2.96499999999995
0,-11.176470573053253,-8.050363862262923,-10.418615638900214,-14.492913465579463,2.9699999999999527
0,-4.29664292276081,-2.4302791092580573,-2.2997163844777266,-6.563721810259218,2.9749999999999552
0,-6.66681228052093,-3.9901951586084508,-0.8808169252433391,-9.754530304677836,2.9799999999999507
0,-14.286978649705784,-12.640112012542316,-18.131917260327185,-13.655338948518695,2.9849999999999532
0,-1.9371420329119546,0.6199703272701819,1.3269826117256849,0.27385225947008496,2.9899999999999487
0,-2.1073024319653126,2.1500518597041323,7.65588269298905,-2.5869566786742473,2.9949999999999513
0,-6.437459848142433,-9.479867416050272,-8.8552170141975,-4.317765760443076,2.999999999999954
0,-11.28761428228269,-12.819787500510778,-17.03631650737636,-13.838574982967584,3.0049999999999493
0,-3.277765734632734,-2.539708393577259,2.4325842164389426,-3.6393843428007506,3.009999999999952
0,-6.307914204739029,-8.40963009435061,-7.14851483898952,-5.940193835744209,3.0149999999999544
0,-9.54805969150233,-11.979552601191088,-15.609613669250557,-10.041003456897599,3.01999999999995
0,2.6417978067717014,3.1305240882605894,3.549287730731119,1.378186799265265,3.0249999999999524
0,0.3916582922334076,-1.8694000230432877,-0.6218106333223825,-0.5626230612259597,3.029999999999948
0,-5.588478232768293,-10.37932493181294,-13.072908755300231,-5.233433032065519,3.0349999999999504
0,0.32138823422944246,0.7107493655546488,2.72599337124153,0.7357568932232619,3.039999999999953
0,-1.6587423041300644,-3.479177126928013,3.4248957531306146,-2.5350532786887445,3.0449999999999484
0,-6.3788698450020025,-12.599104404848703,-9.936201602605601,-4.895863540935311,3.049999999999951
0,-0.9689943852937883,-7.32903246327098,-4.997298688779154,-3.396673886403796,3.0549999999999535
0,0.6208840783785856,-2.2089612965255263,5.401604502149584,-0.10748430766190348,3.059999999999949
0,-3.249234450395501,-6.018890898257314,-5.159492021976196,-2.6082947970002683,3.0649999999999515
0,-8.59934996785519,-13.318821261547368,-19.390588253084722,-11.359105346460339,3.069999999999947
0,-2.7094624699045435,1.7812476211548578,2.878315817437813,1.9900840522995376,3.0749999999999496
0,-2.9795719519738157,-0.5486842419935392,-1.4027798010552428,-0.860726591943205,3.079999999999952
0,-6.989678409050171,-6.758616842485073,-10.283875098715363,-6.63153727012979,3.0849999999999476
0,-1.8597818357118983,-4.138550171564619,-3.70497006532176,-6.7823479729468215,3.08999999999995
0,3.3901177738317143,1.8915157798614848,7.31393530978426,4.5968413093076865,3.0949999999999527
0,-1.4199795744463077,-5.528418978806362,-5.747158962487361,-4.103969413336994,3.099999999999948
0,4.259926125399809,5.771645562004673,2.601747128783197,-2.634780130697749,3.1049999999999507
0,9.55983487913442,12.951709411828888,15.28065359441354,5.264409167519567,3.1099999999999532
0,5.739746692112582,4.391772579770899,3.3395604448293357,1.393598491640846,3.1149999999999487
0,10.71966156903985,4.281835074222217,2.5684676897727763,4.372787851828254,3.1199999999999513
0,14.049579513806943,18.591896902846027,17.427375338307368,7.391977257929282,3.1249999999999467
0,12.749500529295174,15.941958072413357,16.95628339870083,9.271166719329466,3.1299999999999493
0,15.949424617169255,16.542018588396136,7.105191878045244,12.570356244726865,3.134999999999952
0,21.82935177769914,26.162078454643236,24.414100782051644,15.369545841874663,3.1399999999999473
0,32.16928200944895,32.782137673061015,28.323010114885424,20.93873551729416,3.14499999999995
0,31.4392153087446,28.67219624312736,23.771919878709546,17.997925275963386,3.1499999999999524
0,38.969151669105244,37.872254161456084,26.460830073274483,21.717115121074,3.154999999999948
0,46.3390910807542,43.53231142146879,43.949740695712144,21.626305053896367,3.1599999999999504
0,45.34903353012528,47.762368012954944,39.25865174012717,29.475495073635706,3.164999999999946
0,44.18897899944595,41.61242392160046,36.31756319705253,29.494685177171156,3.1699999999999484
0,42.04892746658917,50.27247912873661,44.70647505319921,29.373875358749718,3.174999999999951
0,39.18887890516482,32.78253361132245,36.42538729141745,19.293065609858353,3.1799999999999464
0,28.788833284764948,22.422587342241787,18.904299890798853,17.82225591943506,3.184999999999949
0,33.01879057135493,25.012640291005034,23.233212827192876,18.15144627427381,3.1899999999999515
0,25.218750727680447,23.94269242444421,25.882126073875785,14.990636659335582,3.194999999999947
0,18.848713713612792,10.882743707082614,9.251039601906502,10.239827057939193,3.1999999999999496
0,11.148679486595647,4.862794101528873,3.93995338046831,1.9790174520442245,3.204999999999945
0,8.338648002246792,10.052843569079148,12.86886737746061,9.388207822655016,3.2099999999999476
0,1.5886192149515068,-2.087107929791129,-1.0322184400511367,-1.7426018498547173,3.21499999999995
0,-1.6514069216245373,-7.517060435061733,-8.853304105544789,-0.18341158552141834,3.2199999999999456
0,-0.6114304541004989,-0.807013986722442,5.1456103473863966,0.665778595442001,3.224999999999948
0,-10.051451429048862,-7.396968624434567,-4.905475114676092,-4.0450313271770915,3.2299999999999507
0,-13.061469892664704,-19.586924387334413,-20.706560524871193,-6.085841373464844,3.234999999999946
0,-13.201485890352533,-11.44688131367609,-9.2476459156697,-5.8766515631909275,3.2399999999999487
0,-12.261499466395218,-9.766839440474984,-4.018731318448105,-0.5474619156616418,3.2449999999999513
0,-19.331510663797758,-26.386798803407938,-20.739816763486875,-11.138272449714789,3.2499999999999467
0,-19.491519524126925,-20.506759436629345,-20.370902279939376,-11.36908318364763,3.2549999999999493
0,-18.911526087274524,-9.346721372466194,-0.6019878955473887,-7.8998941349762735,3.2599999999999447
0,-19.391530391296357,-21.756684641434152,-14.773073636674486,-9.710705320275661,3.2649999999999473
0,-17.431532472386564,-21.046649272389317,-18.654159528566613,-10.821516755184902,3.26999999999995
0,-10.741532364962005,-5.9866152924919005,-3.7452455953142314,-1.3623284544552732,3.2749999999999453
0,-5.491530101920331,-5.276582727368395,-1.5763318598623113,1.4768595678663656,3.279999999999948
0,-14.791525715000507,-17.48655160154682,-15.807418344340004,-9.003952701875837,3.2849999999999504
0,-7.321519234968473,-10.42652193859907,-9.418505070171923,-3.4547652770522985,3.289999999999946
0,-3.761510691649428,-8.75649376098643,0.4604079420824484,0.3344218293500354,3.2949999999999484
0,-13.321500114034938,-17.626467090010312,-14.130679327322834,-4.176391395302302,3.299999999999944
0,-7.321487530341647,-11.106441945795464,-11.701766897409767,-6.957204963371652,3.3049999999999464
0,-3.111472967966142,-2.516418347260139,3.1671452136278795,-4.8580188868560725,3.309999999999949
0,-9.641456453556124,-10.186396312310816,-6.443943011673019,-6.068833177244657,3.3149999999999444
0,-8.821438013097325,-16.44637585803642,-14.745031590273447,-11.04964784543883,3.319999999999947
0,-5.271417671856318,-4.346357000597718,0.6538794614501523,-3.5004629016677136,3.3249999999999496
0,-3.1913954543757512,-5.8563397551498815,1.2327901277741902,0.03872164450600968,3.329999999999945
0,-10.491371384590558,-16.75632413598221,-17.148299606576153,-9.712094215988497,3.3349999999999476
0,-11.741345485810287,-5.496310156522423,-9.609389756370774,-4.842910491804879,3.339999999999943
0,-9.291317780508813,-4.286297829257375,-0.5604803355497079,-7.163727191060226,3.3449999999999456
0,-17.291288290124562,-20.8562871657979,-20.58157135715303,-17.854544321175176,3.349999999999948
0,-11.281257034917134,-18.546278176741588,-21.252662833231128,-16.885361888594122,3.3549999999999436
0,-12.511224033865759,-8.186270871284943,-6.2737547744549325,-13.53617989841159,3.359999999999946
0,-13.281189304674491,-16.37626525711395,-15.624847189966308,-13.27699835421648,3.3649999999999487
0,-12.89115286380844,-16.26626134053913,-20.64594008752902,-13.637817258177051,3.369999999999944
0,-3.4211147265393107,0.5737408734323143,-1.2670334735433868,-5.488636611178447,3.3749999999999467
0,-0.4910749071823073,0.06374138082133081,-0.8581273532007503,-2.529456413053119,3.379999999999942
0,-1.9110334195090557,-7.656259821831087,-9.619221730968883,-5.950276662921961,3.3849999999999447
0,-3.3009902770448436,-2.9962627376963273,-5.880316610857465,-2.1910973594385643,3.3899999999999473
0,-1.8109454931209945,-1.8362673695873712,4.878588003617116,2.1180814990960966,3.3949999999999427
0,-0.46089908085177633,-4.226273719950946,-5.952507890689661,0.3572599145678191,3.3999999999999453
0,-3.9608510531579646,-2.7262817909278123,-8.453604296702483,1.8264378888547346,3.404999999999948
0,-0.4708014227799595,2.8337084156079766,8.885298782940326,4.745615423710161,3.4099999999999433
0,-3.7307502022572185,-3.3863031020526764,-4.465798654164829,-0.9252074793104975,3.414999999999946
0,-3.770697403898602,-6.8563163455055935,-9.92689661033479,-2.336030818835428,3.4199999999999484
0,2.869356960232908,8.123668683841792,8.622004912301158,5.173145406439963,3.424999999999944
0,0.47941287823322437,1.1236519846932493,1.7509059118103607,6.1823211977355745,3.4299999999999464
0,-2.9005296617861154,-3.5163664443626814,-9.110193613773207,0.35149655599185337,3.434999999999942
0,-4.5004706716800715,0.6436133951472376,-4.651293666378595,-3.4993285181751643,3.4399999999999444
0,-2.910410163099193,1.6035915017222306,4.867605752386153,-2.330154024245237,3.444999999999947
0,-6.650348147350878,-8.226432126071838,-10.413495358760835,-7.250979961515353,3.4499999999999424
0,-5.360284635314212,-2.146457489508858,-9.184597000801137,-5.80180632890273,3.454999999999945
0,-2.6302196373805664,3.353515410426904,5.034300825766925,-1.7726331248292575,3.4599999999999476
0,-1.0001531634956267,-3.696513427039227,2.473198120866824,-0.22346034726977165,3.464999999999943
0,-4.990085223283222,-6.206544002574094,-9.36790511547801,-5.824287993908002,3.4699999999999456
0,0.7899841738824369,3.343423683352597,3.9409911168030307,2.384883937786264,3.474999999999941
0,-0.9099449811634304,4.8033896304568025,6.649886817895303,-0.8559445494806359,3.4799999999999436
0,-3.779872697442107,-8.36664616155996,-7.73121801206149,-6.08677345288825,3.484999999999946
0,-4.379798983811566,3.2233163069686803,-4.602323372993239,-3.2876027694394456,3.4899999999999416
0,-4.089723848842662,-2.4167229641861647,-2.203429264603883,-5.328432495795708,3.494999999999944
0,-7.769647300702164,-11.366763975068862,-12.074535686154299,-10.429262628152014,3.4999999999999467
0,-3.619569347066195,-5.806806725350615,-6.785642636330299,-6.130093162100089,3.504999999999942
0,-0.7394899951081948,1.6731487858828797,1.0132498868640216,-5.660924092517154,3.5099999999999447
0,-1.0894092516309368,0.44310256000626014,-2.8778581140272204,-4.6817554136037245,3.51499999999994
0,-0.1693271232467718,-3.146945401448205,-11.698966636116795,1.1874128809659277,3.5199999999999427
0,-0.1592436164834371,2.3230049030929294,0.11992432388837182,-2.763419202148366,3.5249999999999453
0,-6.529158737787644,-5.037046524729098,-2.9711852302121646,-5.5642516560805,3.5299999999999407
0,-10.219072493368285,-15.147099683068788,-16.702295294146808,-9.725084473669016,3.5349999999999433
0,-10.76898488887656,-3.607154569543428,-3.933405863036436,-8.215917647202367,3.539999999999946
0,-9.34889592911114,-1.617211181010703,0.07548306877518601,-11.626751168190449,3.5449999999999413
0,-9.518805617903242,-6.697269513716987,-10.965628492422285,-6.8375850272478464,3.549999999999944
0,-7.378713958141174,-5.337329563473787,-7.376740539832632,-4.598419214110532,3.5549999999999393
0,6.411379048068223,4.602608674315329,4.792146933913698,1.9607462821686874,3.559999999999942
0,5.971473398983829,4.162545204477284,4.451033936578271,9.849911472834332,3.5649999999999444
0,8.40156909267151,1.2524800317325775,2.009920475873542,4.649076368944714,3.56999999999994
0,7.981666126614406,8.002413160490724,13.278806559147696,8.828240981011847,3.5749999999999424
0,4.261764497584405,1.2823445947835739,8.617692193162137,5.3874053188781375,3.579999999999945
0,-3.8181357982600987,-3.9377256617124528,-6.893422616050696,-1.0834306082341123,3.5849999999999405
0,-2.258034765054902,-2.137797605461366,-1.484537862931892,0.6857332084793475,3.589999999999943
0,-1.317932406885885,3.17212876716945,10.544346458010594,2.7248967776441995,3.5949999999999456
0,-6.95782872761475,-6.607946540058201,-8.9667696477639,-1.555939892202249,3.599999999999941
0,-7.597723730761341,-14.168023523175354,-13.837886174800335,-7.486776792548749,3.6049999999999436
0,-1.2276174193528835,3.1718978222899836,6.16099688273556,2.642386085268238,3.609999999999939
0,-8.31750979588124,-6.908182498566129,-8.74012046875919,-2.538451249841621,3.6149999999999416
0,-13.647400862280058,-11.848264480138209,-13.161238222427968,-6.229288788773665,3.619999999999944
0,-5.527290619737367,-1.378348116262221,-2.912356370822533,-2.180126522184425,3.6249999999999396
0,-4.597179068569984,-3.0684334001403935,0.4465250942297704,2.359035559581685,3.629999999999942
0,-6.107066208360492,-11.508520324448856,-14.99459381853799,-3.1818025336112736,3.6349999999999447
0,-5.026952038126749,-6.828608881324508,-4.025713099868267,-1.0426407918101885,3.63999999999994
0,-0.5868365563918047,1.1713009377586467,0.6931672601447694,-1.9134792049530993,3.6449999999999427
0,1.8532802386844311,-1.7887908581427563,-4.227952728074532,-0.6543177628263418,3.649999999999938
0,9.163398349022483,5.261115740233059,3.250926946145196,7.864843544866695,3.6549999999999407
0,1.3035177762886083,1.7110207420877535,8.409806293507057,-1.0059952716860252,3.6599999999999433
0,-2.806361478241505,-10.359075843511402,-6.271314675472328,-9.326834202474947,3.6649999999999388
0,-8.616239413453675,-8.259174007374305,-10.382435950421286,-0.9276732374085623,3.6699999999999413
0,8.49388397193953,7.860726260147186,8.536442479237433,5.851487633908913,3.674999999999944
0,5.174008679362126,-0.07937503094635523,6.315320624315355,4.2806484219717555,3.6799999999999393
0,-2.6758652899546296,-5.829477870639632,-8.585801504498189,-8.290190862913747,3.684999999999942
0,2.794262064924969,5.40041775105324,1.8330761033085867,4.038969789442615,3.6899999999999373
0,1.2043907447815252,3.440311844132885,8.321953458260175,0.08813038929534933,3.69499999999994
0,0.4545207502950678,-0.20979558153763161,-0.9291694292124204,0.6972909469206563,3.6999999999999424
0,-0.9553479179554714,-3.299904516291287,-8.1702925489021,-0.6535485274692445,3.704999999999938
0,3.804784740546151,3.3499850494893257,8.968584109362766,1.9756119762894402,3.7099999999999405
0,-4.075081273735366,-1.7601268745441259,-0.12253944419357743,1.7247724683082866,3.714999999999943
0,-0.5649459603510291,1.5797597212525245,-1.1536631994597208,-0.6860670413994698,3.7199999999999385
0,-2.5348093187604896,5.46964484645425,4.9552128535093845,2.3730934570746096,3.724999999999941
0,1.1553286517277643,2.9895285104496465,4.66408872450034,2.4622539735372286,3.7299999999999365
0,-4.264532048065699,-3.0105892776549203,-8.907035576911941,-7.768585482298338,3.734999999999939
0,-4.544391417165635,-1.2507085089241006,-1.698160041209118,-7.679424900626018,3.7399999999999416
0,3.3957505456359196,4.989170825581268,10.530715341285875,3.619735728734314,3.744999999999937
0,5.675893841692763,3.9090487347561353,0.849590580239054,6.618896416289246,3.7499999999999396
0,2.846038472215758,2.2189252272530715,3.3384656849863847,4.038057172461433,3.754999999999942
0,5.386184438051059,12.028800311340856,12.747340664427686,7.837218007244498,3.7599999999999376
0,0.49633173964802957,2.6386739947724718,2.9762155269275756,7.676378930063668,3.76499999999994
0,2.0864803771304503,-0.291453715278679,-4.3749097197473334,1.6055399497225902,3.7699999999999427
0,2.676630350388446,11.36841718789583,9.923964931776249,5.804701074454615,3.774999999999938
0,2.6667816591097138,2.078286710587972,5.7128394886048,8.393862312007295,3.7799999999999407
0,3.26693430274543,-0.6518451413808873,-1.0882860425617147,8.7630236695726,3.784999999999936
0,3.397088280471052,-1.3219783625167087,-0.0694116554200723,2.2921851536573334,3.7899999999999388
0,5.427243591146052,2.907887052593225,11.58946265610416,5.341346770120246,3.7949999999999413
0,-0.7425997667179183,-6.552248890618062,-3.7516631021796254,-0.01949147565824652,3.7999999999999368
0,1.3675582050999244,-8.112386186578359,-9.952788924725109,-4.940329578571346,3.8049999999999393
0,4.997717504630703,7.2074751706147175,7.386085194066666,2.998832466446345,3.809999999999942
0,-3.3621218702605464,-1.0326648128677016,-2.345040739986614,1.3179946645276484,3.8149999999999373
0,-3.2419599218184056,-1.7128061308444447,-4.626166720986489,-2.492842979200525,3.81999999999994
0,3.398203347763469,6.9070512227767775,9.122707256988903,3.1363195403390294,3.8249999999999353
0,1.79836793636758,7.98690725391526,10.241581199758066,3.7854822281650042,3.829999999999938
0,5.6085338417738,-2.253238031894691,-1.3495448873079563,4.964645089111714,3.8349999999999405
0,8.78870106144329,11.066615370418942,10.48932900056277,7.463808127647557,3.839999999999936
0,9.588869592295378,9.306467465448026,14.338202867543759,4.492971347739353,3.8449999999999385
0,1.2290394305397434,1.92631825714796,0.9870767170407111,-0.28786524717046447,3.849999999999941
0,2.519210571742566,4.706167748802901,1.8559505516531056,4.53129834596391,3.8549999999999365
0,6.479383011037176,6.456015943178747,9.184824373430114,5.4304621299006985,3.859999999999939
0,0.9295567432131462,-1.9641371573794206,1.9136981840064615,3.8096261070565007,3.8649999999999345
0,1.9497317627200157,-4.744291550811842,-3.577428015394594,5.3387902794158455,3.869999999999937
0,2.5299080637374103,5.615552764908193,4.611445776204286,2.717954648517715,3.8749999999999396
0,-1.8799143597385686,0.10539579185199818,1.1303195596894906,-1.7928807844750265,3.879999999999935
0,-3.359735513791179,-0.1647624679881109,-3.600806664151171,8.44628398134029,3.8849999999999376
0,-4.5795554043985724,0.0350779872718861,-2.511932894558784,2.1354489466141886,3.88999999999994
0,0.40062596272311785,2.5249171594692563,4.026940869338176,-2.1653858883227,3.8949999999999356
0,-5.63919141785723,-3.5352449495965574,-6.924185371472059,-7.346220523315359,3.899999999999938
0,-0.9690075513099241,-2.0754083381196713,-6.115311615859483,-0.7670549580492668,3.9049999999999407
0,8.861177557388306,17.014426995720463,15.423562137531107,8.322110808065975,3.909999999999936
0,-7.058636096741665,-5.97573894648736,-10.467564109889441,-7.918723224313544,3.9149999999999388
0,0.6315514812232079,-3.9559061635339092,-8.728690356774546,-3.0595570545606705,3.919999999999934
0,0.6017402862349446,0.4439253457000851,-0.29981660151928197,-2.9403906818648133,3.9249999999999368
0,-1.8580696866629864,-0.44624441748760196,0.6190571579646734,3.4887758948890424,3.9299999999999393
0,1.2921215576161793,-4.146415451646759,-4.142069075936979,-1.082057323032361,3.9349999999999348
0,4.952314014146485,6.593412244763426,5.526804699266527,3.697109665604248,3.9399999999999373
0,5.692507677841545,7.26323867323844,12.605678485992694,6.676276861874182,3.94499999999994
0,0.22270254327374042,-3.8969361650165433,-4.315447713726485,-0.0745557334396136,3.9499999999999353
0,4.122898604648466,-3.427112269081004,-2.9665738983057053,-5.5853881198453985,3.954999999999938
0,2.2730958558800993,2.6127103619581598,3.7522999337067473,-0.30622029689622154,3.9599999999999334
0,0.7632942906321012,2.9725317291083844,5.321173783775588,5.162947735996326,3.964999999999936
0,0.29349390236326167,-1.487648166674451,-7.599952346756522,-0.31788402055567533,3.9699999999999385
0,-0.5863053155801206,2.3421706754359524,6.398921543331724,3.101284433901722,3.974999999999934
0,-2.256103369866632,-7.288011743780507,0.19779545522967823,2.3604530996203508,3.9799999999999365
0,-7.715900267053232,-16.63819542333267,-17.073330609855226,-7.050378023299635,3.984999999999939
0,-9.265696013357818,-8.148380361556386,-9.964456650355853,-7.431208934700751,3.9899999999999345
0,-4.665490614403742,0.4314334441794093,5.034417336086763,-3.7020396340410797,3.994999999999937
0,-5.025284075130226,-9.118754002702127,-4.596708647484469,-6.862870120217791,3.9999999999999325
0,-7.115076399867634,-9.938942698211315,-9.477834597694283,-7.603700391555636,4.004999999999935
0,-0.1248675924186205,7.3808673622109815,10.26103948910699,1.0154695541857164,4.009999999999938
0,-2.7346576561558193,-4.629323816445345,-2.8800863832359207,-8.74536028025739,4.014999999999933
0,-2.604446594160556,-9.639516228991017,-11.131212210856432,-4.0561898917212655,4.019999999999936
0,2.185765590681997,3.2602901300281437,3.7276620102734768,-2.447019276587332,4.024999999999938
0,-4.024021104379591,-3.909904733569532,0.6565362845014079,-3.7778484307995672,4.029999999999934
0,-5.993806681962024,-9.030100813671451,-13.02458938360946,-6.108677349931406,4.034999999999936
0,1.846408855562484,2.89970189615914,0.1942850107732707,-2.2395060291713627,4.039999999999932
0,0.6766255060759818,7.04950340265073,5.553159472880356,-2.510334463308334,4.044999999999934
0,-10.263156732390176,-3.6106962874801822,-10.717965991821307,-3.1711626467972094,4.049999999999937
0,-2.372937861573587,-0.9208971676964921,-10.509091377668014,-1.5719905738225828,4.054999999999932
0,-1.7727178827959984,-0.7510992314917085,2.329783321500679,-7.932818238291811,4.059999999999935
0,4.527503202968756,5.968697527701364,5.1586581123681405,3.726354366208162,4.064999999999937
0,-0.8222746051732266,-3.881506883599997,-5.0424669982410295,-0.08447275365263765,4.069999999999933
0,1.0879486917898507,3.5882875409999824,8.486407996387646,2.6947004088483313,4.074999999999935
0,-1.3318269072183044,0.21808080780938377,0.33528310280428153,-3.5461261396498847,4.079999999999938
0,-0.7516014032840506,-4.982127076911389,-6.925841672625498,-0.14695239254018003,4.084999999999933
0,7.628625202505413,3.8076638931242224,6.423033676405163,9.06222165679759,4.089999999999936
0,0.5388529089268239,5.9374537242288055,10.841909156173898,6.4113960147990845,4.094999999999931
0,-3.720918285485752,-2.8727575774310803,-3.0492152273550612,1.7405706874273434,4.099999999999934
0,-2.780688382291417,-1.6229700058885204,-7.280339468609342,-3.1002543198320853,4.1049999999999365
0,-1.810457382894421,3.946816444776255,5.618536437934992,2.19892099829357,4.109999999999932
0,-5.710225288430951,-2.8633982195027263,-2.0425875020485806,-4.5419033529168615,4.1149999999999345
0,-8.68999209968911,-7.663613992762125,-10.32371128278314,-4.142727368064399,4.119999999999937
0,-1.649757816965352,-0.37383086883135813,-1.7648348982476993,-3.8735510414940535,4.1249999999999325
0,-3.8795224400251858,-0.6540488412012903,0.5840416580109353,-3.344374367187878,4.129999999999935
0,-8.67928596817984,-13.674267903045552,-12.317081607164983,-6.585197338736191,4.1349999999999305
0,-8.54904840024249,-13.184488047045072,-11.428204686479296,-8.036019949278401,4.139999999999933
0,-3.2588097343767677,-3.8347092650186827,1.7406724280784216,-2.216842191399074,4.144999999999936
0,-8.698569968066593,-14.71493154778345,-10.060450254748664,-6.017664057117998,4.149999999999931
0,3.7816709017729373,1.7148451147356725,-3.7815727256598093,4.0615144619838865,4.154999999999934
0,2.0319128785713736,4.0346207332585795,10.257305025070192,5.900693374513179,4.159999999999936
0,1.892155965790768,0.08439531872568362,-2.0738169926981667,7.579872688898483,4.164999999999932
