labels,F4,F3,Fz,Cz,timestamps
0,14.926320120471502,10.094592838323873,12.514528234617064,18.304525858883924,-2.000392477514268
0,10.847822863102389,11.145265967592827,9.65531067441063,10.916395590618727,-1.9953914963204795
0,10.63932796169682,9.025941578511008,5.856096565017358,4.338268132528957,-1.9903905151266947
0,1.750835417345639,-1.1933803288065388,1.8468859013811658,-1.8898565350825174,-1.98538953393291
0,-5.44765476961315,-2.732699754861735,-3.9223213221009647,-3.8579784323793236,-1.9803885527391252
0,2.2838574008881465,-3.182016700314708,3.0384748887766975,5.513902420432967,-1.9753875715453368
0,5.345371928920917,-2.9913311656556787,5.709274528172705,4.565786003146786,-1.970386590351552
0,-5.203111185503587,-8.780643151058877,-1.319922409910698,3.4176722953270686,-1.9653856091577673
0,6.048408057497665,6.870047343677065,4.720884068272907,6.389561276138066,-1.9603846279639825
0,-15.67007034219758,-6.909259680958697,-5.768306043719757,-4.43854707565335,-1.9553836467701942
0,-18.42854638434478,-15.728564224231874,-14.407492752278442,-14.09665278143053,-1.9503826655764094
0,-0.19702006779241132,-8.907866284832624,-11.036676063270047,-15.054755862157315,-1.9453816843826246
0,-16.685491390265557,-19.687165860413177,-21.93585598152308,-26.702856337683425,-1.9403807031888398
0,-23.583960348386853,-18.28646294728463,-20.27503251041793,-23.60095422614417,-1.9353797219950515
0,-13.062426937398849,-17.52575754017426,-13.234205651603558,-16.69904954357127,-1.9303787408012667
0,-14.800891150867681,-21.825049632047694,-16.753375404962252,-24.027142303839092,-1.925377759607482
0,2.4206470191399285,-4.264339214108119,-2.9525417688398465,-7.715232518842299,-1.9203767784136971
0,-5.287812418466743,-6.093626276082282,-6.571704740411978,-16.233320198761373,-1.9153757972199088
0,-3.586269454277138,-9.29291080669804,-11.580864316028098,-9.001405352358077,-1.910374816026124
0,-4.674724078539675,-8.592192793945067,-9.1300204912864,-3.369487987226971,-1.9053738348323392
0,-14.0131762810598,-11.55147222502018,-15.669173260864977,-10.5475681100453,-1.9003728536385545
0,-0.9316260510049035,2.909250913721251,-1.0783226183989953,-4.195645726767184,-1.8953718724447661
0,8.749926623074723,11.69997663646905,3.5825314433454443,-0.5237208427184071,-1.8903708912509813
0,1.0114817528128077,3.3607049573353622,-5.676611067972618,-10.601793462717765,-1.8853699100571966
0,10.483039349543292,9.251435889865983,3.5342498554125052,-10.339863591076908,-1.8803689288634118
0,18.514599423987885,26.8821694467926,17.44511422120115,8.932068768515567,-1.8753679476696234
0,29.006161985779737,44.66290563942924,35.145982036441694,19.324003612674396,-1.8703669664758387
0,31.55772704271563,38.333644476541025,27.986853306468248,12.695940937457385,-1.8653659852820539
0,32.229294600053976,39.904385963374445,29.45772803402317,15.517880737657675,-1.860365004088269
0,31.480864660103688,41.465130101300026,31.548606218955573,14.129823006615885,-1.8553640228944808
0,41.59243722203269,49.91587688771159,43.36948785811056,19.491767736215944,-1.850363041700696
0,42.08401228161231,47.23662631578007,39.83037294499452,19.453714916778033,-1.8453620605069112
0,31.645589830914048,47.727378374159514,32.58126146941271,13.605664536914208,-1.8403610793131264
0,32.79716985829762,46.038133046867664,35.16215341746097,19.41761658351691,-1.835360098119338
0,21.828752348756783,39.61889031336246,22.253048771818364,6.6795710418744365,-1.8303591169255533
0,27.840337284360075,27.839650148835926,22.123947512167423,5.091527895923071,-1.8253581357317685
0,19.241924644591005,14.670412524853948,17.104849615680457,-3.8165128713015557,-1.8203571545379837
0,17.46351440661101,9.291177410306501,11.545755057478798,-3.2045512771184015,-1.8153561733441954
0,20.355106545518034,15.43194477230829,18.416663810991015,10.877412661140365,-1.8103551921504106
0,15.426701034544276,7.202714576688148,11.117575848156358,12.129378925982811,-1.8053542109566258
0,17.258297845155944,14.883486788129812,16.418491139486335,20.75134749919921,-1.800353229762841
0,17.379896947126653,17.944261370149647,22.299409654030605,22.723318361247873,-1.7953522485690527
0,12.391498308602007,15.805038284917986,12.790331359236264,20.00529149079173,-1.790351267375268
0,3.483101896255674,-0.2541825068402077,10.731256220891689,15.267266864505144,-1.7853502861814832
0,5.914707675659178,-2.853401045481136,9.592184203354265,17.119244457175235,-1.7803493049876984
0,2.3363156116912593,-2.8526173717590875,8.523115269857442,16.981224241886956,-1.77534832379391
0,-5.4220743311697905,-1.8718315263332732,1.6140493827277314,4.893206190160885,-1.7703473426001253
0,-0.5104621885613905,1.6489564503478682,4.444986503614707,5.405190272237547,-1.7653463614063405
0,-3.2588479959826353,-1.540253482039585,-1.3640734062569124,2.037176457515769,-1.7603453802125557
0,-2.787231788700942,-8.849461363725455,-0.8631303858772732,0.009164714924819961,-1.7553443990187674
0,-0.0756136017500797,-9.578667234638473,-1.582184474274003,1.041155013151196,-1.7503434178249826
0,-21.073993469849533,-22.357871133986855,-14.70123571030933,-8.576852679173559,-1.7453424366311978
0,-14.242371427028255,-16.30707309976089,-12.110284132326449,-6.014858393223988,-1.740341455437413
0,-12.070747506107535,-14.636273168360336,-9.569329777734339,-2.2928621597254653,-1.7353404742436247
0,-14.3591217384917,-12.77547137455226,-11.508372682829652,-4.680864008897831,-1.73033949304984
0,-9.607494154261575,-9.534667751667019,-9.957412882833816,3.131136029417437,-1.7253385118560551
0,-4.625864782330391,-9.223862331823891,-8.246450411947999,3.4131379255450525,-1.7203375306622704
0,-9.494233650667457,-12.923055146090691,-12.975485303391633,1.7951416497288673,-1.715336549468482
0,-6.902600786478157,-8.002246224524795,-9.684517589395607,-1.202852827996462,-1.7103355682746972
0,-24.02096621613532,-14.961435596142518,-15.233547301126837,-12.380845537658235,-1.7053345870809125
0,-29.039329964738325,-22.300623288797514,-21.19257446853152,-25.188836508850294,-1.7003336058871277
0,-23.017692055436726,-17.48980932887331,-22.541599120031922,-23.446825769939203,-1.6953326246933393
0,-34.94605250891831,-30.33899374091515,-37.960621282066455,-37.46481334726369,-1.6903316434995546
0,-37.4444113430981,-36.778176547232974,-40.20964097847119,-37.66279926447576,-1.6853306623057698
0,-32.722768572766135,-38.33735776733734,-37.75865822980887,-40.24078354197235,-1.680329681111985
0,-29.47112420937689,-26.58653741745482,-35.297673052978105,-32.528766196541355,-1.6753286999181967
0,-17.85947826123927,-13.045715510604248,-16.526685461326778,-14.486747241475138,-1.6703277187244119
0,-1.3378307341166027,-5.904892057322046,-5.795695465311494,-6.334726687277572,-1.665326737530627
0,-4.2761816321448265,-7.254067066599471,-5.424703073522182,0.40729545726643435,-1.6603257563368423
0,-15.004530958601206,-11.603240546485171,-11.18370829351856,-9.85068081579669,-1.655324775143054
0,-21.412878715969878,-15.322412504163578,-17.35271113204321,-11.398655513883101,-1.6503237939492692
0,-13.861224905468728,-6.911582945767828,-10.151711594777797,-5.006628643712778,-1.6453228127554844
0,-3.2495695267846356,-4.780751876346763,-2.6107096862023935,-0.5246002112265565,-1.6403218315616996
0,0.7820874215894353,-7.739919300089879,-1.3497054098632137,-5.062570221801735,-1.6353208503679113
0,-4.466254058245605,-5.989085220525144,-6.808698768783944,-7.980538680431717,-1.6303198691741265
0,-3.1545939639254335,1.2517503593989772,-0.8476897656429292,-1.2385055916818721,-1.6253188879803417
0,2.5970677071392645,2.582587437123828,2.003321597187907,-2.1564709596553513,-1.620317906786557
0,11.63873095762322,0.923426010169719,7.464335317446984,5.425565211834713,-1.6153169255927686
0,10.740395789860658,5.2842660759139095,8.08535139263028,4.257602918975111,-1.6103159443989838
0,6.152062205418497,5.775107631465587,8.656369819668921,3.789642157686454,-1.605314963205199
0,10.623730204957054,12.715950673484475,14.827390594702885,11.371682923454433,-1.6003139820114143
0,2.5553997883053112,2.186795197962299,3.7184137129299257,-2.216274788774492,-1.595313000817626
0,-0.4229290453710943,2.6676412001840046,2.0394391686433657,-5.624230984499168,-1.5903120196238412
0,-7.181256297240721,-14.901511324964662,-9.18953304440662,-8.952185669245702,-1.5853110384300564
0,-23.289581968268187,-25.510662382307753,-23.498502932358743,-23.310138847990082,-1.5803100572362716
0,-19.467906058474664,-26.729811975419125,-22.96747050037571,-27.68809052449458,-1.5753090760424833
0,-14.496228566290966,-19.388960105825316,-21.06643575186358,-19.696040700624003,-1.5703080948486985
0,-6.644549488432638,-11.11810677282476,-9.025398688192608,-8.713989376076762,-1.5653071136549137
0,5.9171311796556685,2.98274802605153,5.095640690926912,4.148063451171339,-1.560306132461129
0,11.018813443033041,9.683604294181631,9.596682386585073,12.57011778393444,-1.5553051512673406
0,7.610497306477981,3.044462034969341,10.757726399734564,7.6021736248532665,-1.5503041700735558
0,6.262182774038163,4.205321251359904,9.138772730590814,9.484230975819662,-1.545303188879771
0,12.583869848951421,15.126181945738944,11.769821378417438,11.256289837816734,-1.5403022076859862
0,8.005558533617371,10.027044119776102,11.180872341468902,7.308350210900308,-1.535301226492198
0,7.83724882953662,8.137907774173456,6.821925616968424,1.3504120942523257,-1.5303002452984131
0,10.388940737316899,6.648772908634648,8.152981201172,8.772475486369196,-1.5252992641046283
0,-1.7093657432339402,3.749639522044544,1.5740390895349419,2.2245403852240186,-1.5202982829108436
0,-0.12767061288353265,-2.8894923872873135,-6.9449007230157696,-2.643393211645169,-1.5152973017170552
0,-4.1059738726119495,6.0413771786334,-3.0638382416626246,2.578674693044596,-1.5102963205232705
0,-2.8142755232974594,7.442248217582567,2.657226528635601,11.110744096434734,-1.5052953393294857
0,2.8974244343956967,4.6231207269533625,8.948293583072205,13.812814995269568,-1.500294358135701
0,7.579125999889949,10.943994703558563,13.51936291656133,14.02488738541814,-1.4952933769419126
0,6.940829172368792,5.454870143524104,6.610434523273339,11.076961261549688,-1.4902923957481278
0,0.20253395051479406,2.33574704227144,1.7915083964796128,0.09903661714719653,-1.485291414554343
0,-11.625759667378528,-6.623374605288604,-6.80741547117665,-8.79888655508577,-1.4802904333605582
0,-15.244051682865344,-9.742494804309306,-14.866337087103284,-16.906808262486635,-1.4752894521667699
0,-19.472342096631568,-19.281613559437407,-20.865256458055928,-19.554728511611184,-1.470288470972985
0,-5.390630908018165,-9.150730874291698,-13.474173589500978,-16.482647307606765,-1.4652874897792003
0,-5.2389181150497395,-7.48984675124048,-7.253088485367667,-12.16056465396581,-1.4602865085854155
0,-2.997203714839972,-15.078961191514525,-13.202001148236814,-14.598480552615555,-1.4552855273916272
0,6.334512295972066,-3.0580741953450983,0.429088420349493,1.8136049958274056,-1.4502845461978424
0,7.0362299208196,-0.7471857620956673,5.090180219548642,7.92569199158251,-1.4452835650040576
0,5.54794916280591,0.7337041094088232,5.311274248711899,10.827780434974507,-1.4402825838102729
0,-8.500329975443485,-9.375404579424035,-7.437629493010046,3.309870325798889,-1.4352816026164845
0,-0.3286074915065081,-3.374511826927819,-2.2665310065913418,12.921961663092784,-1.4302806214226997
0,1.0431166171735815,1.5463823689661909,-5.105430292809458,12.864054445067637,-1.425279640228915
0,-5.245157646654903,-7.292721989319912,-8.42432735203348,2.456148668987027,-1.4202786590351302
0,-15.333430280000558,-12.611824899026749,-15.533222184047256,-15.941755668651528,-1.4152776778413418
0,-11.451701279261595,-9.470926356780613,-14.162114787723036,-19.849658571324355,-1.410276696647557
0,-1.569970639865087,-11.180026358280323,-7.131005160741917,-14.487560041491324,-1.4052757154537723
0,4.37176164359648,-10.07912489819402,4.460106700308737,-12.475460080085307,-1.4002747342599875
0,8.043495576804029,1.0817780297655888,8.611220799380211,-4.2833586865994695,-1.3952737530661992
0,11.605231165121955,8.862682432503064,13.962337140226559,7.3487441404614,-1.3902727718724144
0,20.926968413112558,22.803588316842294,24.753455725730845,18.20084840285151,-1.3852717906786296
0,16.538707324081546,16.00449568866599,20.5745765573012,21.302954101664454,-1.3802708094848448
0,0.09044789983576428,-3.7545954475656895,0.46569963454537344,5.385061236624218,-1.3752698282910565
0,0.5721901409920883,-5.503685088461431,-2.533175044364072,5.087169806025739,-1.3702688470972717
0,-9.956065952319905,-7.3327732308427915,-10.102047481799593,0.49927980721204646,-1.365267865903487
0,-12.244320379777164,-11.05185987109027,-10.730917679867524,-10.69860876286828,-1.3602668847097021
0,-12.592573140333142,-10.650945004825479,-14.1097856398985,-16.166495907082144,-1.3552659035159138
0,-5.920824231911555,-7.4800286267500065,-8.048651362177369,-24.55438162740678,-1.350264922322129
0,-2.5690736514576877,-7.769110730632376,-6.057514845917462,-36.682265924148716,-1.3452639411283442
0,5.8926786047071245,0.8018086905426963,0.39362391051533135,-20.560148795240657,-1.3402629599345595
0,5.9044325403967095,4.692729644273254,0.42476490924662785,-15.038030235987138,-1.3352619787407711
0,-2.7238118408187986,2.843652138131235,-2.8540918474088888,-12.885910239453457,-1.3302609975469863
0,3.0779454643349635,12.304576179400803,10.977053642878024,4.5662112028535615,-1.3252600163532016
0,2.559704458961418,8.945501774788879,5.0282013822297795,8.058334100229397,-1.3202590351594168
0,1.811465146008559,7.636428930190804,8.389351372261789,14.200458461925367,-1.3152580539656284
0,-0.6267724717675079,6.757357650631133,4.900503613921282,22.422584296383178,-1.3102570727718437
0,-1.5950083917333109,-3.93171205957794,-3.348341892439204,18.054711610646052,-1.3052560915780589
0,-7.983242611204642,-7.580780196469598,-7.287185146754647,14.316840410016496,-1.300255110384274
0,-3.26147512722033,-6.549846755919984,-8.09602614878179,13.668970698073037,-1.2952541291904858
0,-12.459705936329986,-10.878911733247687,-15.484864897668057,-0.08889752303790366,-1.290253147996701
0,11.722064965472597,2.9420248769229436,6.1862986082718745,7.653235747828965,-1.2852521668029162
0,4.733837582461926,7.602963080453126,4.9774643713499325,3.925370511190794,-1.2802511856091314
0,7.185611918648965,9.723902883157015,7.238632393913585,-0.4624932328878668,-1.275250204415343
0,10.417387977423708,14.184844290242253,12.709802677817827,5.6696445153046975,-1.2702492232215583
0,12.099165761399098,10.285787305950437,14.300975224097733,2.99178375519837,-1.2652482420277735
0,12.570945272233631,4.286731933445069,3.532150032748099,-2.1760755140556327,-1.2602472608339887
0,10.822726510473524,5.25767817497311,8.583327102748896,-4.603933293469761,-1.2552462796402004
0,4.204509475558983,3.9786260321357045,1.3445064323091278,-7.021789583930682,-1.2502452984464156
0,0.06629416605211721,3.3695755060575765,-0.35431198088015803,-5.109644385918203,-1.2452443172526309
0,4.848080579990275,3.3805265974614245,3.476871860580093,-8.437497699356099,-1.240243336058846
0,11.85986871504985,10.771479306669868,6.4180579538934035,-1.7753495235646193,-1.2352423548650577
0,19.951658568292675,21.702433633381418,17.89924629587118,7.866800142605315,-1.230241373671273
0,28.063450135572126,31.80338957607612,24.31043688242398,17.688951300306304,-1.2252403924774882
0,28.825243410835572,34.17434713117607,26.281629707879276,28.071103949894784,-1.2202394112837034
0,27.227038385579718,36.04530629229549,25.202824764407502,21.6932580900865,-1.215238430089915
0,37.948835048548595,37.996267049784706,37.15402204167949,33.44541371735964,-1.2102374488961303
0,27.890633385525575,32.17722939053043,32.595221526552585,28.647570825620836,-1.2052364677023455
0,26.862433379226662,38.98819329792448,33.46642320275653,30.949729405969162,-1.2002354865085607
0,28.43423500943193,32.10915875189367,29.85762705077579,25.691889446601188,-1.1952345053147724
0,22.306038253200544,14.930125729052898,22.688833047985803,16.99405093295204,-1.1902335241209876
0,17.8678430850782,1.671094203324973,12.240041169032299,6.646213848136094,-1.1852325429272028
0,0.20964947750335794,-2.09793585295977,0.7712513864979106,-2.5116218263134105,-1.180231561733418
0,0.20145740153863745,-8.196964467990224,-3.827536328211381,-11.119456109548072,-1.1752305805396297
0,-2.1567331723233045,-7.355991669765531,-3.7863220040383183,-11.417289020552266,-1.170229599345845
0,-20.15492227353589,-12.405017485690522,-17.355105669680178,-19.765120577485014,-1.1652286181520601
0,-10.303109930926375,-4.0440419423615745,-12.043887353112519,-12.932950797242288,-1.1602276369582754
0,5.198703827684457,6.466934934366124,7.8873329186845345,3.6292203046403175,-1.155226655764487
0,0.16051897522839464,-0.6020868810221665,3.278555119403719,-6.038607286400541,-1.1502256745707022
0,1.0323354848119348,-1.6711074140784294,0.6897792227658551,-0.09643358447919848,-1.1452246933769175
0,4.544153329417625,-4.4301266903975165,-5.428994797731598,-3.2442586034750134,-1.1402237121831327
0,0.495972481842202,-7.9891447353818155,-3.017766968593592,1.2279176429306615,-1.1352227309893443
0,-13.012207085243936,-12.818161573954962,-10.296537316026807,1.9800951411738106,-1.1302217497955596
0,-20.70038539886083,-23.457177230175585,-21.145305865620283,-3.217726122304785,-1.1252207686017748
0,-12.518562485014058,-18.02619172673153,-15.504072641871943,6.624453838891853,-1.12021978740799
0,-28.026738368162995,-24.695205084503467,-26.832837667695987,-11.043364988871,-1.1152188062142017
0,-28.124913070873266,-21.404217322333306,-23.621600964066186,-5.401182619102941,-1.1102178250204169
0,-31.86308661337585,-25.19322845690389,-26.1503625497353,-8.788999064866612,-1.105216843826632
0,-28.81125901316554,-18.912238502676608,-21.07912244108028,-6.216814338546567,-1.1002158626328473
0,-25.26943028486132,-23.76124747191552,-22.93788065213071,-15.524628451761522,-1.095214881439059
0,-21.847600440334574,-19.06025537475579,-20.35663719468374,-10.352441415216063,-1.0902139002452742
0,-16.545769489005203,-10.849262219320046,-13.105392078449999,-8.260253238538777,-1.0852129190514894
0,-18.263937438189664,-12.738268011999544,-13.314145311310273,-10.978063930297722,-1.0802119378577046
0,-4.7421042934417,-0.6472727578658017,-8.992896899651395,1.9341265018440237,-1.0752109566639163
0,-9.790270058936036,0.9037235388651064,-4.13164684868652,4.996318050810513,-1.0702099754701315
0,-6.598434737849533,-4.095279125619804,-4.810395162767172,-0.7414892903445902,-1.0652089942763467
0,-4.796598332586053,1.6757192450161136,-2.889141845658699,2.51070447127303,-1.060208013082562
0,-0.9547608449175764,0.846718647195109,1.0721130992683743,3.482899328368186,-1.0552070318887736
0,-6.992922276155592,-8.762280922594776,-10.586630331070346,-11.354904726473249,-1.0502060506949888
0,2.6689173727345863,-0.09127946769821882,-3.70537213941825,-10.902707700506598,-1.045205069501204
0,-0.15924189896789082,-10.100276991107203,-8.234112327999924,-18.73050960029304,-1.0402040883074193
0,-3.697400091879292,-9.059273495300985,-8.02285089840494,-16.658310431182905,-1.035203107113631
0,-4.585557206514733,-8.90826898205938,-4.601587851542892,-16.516110197000664,-1.0302021259198462
0,-11.273713243085878,-7.407263452322683,-7.100323187652555,-8.243908899988593,-1.0252011447260614
0,-10.49186820120777,-11.366256906174264,-4.179056906360889,-8.471706541012479,-1.0202001635322766
0,-6.11002207965723,-10.545249342813605,-3.65778900674945,-0.29950311992640366,-1.0151991823384883
0,6.331825123585631,2.5857592394505713,3.823480512517667,3.032701364016553,-1.0101982011447035
0,1.44367341092496,-3.523231157024988,3.8647516529403463,4.3849069117291215,-1.0051972199509187
0,-3.0544772152705404,-6.932220529523843,-3.253975584082855,2.0771135239534733,-1.000196238757134
0,-3.192626752707868,-6.941208874988489,-5.182701197252857,1.989321201136026,-0.9951952575633456
0,-5.580775198944721,-9.460196189811652,-8.171425185094183,10.821529943408109,-0.9901942763695608
0,-17.468922551113995,-16.49918246961129,-13.400147545605398,0.7237397504832048,-0.985193295175776
0,-11.467068805553696,-2.7481677090301524,-6.8088682759735155,4.155950621575888,-0.9801923139819912
0,-7.805213957480846,-3.147151901749704,-4.867587372468607,-3.75183744448007,-0.9751913327882029
0,-11.063358000977244,-1.2361350408070362,-5.216304830587102,0.23037555100311485,-0.9701903515944181
0,-11.711500929112796,-1.3651171189189566,-6.615020645231801,-6.177410393222019,-0.9651893704006334
0,-0.9696427340033509,6.785901871328451,3.21626518918587,1.6948047217938405,-0.9601883892068486
0,0.4822165930015214,4.296921937256851,7.2075526785303206,2.567020895186638,-0.9551874080130602
0,2.6240770609128825,5.117943085844787,3.1088418285479484,0.48923812611320144,-0.9501864268192755
0,-2.1140613212330353,-3.8410346763442313,-0.2998673553913025,-12.488543586302079,-0.9451854456254907
0,2.8078014555336197,3.979988656989654,6.981425131739358,-11.236324242653975,-0.9401844644317059
0,5.939665400087719,0.4410130920364119,2.9927192946699646,-12.004103842761134,-0.9351834832379176
0,6.721530521052664,2.4520386348771335,7.184015137747281,-9.581882385379911,-0.9301825020441328
0,19.363396826496658,20.583065291318192,19.89531266474361,-6.28965986820741,-0.925181520850348
0,19.905264323488076,17.204093066435593,17.186611878464994,-10.307436288013896,-0.9201805396565632
0,24.86713301755286,24.74512196392135,25.717912780222672,3.054788359199025,-0.9151795584627749
0,40.96900291212131,44.446151985449944,39.659215369304114,21.107014077814938,-0.9101785772689901
0,45.36087400783986,53.917183129836516,43.90051964228417,28.699240871706237,-0.9051775960752053
0,54.382746301695256,59.50821539189056,55.71182559214982,39.551468743023115,-0.9001766148814205
0,47.544619786254486,59.649248761406554,48.84313320750805,35.03369769115836,-0.8951756336876322
0,43.03649444932454,48.40028322267409,38.19444247219909,23.695927712235225,-0.8901746524938474
0,44.778370274053614,50.8313187545387,41.76575336546902,24.048158799235942,-0.8851736713000626
0,45.470247239162795,53.78235533069746,41.59706586237085,30.180390942413457,-0.8801726901062779
0,31.792125319098407,27.253392919973344,26.178379934032552,15.752624129521633,-0.8751717089124895
0,38.03400448428735,18.544431486915535,24.339695548025965,13.604858346015474,-0.8701707277187047
0,32.46588470149225,27.635470992838727,28.48101266893465,16.037093575463473,-0.86516974652492
0,30.74776593405681,21.62651139658446,23.242331258726026,7.089329799937068,-0.8601687653311352
0,21.889648142137517,16.827552654738078,18.50365127689732,10.011567000260424,-0.8551677841373468
0,22.001531283078105,24.058594721752883,20.854972680676536,21.353805156152166,-0.8501668029435621
0,17.363415311834956,14.779637550096648,16.946295425266726,13.966044246089265,-0.8451658217497773
0,16.85530018131499,24.800681090305897,19.777619463982447,22.70828424700398,-0.8401648405559925
0,14.107185842625281,16.95172529098202,16.70894474831615,12.280525134108968,-0.8351638593622042
0,4.369072245330508,9.032770098846095,6.150271228053555,2.6427668810029985,-0.8301628781684194
0,-5.93904066210612,-10.976184540847234,-11.468401148294847,-18.304990539755636,-0.8251618969746346
0,-14.447152931595397,-6.325138683430929,-10.967072432623794,-18.612747155582493,-0.8201609157808498
0,-11.185264614601952,-15.464092383912146,-11.195742676325967,-25.650502992755207,-0.8151599345870615
0,-21.023375761546724,-23.373045696335932,-21.634411929747557,-36.308258075595376,-0.8101589533932767
0,-26.7914864213767,-24.31199867324429,-23.893080241815543,-35.8560124258205,-0.8051579721994919
0,-17.17959664115464,-1.750951365307734,-13.541747659664015,-22.583766062073376,-0.8001569910057071
0,-24.887706465814738,-16.31990382150328,-30.99041422844028,-34.25151899988806,-0.7951560098119188
0,-25.215815938123406,-31.31885608942141,-24.659079991178853,-25.879271251887598,-0.790155028618134
0,-27.303925098576087,-36.11780821488331,-22.297744988569864,-13.767022827962304,-0.7851540474243492
0,-21.282033985241725,-36.906760241053895,-20.586409258898616,-6.4047737357102275,-0.7801530662305645
0,-25.110142633755846,-32.68571220781898,-22.715072838206225,-7.282523981188321,-0.7751520850367761
0,-19.418251077427872,-27.15466415168446,-22.353735760399136,-6.160273569511087,-0.7701511038429913
0,-22.316359347357096,-25.74361610602588,-17.71239805726568,-1.9980225051265612,-0.7651501226492066
0,-15.764467472553065,-16.94256810147597,-14.48105975857891,7.15422920796558,-0.7601491414554218
0,-8.532575480148092,-11.99152016638126,-4.4697208924025285,14.276481565770503,-0.755148160261637
0,-9.280683395773261,-10.89047232731885,-7.3883814855502745,15.418734563677372,-0.7501471790678487
0,-18.91879124388638,-20.06942460947111,-15.107041563939912,-1.3390118039757704,-0.7451461978740639
0,-20.546899047716714,-19.33837703662075,-16.70570115255303,-2.0367575437607797,-0.7401452166802791
0,-16.88500682892199,-10.137329630946766,-4.15436027517968,6.695497337346567,-0.7351442354864943
0,-16.20311460738246,-8.536282413067944,-1.6030189544765405,9.597752832161786,-0.730143254292706
0,-15.481222401256048,-6.9952354023888725,-4.321677212383606,5.730008933044954,-0.7251422730989212
0,-17.999330227086652,-9.224188617411333,-15.540335070380205,0.782265631710942,-0.7201412919051364
0,-20.63743809979148,-19.573142075768395,-17.738992549236904,-3.9554770806046466,-0.7151403107113516
0,-14.095546032566016,-18.27209579394554,-16.987649668506005,-6.193219212758559,-0.7101393295175633
0,-16.763654036874,-15.181049786909165,-14.96630644618219,-8.390960773315099,-0.7051383483237785
0,-30.301762122459195,-21.940004067921745,-25.934962898590797,-18.078701770205768,-0.7001373671299937
0,-36.849870297022115,-37.168958648366846,-37.853619040126695,-29.93644221025921,-0.695136385936209
0,-35.11797856555106,-26.25791353728016,-32.26227488265141,-39.99418209842833,-0.6901354047424206
0,-25.996086929834643,-27.1868687409084,-25.45093043498078,-39.761921436865606,-0.6851344235486359
0,-14.564195388575666,-24.275824262690463,-21.189585702922844,-28.959660224278494,-0.6801334423548511
0,-9.802303938032686,-19.0547801034991,-15.328240689730666,-21.597398455929326,-0.6751324611610663
0,3.5295874271310312,-11.553736261964216,-5.986895396658122,-9.61513612422622,-0.670131479967278
0,-10.468521286897976,-6.2426927349432475,-10.155549823519928,-7.682873219560693,-0.6651304987734932
0,-7.216630073436611,-5.821649518072905,-14.424203969074325,-7.750609731035113,-0.6601295175797084
0,-0.7447389252653924,-0.6506066062181945,-1.0628578311123547,8.021654353033147,-0.6551285363859236
0,-5.172847834617912,-2.7595639937767618,0.2984885934090809,12.76391904458301,-0.6501275551921353
0,-5.720956793300061,-6.088521674838274,-7.380164691975879,7.176184355140552,-0.6451265739983505
0,-2.859065792710002,-9.847479643132177,-3.4688176834302866,3.8084502954205295,-0.6401255928045657
0,3.5528251761405976,-2.3864378918401186,7.642529623189529,11.470716875352958,-0.6351246116107809
0,5.49471612239686,8.704603586386503,8.58387723209381,14.802984104106665,-0.6301236304169926
0,18.986607054927802,22.705644798909738,20.555225147008215,22.535251989797253,-0.6251226492232078
0,11.298497981802123,15.836685752242545,15.076573370588566,22.227520539013433,-0.620121668029423
0,11.810388909892843,11.787726451413723,15.587921904021197,18.7097897564345,-0.6151206868356383
0,9.652279844817455,8.498766899928643,8.169270746959615,10.532059644769634,-0.6101197056418499
0,9.72417079107693,9.049807100076327,8.590619897745635,20.054330204987217,-0.6051187244480651
0,6.136061752189596,10.520847053167328,9.60196935368181,15.606601436497021,-0.6001177432542804
0,0.37795273085986486,7.59188675960041,6.8133191111891955,5.278873337193654,-0.5951167620604956
0,-5.9701562707004765,-1.4870737810577603,0.6146691659083097,1.061145903713346,-0.5901157808667072
0,-7.868265250309354,0.2539654302053317,1.896019512919034,1.5434191319632624,-0.5851147996729225
0,-5.936374205384384,-4.714995607769685,-3.332629852971651,-5.354306982417636,-0.5801138184791377
0,-1.4344831327604082,0.7160431039488903,-0.08127893700115651,-5.87203244373828,-0.5751128372853529
0,-3.472592028771056,-6.922918435507605,-5.7999277442971895,-13.359757255931559,-0.5701118560915646
0,-18.730700889305865,-17.95188022664236,-20.448576279649828,-23.03748142212942,-0.5651108748977798
0,-6.7188097095600146,-2.0708422692452766,-8.297224547066197,-9.63520494418076,-0.560109893703995
0,10.923081516145825,11.770195437693165,5.994127450500745,3.807072177479769,-0.5551089125102102
0,4.284972793921912,-2.7587671045329616,-0.7645202892065275,-5.330650056648538,-0.5501079313164219
0,7.516864129607165,2.732270105151262,9.636832231621096,9.521628354241768,-0.5451069501226371
0,7.358755528430099,2.2033070675671524,3.9081850104680043,8.363907410835484,-0.5401059689288523
0,3.1506469949766496,-2.2456562166080674,4.439538044325736,17.226187113267933,-0.5351049877350675
0,3.9025385332535363,6.595380253187059,6.880891329662859,14.618467460660657,-0.5301040065412792
0,2.144430146819797,5.1264164773338825,2.9922448624467277,7.230748450845043,-0.5251030253474944
0,-1.423678161073167,5.777452455854336,-0.7464013618073216,3.443030080449944,-0.5201020441537096
0,1.9882136126554162,3.0184881882766663,0.8349526521250009,-1.1246876546968883,-0.5151010629599249
0,-5.32989452895339,4.049523673655337,-5.293693100606815,-8.252404759080889,-0.5101000817661365
0,-3.0880025827599336,2.9205589106460605,-2.272338624741285,-2.5801212370589317,-0.5050991005723517
0,-8.856110545341746,-2.208406102409885,-3.94098392476101,-5.167837092583979,-0.500098119378567
0,-5.784218412794702,-4.187371367315272,-5.129629004813234,-5.515552329148527,-0.4950971381847822
0,-0.6923261806384202,8.503663114161899,4.421726131283537,4.046733050167075,-0.49009615699099385
0,-4.03043384390466,3.824697340212356,0.7430814798965133,1.9890190425140106,-0.48509517579720907
0,-2.7585413972912174,1.5057313087294453,-3.2855629626193203,3.6813056449912653,-0.4800941946034243
0,-3.046648835210249,-8.703234982698826,-9.394207199873353,-5.4264071454964276,-0.4750932134096395
0,-8.544756151744435,-5.672201536437566,-8.762851235119339,-4.254119332094122,-0.47009223221585117
0,-3.5928633405441643,-6.721168354414917,-6.651495070938088,-7.371830917702126,-0.4650912510220664
0,-5.910970394732573,-9.690135437926434,-9.420138709121664,-8.459541904724041,-0.4600902698282816
0,-5.5690773068975465,-11.619102787524508,-12.738782150642386,-13.497252294869323,-0.4550892886344968
0,3.612815930842624,-3.208070402906485,-3.1174253955834264,-7.324962088960644,-0.4500883074407085
0,-2.255290673336054,-1.7870382829797833,-3.196068443197246,-4.522671286869935,-0.4450873262469237
0,-3.893397111138847,-6.9260064261066905,-5.264711292145994,-3.400379887690437,-0.4400863450531389
0,8.818496625798476,2.155025169720113,5.196646059275964,7.181912109948185,-0.43508536385935415
0,10.140390545738462,4.206056506745748,6.898003612894937,4.984204707491842,-0.4300843826655658
0,8.652284656430837,4.39708758718717,6.599361370285737,5.976497906074842,-0.42508340147178103
0,-0.6358210351433102,4.598118412962204,-1.1892806674753955,0.4287917063486243,-0.42008242027799625
0,-0.3339265226020274,5.399148985567752,5.812077500239993,4.081086108545031,-0.41508143908421147
0,-8.372031799753183,-2.469820693916522,-4.376564126213863,-4.956618887365056,-0.41008045789042313
0,3.019863139755797,0.2712093753116572,-3.3152055465789925,0.3056767185130288,-0.40507947669663835
0,6.99175830247872,11.942239193905948,7.866153239460322,9.697972926085972,-0.40007849550285357
0,0.9436536948891903,1.4332687622379099,-1.072487767772602,0.2802697351074964,-0.3950775143090688
0,-1.4644506768302945,-6.475701919744185,-3.9711285680839983,-1.4074328549987216,-0.39007653311528045
0,-3.6925548066637566,-2.664672852263216,0.2202308386829112,-1.2151348450152235,-0.3850755519214957
0,-6.530658688476595,-3.253644035327997,-1.4284095471881617,-6.432836235670475,-0.3800745707277109
0,-5.058762315779116,-0.8726154686167246,-7.64704972523781,-5.6405370274251085,-0.3750735895339261
0,1.5931343183681788,-3.5615871515415862,2.984310305232967,-2.66823722031285,-0.3700726083401378
0,3.9750312212078756,4.16944091667405,7.815670545116456,0.19406318606656323,-0.365071627146353
0,-5.31307159997544,-4.409531263096604,-5.772969004765845,-12.86363580753915,-0.3600706459525682
0,13.848825861992806,10.701496310001323,11.988391656164776,8.128665799973783,-0.35506966475878343
0,-1.3392763859534464,3.732523636620791,2.599752528180823,2.090968009979708,-0.3500686835649951
0,10.852621662686158,4.803550716985733,11.401113611077433,5.83327082378199,-0.3450677023712103
0,17.194520013785528,13.61457755075008,14.082474903934942,15.12557424225327,-0.34006672117742553
0,12.16641867227943,12.195604136830456,11.96383640486469,13.067878265505728,-0.33506573998364075
0,8.15831764187079,4.706630473180734,3.1651981108597615,1.2701828926172412,-0.3300647587898524
0,-2.1897830748511553,2.3776565568194137,-2.8134399819959586,0.8624881217493313,-0.32506377759606764
0,-3.7778834759198086,-0.9013176158390073,-5.102077878012233,-1.435206049406593,-0.32006279640228286
0,-5.435983559436026,-0.0902920486335255,-3.9307155813971244,-2.502899623250245,-0.3150618152084981
0,-9.764083323168233,-11.689266745383206,-9.879353095967655,-10.210592602034836,-0.31006083401470974
0,-2.9121827643241778,4.611758290360116,-4.037990424990659,-2.798284987626144,-0.30505985282092496
0,-0.7402818795250174,-5.107216944601865,-4.776627571117964,-3.4059767813588744,-0.3000588716271402
0,-1.8283806649853438,-5.526192453192752,-3.545264536450906,-0.9136679841135089,-0.2950578904333554
0,3.81352088325948,-2.945168238038141,-0.2039013226706048,-1.2613585964851604,-0.29005690923956706
0,4.455422769155759,-2.7941443013767286,-0.862537931178571,-2.309048618891035,-0.2850559280457823
0,-4.952675003517251,-2.983120645087798,-5.1211743631994375,5.783261948361571,-0.2800549468519975
0,-2.2207724310926107,-1.6920972707603534,-3.8998106197528863,4.575573104917749,-0.2750539656582127
0,-9.218869509742916,-13.261074179666336,-16.138446701455063,-7.282115149792828,-0.2700529844644244
0,-3.406966235221304,-5.710051372568513,-8.867082608203178,-3.399802816435197,-0.2650520032706396
0,-18.455062602663716,-16.4790288494467,-21.08571833883445,-17.287489895367628,-0.2600510220768548
0,-12.433158606319628,-3.098006609318486,-10.054353890870733,-4.4151763862265785,-0.25505004088307004
0,-4.561254239294126,-0.06698465030412666,-5.432989260470793,-4.18286228775717,-0.2500490596892817
0,1.310650506335424,3.6640370300049336,1.4783755572629735,7.8894524019526155,-0.24504807849549692
0,-1.2274443609523042,2.225058434092489,4.369740567738729,6.921767684945396,-0.24004709730171214
0,1.0844611674854938,5.43607956424183,2.18110577638381,6.814083562895243,-0.23504611610792736
0,21.626367100172313,14.827100422343442,19.91247118828911,15.496400036795684,-0.23004513491413903
0,11.77827344501682,8.47812100960017,9.35383680780787,5.728717106762867,-0.22504415372035425
0,0.6701802088273773,2.4391413263058315,1.8652026382476725,1.5310347719899131,-0.22004317252656946
0,5.112087397401368,10.06016137192982,7.496568681984999,6.153353030966959,-0.21504219133278468
0,8.373995015917586,8.301181145260209,2.447934940782165,5.7556718817094,-0.21004121013899635
0,2.6159030690611713,6.442200644365156,-0.04069858403508132,2.517991321780335,-0.20504022894521157
0,9.127811560962293,8.183219866543025,3.7306681085548465,7.590311348266395,-0.20003924775142679
0,2.8997204951810733,6.704238808353343,4.492035019350968,7.602631957752768,-0.195038266557642
0,-1.7483701252302712,-6.974742534271446,-4.946597851076546,-3.68504685371171,-0.19003728536385367
0,5.343539702446228,0.3962758342851401,3.784769497684145,2.757274909517479,-0.1850363041700689
0,-2.074550019251406,1.70729390966125,1.916137065990909,-1.0904027570726715,-0.1800353229762841
0,8.897360712041456,7.8983116875198975,12.277504854034056,7.361920141928969,-0.17503434178249933
0,16.0292718983308,9.67932916324326,9.208872861517833,8.30424360169917,-0.170033360588711
0,10.13118354086395,8.300346331594715,8.870241087349337,3.07656761693454,-0.1650323793949262
0,5.4730956398184505,5.261363186547266,7.341609529527835,3.918892181756974,-0.16003139820114143
0,-6.95499180553362,1.072379721352256,-1.7770218147384675,-3.148782710147752,-0.15503041700735665
0,7.976921203656765,15.223395928688902,10.734347051197448,11.063542934647803,-0.1500294358135683
0,-8.241165333847093,0.19441180064678545,0.18571612355069056,-1.2941308906907587,-0.14502845461978353
0,0.23074858076277166,-5.714572671268833,2.2070853981253666,8.578195806630628,-0.14002747342599875
0,-1.527337053553597,-8.773557495744242,-3.8315451295615075,7.160523018950997,-0.13502649223221397
0,-3.7054222376320114,-9.142542681085429,-5.020175464020673,0.43285073808230806,-0.13002551103842563
0,-6.223506972080206,-12.741528234839535,-8.9988056095001,-7.884821044588005,-0.12502452984464085
0,-7.911591257134942,-18.130514163550306,-14.947435569674306,-13.86249233763812,-0.12002354865085607
0,-1.2496750925064073,-13.149500472499032,-7.8260653473319906,-9.370163149019145,-0.11502256745707129
0,-10.957758477343056,-19.838487165497313,-12.894694944196837,-14.457833485668695,-0.11002158626328296
0,-7.845841410203776,-7.6274742448279635,-8.073324360925236,-10.365503353381886,-0.10502060506949817
0,-8.833923888923714,-11.686461711361618,-15.311953597130703,-8.2331727568108,-0.10001962387571339
0,-3.342005910540921,-3.015449564823796,-6.050582651360701,-10.500841699555119,-0.09501864268192861
0,-0.9700874714258602,-3.9044378041100436,-7.099211521137507,-8.968510184262831,-0.09001766148814028
0,-6.368168567501833,-6.893426427537214,1.2321597968246125,-4.706178212688307,-0.0850166802943555
0,-1.4462491943576787,1.9075845670208387,4.973531306251532,7.60615421411647,-0.08001569910057071
0,3.6956706527073577,4.678595181981153,5.974903010876448,11.248487095299964,-0.07501471790678593
0,1.7875909785067559,6.859605419726736,6.5262749140782095,9.130820429571557,-0.0700137367129976
0,6.179511787711816,6.220615282260307,5.097647018699201,8.083154214803319,-0.06501275551921282
0,5.171433084665498,8.481624771005354,6.949019327000938,10.105488447953537,-0.060011774325428036
0,-3.4366451266860873,-1.0873661132374004,-2.1796081592923056,5.447823125116542,-0.055010793131643254
0,-0.9747228426573316,4.143642629831075,0.45176456117695707,6.070158241594089,-0.05000981193785492
0,-0.7928000595720153,4.284651000178013,0.2931374896317309,8.022493791998247,-0.04500883074407014
0,0.1391232263521338,-1.6443410025001561,-3.4854893726963656,12.164829770254693,-0.04000784955028536
0,6.251047018929276,7.7666666212350215,-0.07411602449805389,14.267166169432814,-0.035006868356500576
0,3.192971321822708,5.24767387053118,3.967257535629772,9.29950298152024,-0.03000588716271224
0,6.15489613835316,9.158680744083053,7.778631309033443,11.461840197343118,-0.02500490596892746
0,-2.773178528561501,4.639687239962814,-1.989994703241045,0.7941778066820971,-0.02000392477514268
0,6.818747323682455,10.860693355554147,5.50137949948736,1.126515798559161,-0.015002943581357897
0,-0.3193263025433532,-1.448300912439334,-2.197246082361595,-7.651145838348482,-0.010001962387569563
0,10.192600594858828,1.4727044321468377,-2.9758714484969406,-0.0788071153078197,-0.0050009811937847815
0,1.3245280175935055,0.1437093852002918,-4.044496598571238,-0.3164680433343333,0.0
0,-2.833544033056168,-0.6452860574753353,-0.7731215320063576,-3.9041286332296625,0.0050009811937847815
0,13.918384443882728,3.595718099885086,7.288253751985031,6.878211104317514,0.010001962387573116
0,10.410313448989648,6.496721852930649,8.659629254104376,9.480551158544262,0.015002943581357897
0,4.7222429821146275,11.287725196967028,11.21100497455091,6.002891518265931,0.02000392477514268
0,3.644173042268765,1.8387281266928774,6.3123809127238655,1.7552321716509436,0.02500490596892746
0,4.356103627836658,1.6297306361595345,1.1737570671968232,-6.602426893627034,0.030005887162715794
0,3.578034736763909,-0.6692672809984269,1.3251334359494595,-6.390085689961985,0.035006868356500576
0,4.67996636660366,4.111734368671327,5.826510016629698,1.6922557705586294,0.04000784955028536
0,-1.6181014854540323,-7.777264421457897,-9.23211319331509,-10.475402523746457,0.04500883074407014
0,-7.306168822419381,-10.526263657903126,-5.830736196430587,-7.37306058412439,0.05000981193785847
0,-10.57423564713773,-2.405263346722212,-5.439358994899994,-2.8007184212454095,0.055010793131643254
0,-0.96230196191295,-4.814263493336644,-4.657981590342609,-3.8083760451743514,0.060011774325428036
0,-5.5703677684168955,-6.953264102616434,-10.786603983802129,-4.866033465507556,0.06501275551921282
0,-4.528433067822366,-12.612265178887053,-7.465226175676019,-11.763690691400024,0.07001373671300115
0,-9.106497860843826,-15.351266725687603,-11.773848165567921,-11.811347731359987,0.07501471790678593
0,-1.9345621476559522,-6.910268745481757,-1.272469952222843,-2.1490045930234634,0.08001569910057071
0,-8.252625927858666,-9.519271239596836,-10.4110915336142,-12.566661283150825,0.0850166802943555
0,-15.920689200435381,-14.518274208336845,-17.909712906973933,-20.304317807634355,0.09001766148814383
0,-16.128751963477868,-14.64727765095387,-19.158334068498363,-24.471974171140207,0.09501864268192861
0,-6.956814213849405,-7.786281565491259,-9.946955012941418,-16.659630376576136,0.10001962387571339
0,-11.654875947145866,-8.325285948805853,-9.985575733554247,-17.607286424871514,0.10502060506949817
0,-17.12293715783037,-14.584290796733223,-17.824196222297516,-18.75494231508574,0.11002158626328651
0,-9.34099783920006,-2.113296104158276,-5.30281646994208,-7.002598044580097,0.11502256745707129
0,-1.9090579833604022,0.19769813486755639,-0.9114364661693773,1.76974639065895,0.12002354865085607
0,5.01288241842766,6.618691926730579,10.949943799983798,9.752090995361957,0.12502452984464085
0,4.734823375154139,4.769685277759994,9.051324339429005,9.104435774186697,0.1300255110384292
0,12.696764895536363,14.76067819384526,16.452705162412776,14.706780731123015,0.13502649223221397
0,18.798706987584605,15.741670680083844,16.084086278090304,19.709125869101836,0.14002747342599875
0,12.510649658166097,9.502662740436392,15.335467694244302,16.161471189657977,0.14502845461978353
0,-1.4174070871732336,2.443654377653791,1.2968494172323892,3.7638166927752,0.15002943581357187
0,9.194536756099588,12.364645593531879,6.728231452287869,11.026162377119114,0.15503041700735665
0,1.5964811919155506,2.3956363891340424,6.069613803924552,7.2985082403917225,0.16003139820114143
0,12.438426223714885,5.546626764862873,10.740996476072311,5.22085427949195,0.1650323793949262
0,15.160371854267815,14.30761672049502,14.632379471916416,12.603200490557555,0.17003336058871454
0,12.61231808535026,9.878606255062454,12.023762793632526,2.8655468689656507,0.17503434178249933
0,0.8842649175584844,-4.220404633289991,1.6451464422593094,-7.442106590562306,0.1800353229762841
0,10.03621235050099,-0.5594159470543565,3.1965304179157137,-7.339759893523376,0.1850363041700689
0,11.658160383038556,3.0015723110989776,4.517914720172885,-3.587413045087237,0.19003728536385722
0,8.400109013233267,6.582560138449743,6.649299348221707,5.404933950061272,0.195038266557642
0,2.502058238250347,4.153547532021779,2.0306843008264845,1.4972810874525175,0.20003924775142679
0,-8.865991945403145,-3.215465511552969,-7.137930423628125,-5.510371637451648,0.20504022894521157
0,-13.654041541287947,-15.624478995799176,-13.456544826764535,-14.298024229132313,0.2100412101389999
0,4.167909447553601,2.0865070761022766,2.374841090278738,-0.1456766915898844,0.21504219133278468
0,3.969861018653922,-0.24250729845506352,2.8162273269413562,-0.6733290281697764,0.22004317252656946
0,1.0818131696750295,2.268477878238401,-1.3723861171129483,-4.570981241786188,0.22504415372035425
0,-14.486234101821111,-11.72053739603842,-12.580999242189405,-9.99863333506573,0.23004513491414258
0,2.8857192018998057,1.0504468766824842,2.060387951667968,2.4437146897784228,0.23504611610792736
0,2.557673078966033,-3.468569305260559,1.1417754648336655,1.6660628309427543,0.24004709730171214
0,3.1996275276637083,0.30241405678626887,4.743163297865473,14.278411086679071,0.24504807849549692
0,-3.8584174538500093,-9.01660303830288,-0.01544854881048302,8.270759454782041,0.25004905968928526
0,-11.296461867452464,-6.545620591327695,-7.184060074937027,2.643107932251075,0.25505004088307004
0,-8.014505714649342,-5.20463860255346,-7.762671280156451,1.1054565153544225,0.2600510220768548
0,-2.942548996246636,-2.5036570716466673,-0.3912821636858853,-1.7021948000405116,0.2650520032706396
0,-3.2505917123674943,3.657324002169185,1.6301072757153012,-1.5698460181708473,0.27005298446442794
0,3.5013661372948675,1.0783046198331931,-0.0385029605037508,-7.287497143171474,0.2750539656582127
0,-3.90667544677569,0.38928478221467855,-3.567112870874983,-8.825148178854322,0.2800549468519975
0,-3.084716464012009,5.50026449002691,0.19427754612012366,-8.942799128447628,0.2850559280457823
0,0.07724308630517589,3.9912437437621318,3.1356682920975487,-4.660449994423034,0.2900569092395706
0,-1.53079679491175,-2.037777456389038,-1.4929406313143743,-8.86810077849963,0.2950578904333554
0,3.4311638933634256,-6.796799110427281,-5.201549222516414,-11.905751481665911,0.3000588716271402
0,-2.596874847839136,-7.5958212181976625,-8.170157479756494,-14.903402104038019,0.30505985282092496
0,-10.884913017448076,-11.064843779019148,-7.5387654008294875,-21.951052644556466,0.3100608340147133
0,-9.582950614047682,-10.353866791423199,-13.067372982834161,-20.93870310061085,0.3150618152084981
0,-10.440987635485232,-11.872890252985979,-10.27598022198135,-17.166353467739224,0.32006279640228286
0,-1.079024078717164,-7.841914160253113,-3.5745871135001783,-4.20400373964633,0.32506377759606764
0,5.10294005997767,-4.350938508799114,-0.25319365179096254,3.5483460913149782,0.33006475878985597
0,12.994904784467877,13.77003670646162,11.858200169140128,17.900696033295176,0.33506573998364075
0,-2.963129901771905,2.6210114906859463,0.809594355151867,2.883046094068654,0.34006672117742553
0,-3.281163995768602,-2.6480141513662905,-2.309011088307803,7.815396280577499,0.3450677023712103
0,5.020802505262594,5.352959784691945,7.2623838439048685,14.737746598920971,0.35006868356499865
0,0.1527696040945763,-5.056066696902721,-2.6862208432352306,0.200097054372949,0.35506966475878343
0,0.7247373034078264,-1.595093591927847,-8.134825144852176,-0.6575523485394912,0.3600706459525682
0,-2.093294394230043,-0.07412089605126476,-10.343429055873019,-2.6352016056703005,0.365071627146353
0,2.088674513725142,14.556851395121111,1.68796742933449,-2.6928507128650296,0.37007260834014133
0,3.480644029803914,10.27782328563885,5.349364316921392,-4.5004996657633045,0.3750735895339261
0,4.242614156396692,9.798794778721087,7.77076161310082,-3.0781484597111053,0.3800745707277109
0,-0.4654151043717638,5.5697658765851745,6.102159323686476,0.17420291026544782,0.3850755519214957
0,-4.0234437505943275,0.7507365806112639,2.583557453902768,-0.5634455506213758,0.390076533115284
0,3.578528219606508,3.41170689163587,4.944956008436449,4.9789061629193325,0.3950775143090688
0,-4.509499191820808,2.7626768101727643,0.5063549915615309,-0.13874194390614142,0.40007849550285357
0,-3.827525982822765,3.753646336468997,-0.4222455927403143,-0.8463898660522975,0.40507947669663835
0,2.4144478488332077,8.204615470441473,1.8891542593579236,9.155962401377714,0.4100804578904267
0,2.0564223055367634,-0.7644157884130388,1.5405545516010593,1.9883148630503158,0.41508143908421147
0,-1.7716026103292006,1.2465525590051938,0.451955287630988,0.10066752327019096,0.42008242027799625
0,-0.23962689644761756,2.4175205115561096,3.39335647095882,6.24302038601056,0.42508340147178103
0,9.252349449447484,6.878488067922109,13.034758104867919,13.155373454904712,0.43008438266556936
0,-3.455673570542187,-2.240544773482295,0.3661601921775307,3.7577267329999082,0.43508536385935415
0,10.536304045382872,6.530421985454305,10.197562735074797,13.53008022253715,0.4400863450531389
0,5.8482822986335625,0.6913883425800892,2.9189657351287828,9.282433924875079,0.4450873262469237
0,1.3902611901113913,-4.457645704472744,-2.589630806606904,4.134787840454918,0.45008830744071204
0,-2.8677592797462834,-8.596680158081504,-2.7182268893568047,0.027141968927077792,0.4550892886344968
0,0.5642208893059345,-2.875715020290507,0.6131774876782747,-0.45050369051696226,0.4600902698282816
0,6.06620169749844,6.705249707303606,6.754582325387015,6.59185086112772,0.4650912510220664
0,8.928183144900641,6.976214023239834,10.745987624486965,7.804205622648499,0.4700922322158547
0,10.500165231081958,1.3671779257565004,2.2473933851753403,4.726560592383926,0.4750932134096395
0,2.9521479548616982,7.658141412611282,4.48879960700652,3.848915768091131,0.4800941946034243
0,1.8941313143374443,0.5491044811116028,-1.9597937109476935,-0.9987288529629379,0.48509517579720907
0,1.166115307135282,3.440067128174796,1.4516134301401316,4.253626726183217,0.4900961569909974
0,-0.3319000693498382,3.461029350398619,1.413021029001252,1.695982502291596,0.4950971381847822
0,-0.4199148178185964,-0.24800885588767502,2.3444290842859,1.2583384719204458,0.500098119378567
0,7.762071058962743,0.7929525054329772,3.375837594491854,-1.9493053685498585,0.5050991005723517
0,-1.3159424419358032,-8.336086569587192,-6.712753442053883,-15.416949022710607,0.5101000817661401
0,-0.2339553236829745,-5.735126084702154,-5.641344027015127,-12.224592493673383,0.5151010629599249
0,-1.0819675895732261,-4.724166043210645,-7.639934161723173,-5.952235783613327,0.5201020441537096
0,-5.739979242846519,-3.943206447864432,-7.85852384692603,-3.3998788937047437,0.5251030253474944
0,-4.917990286519122,-7.392247300911596,-4.027113082699267,-1.9775218244194372,0.5301040065412828
0,1.94399927673693,2.528711395858556,0.9842981314819478,8.744835424110155,0.5351049877350675
0,4.2559894445026885,3.5296696409684407,4.995709796472191,6.4571928516898645,0.5401059689288523
0,-1.5720197856503129,2.15062743295304,0.5571219131121243,3.66955045769608,0.5451069501226371
0,10.769971583647978,4.341584770123028,3.188534482025669,13.881908240893896,0.5501079313164254
0,13.09196354936853,14.4825416504153,15.269947503519699,18.59426619925312,0.5551089125102102
0,12.743956107704493,11.913498071109075,12.63136097729126,15.716624329559126,0.560109893703995
0,23.72594925366354,19.93445402842432,21.402774901960843,21.098982627046116,0.5651108748977798
0,14.97794298073426,11.085409517213499,13.504189274692708,17.68134108521614,0.5701118560915681
0,17.819937280675468,10.306364530890175,11.145604091072032,23.363699695731217,0.5751128372853529
0,9.931932143548899,1.2473190616464307,11.387019345251971,13.916058448344186,0.5801138184791377
0,-1.2460724419785476,-8.191726899074244,-0.5115649697553312,-0.9115826689371886,0.5851147996729225
0,-7.064076488053394,-7.4907733599469175,-3.9401488616698224,-1.4292236692600557,0.5901157808667108
0,-4.012080006931705,-1.7698203292477834,-3.4887323384217797,2.053135433803416,0.5951167620604956
0,-7.950083010494957,-13.808867814659857,-8.557315407716658,3.905494626596916,0.6001177432542804
0,-10.63808551003996,-16.217915823134582,-11.345898076755947,-5.59214610463165,0.6051187244480651
0,-11.716087516103318,-19.09696436051885,-10.294480351981576,0.4302132263150524,0.6101197056418535
0,-15.79408903823149,-15.046013431163596,-16.08306223884125,0.4525726057181919,0.6151206868356383
0,-6.582090084812017,-5.725063037841596,-5.911643741652031,2.7949320199275576,0.620121668029423
0,-5.56009066311127,-4.5141131820459215,-2.2902248636648794,0.7372914552266097,0.6251226492232078
0,-0.3080907795614939,-2.9831638644491085,1.451194392586188,2.659650897750174,0.6301236304169961
0,-2.2660904401145765,-2.3322150852413435,1.832614024845943,2.1320103334569183,0.6351246116107809
0,-6.004089650443325,-3.251266844282282,-3.3759659691260087,-0.3956302518759247,0.6401255928045657
0,-3.9420884159271274,-2.580319141151323,1.2854544084161454,7.8867291273429725,0.6451265739983505
0,-0.8500867415667241,6.580628024788466,4.956875155226287,9.069088456404259,0.6501275551921388
0,5.561915367926944,11.08157465413399,10.518296268897966,8.491447720034586,0.6551285363859236
0,18.24391790776075,25.202520746901115,23.77971774643208,22.893806902093644,0.6601295175797084
0,18.195920872427603,29.123466301765234,27.411139583570236,21.51616598517347,0.6651304987734932
0,22.787924255041922,27.21441131529655,25.31256177407818,20.168524950120634,0.6701314799672815
0,19.559928046901998,22.755355781518617,23.28398430931817,15.400883775802438,0.6751324611610663
0,24.95193223729005,24.086299691897683,25.94540717819151,19.103242439193963,0.6801334423548511
0,13.993936813416187,11.83724303557004,15.226830367240403,10.09560091555949,0.6851344235486359
0,15.335941760529538,11.098185799716461,14.168253860881883,11.617959178650896,0.6901354047424242
0,4.907947062238507,12.549127970013572,13.119677641777178,2.2503172009953536,0.695136385936209
0,-9.340047298964956,0.68006953098793,-3.428898308756472,-5.827325045685262,0.7001373671299937
0,-6.94804134095701,-0.5289895336479296,-8.177474010185746,-8.304967589903422,0.7051383483237785
0,-9.786035081255552,3.7319507594105743,-3.5660494820372515,-6.452610459842888,0.7101393295175633
0,-9.36402853663345,2.2028903932902093,-6.2646247434096685,-8.500253683047053,0.7151403107113516
0,-5.272021723018678,-1.4861706490544462,-6.823199812857558,-7.517897286332964,0.7201412919051364
0,1.5599853444018024,2.3547676151848913,-5.671774708370325,-8.235541295765813,0.7251422730989212
0,-8.328007349065993,-2.4442948312480914,-6.1903494473370495,-11.953185736617028,0.730143254292706
0,-4.865999817755104,-6.463358005574028,-5.228924046552746,-11.900830633258836,0.7351442354864943
0,-4.7439920755527165,-12.322421924740153,-10.877498522212834,-13.398476009008839,0.7401452166802791
0,-8.321984135809023,-19.271486604995093,-13.626072889789697,-14.636121885993925,0.7451461978740639
0,-9.029976011273925,-18.210552061384696,-15.234647163767724,-8.573768285079908,0.7501471790678487
0,-15.317967713935332,-16.15961830736962,-16.483221357365935,-10.061415225929174,0.755148160261637
0,-19.26595925472919,-22.398685354671287,-23.39179548230496,-12.819062727129767,0.7601491414554218
0,-24.763950643141218,-24.057753213167814,-27.320369548513288,-19.886710806170807,0.7651501226492101
0,-11.22194188685457,-12.796821890751362,-15.338943563811949,-10.734359479227482,0.7701511038429913
0,-15.549932991716668,-16.035891393381785,-14.417517533892985,-11.642008761041362,0.7751520850367797
0,-13.867923961982441,-11.484961725369132,-15.506091462635238,-11.109658665049524,0.7801530662305609
0,-7.955914800527511,-16.714032889597974,-11.974665352399482,-10.717309203545206,0.7851540474243492
0,-11.433905509011852,-21.18310488752898,-16.183239204146158,-18.424960387693176,0.7901550286181376
0,-5.601896088059022,-13.462177719037285,-9.061813017483503,-11.412612227408017,0.7951560098119188
0,-5.6198865374261455,-10.501251382355175,-9.34038679076549,-8.050264731275032,0.8001569910057071
0,-0.23787685620072932,-1.4303258743413412,-2.928960521301928,-2.137917906740111,0.8051579721994955
0,-7.9058670430051246,-5.189401190947842,-3.2175342056521146,-2.3255717604983523,0.8101589533932767
0,-4.303857096063057,5.621522672355548,4.253892160067641,6.456773701115367,0.815159934587065
0,-0.8118470131601375,5.032445720219906,4.36531857985595,7.91911847174806,0.8201609157808463
0,-2.599836791694468,-3.1866320428771564,0.40674505754304124,-0.42853745531108633,0.8251618969746346
0,8.642173571128698,2.72428938731375,5.498171596673219,4.98380591277576,0.8301628781684229
0,7.67418407798763,1.1152100149287045,2.819598200491974,-3.5438514314706255,0.8351638593622042
0,12.396194731051317,8.07612984397465,6.131024871901996,1.6084905043283435,0.8401648405559925
0,19.188205531594814,12.047048878101165,15.182451613324414,4.1008317124963645,0.8451658217497808
0,6.290216479695181,10.957967120258573,10.173878426423004,1.9731721852435018,0.8501668029435621
0,3.7122275742044586,9.148884572431468,4.775305311863166,-3.704488085413527,0.8551677841373504
0,9.734238813052238,18.179801235528103,9.746732269356677,-2.0421491075365057,0.8601687653311316
0,7.166250193482067,16.72071710923756,17.22815929775788,3.60018911090216,0.86516974652492
0,-6.741738287880024,9.10163219183313,0.43958639496462626,-0.877473437999454,0.8701707277187083
0,-7.519726634720237,10.062546480195707,4.341013557941933,0.32486323781756665,0.8751717089124895
0,0.22228514947004446,13.703459970027401,3.2724407830348237,-2.4828008696242128,0.8801726901062779
0,0.47429706158607265,4.0743726559808335,1.233868066225929,-7.500465768208642,0.8851736713000662
0,-5.273690901239566,-3.564715468169929,-2.0247045967464863,-6.298131465509833,0.8901746524938474
0,-4.451678741696986,-12.273804409033119,-8.803277210193768,-12.855797968538939,0.8951756336876358
0,-2.05966646217481,-13.372894172888984,-10.671849778123075,-7.063465283522789,0.900176614881417
0,-7.1076540646794015,-14.781984765091872,-12.7404223038407,-3.1911334158272235,0.9051775960752053
0,2.4543584491553263,-7.921076189778628,-2.55899478971115,-0.5388023701286607,0.9101785772689936
0,-4.6136289219982185,-10.9601684498865,-6.737567237216504,-3.276472150703588,0.9151795584627749
0,3.828383820716666,3.5407384526235544,4.573860352765906,8.685857238339358,0.9201805396565632
0,6.560396676175745,9.241644516331313,6.025287979597212,10.278185792769733,0.9251815208503515
0,0.6124096430488277,5.872549739741734,4.396715642477589,11.220513507803778,0.9301825020441328
0,3.414422719666044,2.8434541208421114,4.24814334018291,14.632840377728552,0.9351834832379211
0,0.8664359040627787,-5.575642342876629,-5.6304289289137115,3.7651663957385386,0.9401844644317023
0,-5.671550805891857,-13.284739654010082,-7.369001166557998,0.28749155406497384,0.9451854456254907
0,-9.409537412251671,-17.41383781462562,-13.77757337415572,-8.3601841555793,0.950186426819279
0,-16.657523916574117,-24.022936825616288,-20.79614555227023,-13.917860741384738,0.9551874080130602
0,-10.595510319470526,-15.402036686203232,-9.724717700182453,-7.235538210882827,0.9601883892068486
0,-4.473496620394449,-16.111137393751502,-9.473289815738056,-12.153216570645432,0.9651893704006369
0,0.17851718215793666,-10.440238943916954,-6.941861895565373,-7.730895826246342,0.9701903515944181
0,1.310531090202065,-11.629341330920552,-2.4704339353982205,-4.208575982341355,0.9751913327882065
0,6.662545105845867,-4.098444547807283,3.460994069611466,-0.5062570428577154,0.9801923139819877
0,-0.7654407689832122,-2.5175485867303067,-5.067577875424097,-0.8739390112898133,0.985193295175776
0,-5.363426532583774,-6.646653439244296,-7.95614976524583,-4.701621890912578,0.9901942763695644
0,-0.23141218326511803,0.7942409035157577,0.26527840571487904,0.38069431517952657,0.9951952575633456
0,-6.919397719114356,0.4551344507216303,-1.6332933565786278,0.9030096040737772,1.000196238757134
0,-4.237383137880389,3.546027211660638,3.008134954074829,8.815323972888514,1.0051972199509223
0,-2.335368436903647,-2.9430808044438246,-0.20043665609478917,3.04763741849412,1.0101982011447035
0,3.3766463868360197,-1.052189588435637,3.04099181905723,7.739949937294344,1.0151991823384918
0,7.8186613364600905,0.6787008688810707,1.2224203855386073,8.082261525122377,1.020200163532273
0,-2.729323585125273,7.38959057672917,1.6938490491917297,8.97457217715095,1.0252011447260614
0,2.1926916246868733,11.160479544102447,6.205277815663029,8.926881887776565,1.0302021259198497
0,5.384706968304926,11.101367779375229,8.316706690286527,13.64919065052348,1.035203107113631
0,4.906722447915829,4.76225529003067,8.678135677866226,12.151498457916583,1.0402040883074193
0,12.168738065278957,18.303142082602424,16.149564782430613,12.23380530133906,1.0452050695012076
0,21.130753821405104,12.03402816259268,21.500994006926977,19.726111170925034,1.0502060506949888
0,18.14276971608348,12.45491353428275,19.722423352807073,20.52841605537863,1.0552070318887772
0,18.244785747451985,11.905798200663911,19.71385281969061,21.210719941681244,1.0602080130825584
0,18.476801911840443,14.08668216349208,16.49528240527484,22.00302281485963,1.0652089942763467
0,9.068818203837072,9.757565423309359,12.26671210544867,10.045324657949,1.070209975470135
0,9.220834616522225,10.918447979473479,8.368141914549245,6.2776254522557515,1.0752109566639163
0,4.002851141836125,6.499329830264716,5.239571825708212,3.3699251778817554,1.0802119378577046
0,7.294867770906384,9.42021097302549,2.5810018312086154,-1.9677761857495404,1.085212919051493
0,-1.7231155057318714,-0.3989085956913403,-2.397568077184199,-6.805478659462653,1.0902139002452742
0,-3.981098697898245,-1.3180288798842847,-3.606137907897894,-5.47318226393078,1.0952148814390625
0,-5.349081815421198,-4.847149883744428,-1.8947076692667033,-8.9408870193642,1.1002158626328438
0,2.9329351321255825,8.12372838860626,5.146722630562621,0.5114070546196872,1.105216843826632
0,-6.27504786456154,-2.7653940669238337,-3.9318470164848875,-5.046300061077175,1.1102178250204204
0,0.39696918541158666,2.5954827454547535,0.08958338148992584,-3.0640083851786786,1.1152188062142017
0,-2.2810137268666746,2.9863588213827525,-0.6289861835815744,-0.47171793610544355,1.12021978740799
0,2.871003389850889,2.397234156336484,3.7724442802851605,-1.6694287320245058,1.1252207686017783
0,-8.406979473095337,-2.8318912544039723,-3.786125234949555,-9.58714079088101,1.1302217497955596
0,-1.364962324204028,-1.971017415654115,-0.3846947373535712,-2.884854130277995,1.135222730989348
0,0.39705482830814365,-6.400144332115256,-2.23326423492144,-7.742568767308047,1.1402237121831291
0,5.379071976419322,3.6207279917714112,8.168166264439968,0.3497152814724475,1.1452246933769175
0,12.471089111970798,13.281599551694507,10.239596752676587,6.541997999869832,1.1502256745707058
0,0.8631062262969625,4.712470343026313,-4.688972778728262,0.5942793717205951,1.155226655764487
0,3.4651233101002785,1.2133403604825324,-1.4375423387273585,-2.7134406193361444,1.1602276369582754
0,-0.7628596463629813,-0.26579040176662994,-2.6861119363504007,-3.3611619897589664,1.1652286181520637
0,-1.8808426530311686,-2.2949219497707185,-5.554681580422544,-10.148884755816866,1.170229599345845
0,-11.478825719788281,-9.754054289512064,-7.173251279429411,-7.296608933303274,1.1752305805396333
0,-8.736808856119247,-12.97318742657419,-12.921821041325604,-16.70433453726183,1.1802315617334145
0,-8.054792070777955,-9.042321365755061,-11.880390873265501,-16.262061581697925,1.1852325429272028
0,-1.9327753716999245,-9.891456110847429,-7.828960781385247,-16.819790079267094,1.1902335241209911
0,-5.920758766160731,-7.120591664653959,-9.737530770778964,-10.267520041108568,1.1952345053147724
0,-13.118742260891633,-13.039728029064186,-14.856100845560272,-12.115251476925355,1.2002354865085607
0,-3.2267258619733616,-2.9188652050761927,-2.7046710088442456,-8.972984395187126,1.205236467702349
0,7.025290425185933,-1.728003192896315,0.5367587371432436,-1.1907188033429936,1.2102374488961303
0,6.627306595438684,-0.6371419922176611,9.448188390625548,1.6515452918627507,1.2152384300899186
0,0.5093226433744997,-3.436281602483289,4.229617949706678,-4.446192115992135,1.2202394112836998
0,9.231338563122106,1.2945779770226404,4.681047412017739,-1.9439310331865567,1.2252403924774882
0,9.363354348304819,2.485436747121067,11.592476774617843,3.9383285341538175,1.2302413736712765
0,16.955369991825062,14.37629470852504,16.74390603384977,8.25058657992619,1.2352423548650577
0,18.33738548549048,11.607151861425292,17.6053351849782,11.5628430976873,1.240243336058846
0,6.839400819716992,-0.601991794859704,3.036764221898393,0.11509808032528207,1.2452443172526344
0,2.731415983598064,3.2188637381940906,-0.6618068626858324,1.1473515200722433,1.2502452984464156
0,2.263430965346316,-5.040281541284968,-0.8003780766917501,-1.4003965911959133,1.255246279640204
0,6.815445752700357,-2.059427635206899,1.1510505718200266,-0.3081462616820686,1.2602472608339852
0,11.557460332972171,2.3314254546635618,9.312479074729955,4.644102500412971,1.2652482420277735
0,0.29947469286900463,4.6222777266552235,6.70390742363279,3.5363496867916773,1.2702492232215619
0,3.3114888184687157,6.10312917894276,8.485335609545322,1.7385952889058451,1.275250204415343
0,4.493502695408018,1.2739798093315204,4.636763622769731,2.74083929790865,1.2802511856091314
0,-2.3844836909713716,-2.545170384738505,0.7781914529620138,-3.126918295272216,1.2852521668029198
0,-13.072470355434678,-9.82432140592887,-13.020380910579378,-14.124677499712167,1.290253147996701
0,1.4295426875182482,1.866526743351705,1.3710465215602012,-0.8824383240990714,1.2952541291904893
0,-6.548444576098302,1.2873740610542974,-9.237526260753082,-5.590200776490843,1.3002551103842706
0,-3.506432159808803,-4.301779454688808,-8.146099267116641,-8.247964864362594,1.3052560915780589
0,-5.634420076733835,-9.010933805618318,-8.254672506495837,-6.635730594637631,1.3102570727718472
0,-5.702408339543393,-5.800088993105609,-4.003245987116397,-2.9134979736168978,1.3152580539656284
0,-2.6703969604214386,0.5007549820422533,2.088180283436259,0.5787329929436874,1.3202590351594168
0,4.461614048853514,7.521598119417459,8.98960629786919,3.0609622995736796,1.3252600163532051
0,14.823624676573601,13.512440418524621,11.111032048673318,5.73318994078289,1.3302609975469863
0,9.38563491055108,12.08328187821422,7.762457527667779,-1.1045840891590486,1.3352619787407747
0,11.397644737664988,11.694122496291412,13.333882725762756,7.68764020370959,1.340262959934556
0,5.1096541437555345,8.894962269406241,10.395307632872784,6.069862813008402,1.3452639411283442
0,4.7316631137744,6.1958011931506025,7.336732237870038,3.2020837319003075,1.3502649223221326
0,-1.9963283679516768,1.7366392622718736,2.4581565286814264,1.6843029530593574,1.3552659035159138
0,0.18567968258549933,-0.7325235290348122,-0.10041950742702566,-2.0234795311823204,1.3602668847097021
0,-2.172312750671131,-7.591687186778529,-1.128995883512519,-2.0212637286063004,1.3652678659034905
0,-4.270305683685874,-3.7008517168142303,0.38242738729268977,-6.28904964689385,1.3702688470972717
0,-5.188299132201581,-6.9500171245798334,-3.686149708102418,-6.066837293423211,1.37526982829106
0,-2.6162931116102053,-4.779183414990457,2.735272817298427,1.6453733248562479,1.3802708094848413
0,-3.854287636909813,1.4316494075366737,-2.4933050494266418,3.3175822013221103,1.3852717906786296
0,0.28771727724097745,2.462481338900837,3.548116678825717,1.4997893293885312,1.390272771872418
0,-2.570278383571167,-8.136687624902711,-6.86046201083797,-2.808005297675084,1.3952737530661992
0,-6.038274633561645,-0.565857487772819,-2.989041131211824,4.604198313295967,1.4002747342599875
0,-9.316271486630917,-5.465028253332683,-5.137620694806747,-1.103599844593484,1.4052757154537758
0,-4.5442689561438385,-6.674199924828131,-3.936200713729346,2.0486002216670736,1.410276696647557
0,-0.11226705485112132,-1.4533725050704902,2.995218800293341,3.480798504962816,1.4152776778413454
0,4.569734204901635,0.5874540035409629,-1.4633621642427497,2.4229949980024905,1.4202786590351266
0,8.021734810779293,9.238279598785313,6.148056381174046,5.565189693232393,1.425279640228915
0,1.133734750108404,-8.610895721676163,-1.5605255750795242,-11.652617417151676,1.4302806214227033
0,-4.464265990187706,-6.540071960276004,-7.459108044751243,-14.690426340864235,1.4352816026164845
0,0.6577325766532284,-2.029249119188656,2.632308960493236,-1.3882370849780399,1.4402825838102729
0,0.26973043746258885,-1.8184272001361783,-2.796274570785779,-1.5360496557374181,1.4452835650040612
0,-1.4182724208477038,-3.297606204490104,-0.37485864986293405,-4.483864058840684,1.4502845461978424
0,-5.096276011299103,-4.0567861333615,-4.103443287895049,-5.11168029966731,1.4552855273916308
0,-9.044280346692977,-16.395966987485682,-13.192028495792867,-10.259498383201247,1.460286508585412
0,-3.752285439368821,-9.225148766902764,-5.560614283936433,-6.4773183138299455,1.4652874897792003
0,2.0397086988764483,-5.794331470675431,-4.949200661954991,-3.1551400952389814,1.4702884709729886
0,1.7617020565744697,-1.1835150969570993,-0.9977876388035918,-0.8629637305129978,1.4752894521667699
0,-5.786305377680206,-8.10269964328672,-9.356375222957743,-11.680789222310505,1.4802904333605582
0,-3.044313615223907,0.3281148932326051,-4.714963422446788,-0.6486165728526443,1.4852914145543465
0,-1.0623226671563544,1.7689285158389523,1.6964477552013766,-0.026445783877683635,1.4902923957481278
0,-11.87033254423815,-13.050258772000655,-13.752141697093018,-9.614276856752264,1.495293376941916
0,-6.338343256753633,-8.27944696647431,-8.170731785915077,-10.142109792458848,1.5002943581356973
0,4.32364518561857,-0.5686360631331965,2.4006774828238555,0.9500554086181154,1.5052953393294857
0,9.275632773565473,7.412173943049442,4.822086103748026,6.56221874663402,1.510296320523274
0,3.867619497592811,0.6729830572177592,-0.8165059284358362,-1.375619778134881,1.5152973017170552
0,-0.010394652292387063,3.1937912842735257,6.964901380771523,8.076539834370498,1.5202982829108436
0,-6.968409686434886,-0.8954013711553613,-4.153691974377328,-5.0813024160722104,1.525299264104632
0,-9.636425615100805,-3.4445949045765376,-3.42228599977149,1.7708534701262082,1.5303002452984131
0,-6.8344424480488986,6.0962106885000145,-1.3108807012214956,3.363007492488943,1.5353012264922015
0,-2.3524601943355328,-0.732984587451271,-3.5894760843006472,1.095159650460542,1.5403022076859827
0,-0.3804788624308916,3.1578192719089095,2.211927845647957,1.0173099433176576,1.545303188879771
0,0.40150153951332096,4.558622270714786,0.9333310834063874,2.4594583701636408,1.5503041700735594
0,3.2434810034286525,2.269424412841023,0.9447336237420323,2.9216049299410467,1.5553051512673406
0,-3.234540478804581,2.4202257018534477,0.5661354613302789,-2.2562503785868473,1.560306132461129
0,-1.2225629153451953,0.9710261410396357,1.3975365907527477,0.45589244322291245,1.5653071136549173
0,5.129413685683333,9.091825733437087,12.338937006433456,13.238033393917403,1.5703080948486985
0,-2.368610683848768,11.072624481686024,5.310336702392416,7.360172471697031,1.5753090760424868
0,-5.42663603211968,0.9034223877810419,-4.948264327937397,-8.217690325847208,1.580310057236268
0,-7.854662367158236,-0.3957805469344937,-6.126866091468597,0.0744449984804072,1.5853110384300564
0,-5.212689696544512,1.125015678527524,-4.475468594960908,-1.563421558075358,1.5903120196238447
0,8.679281972647402,6.525811065012881,8.045928155198478,3.0987100019010105,1.595313000817626
0,3.111252633529399,0.5866056131683067,1.9673241527567191,-4.249160324118219,1.6003139820114143
0,8.133222278944483,7.407399323317416,7.138719391221823,0.412967461363639,1.6053149632052026
0,9.595190901186236,7.468192195371148,7.110113863644633,5.835093355887963,1.6103159443989838
0,5.177158491858223,7.3589842286888185,6.701507562504127,5.527217356888871,1.6153169255927722
0,3.099125041851038,4.509775421966591,3.94290047964676,4.1193394614442544,1.6203179067865534
0,-9.118909458437493,-3.219434226685656,-5.175707393607652,-4.208540333789595,1.6253188879803417
0,-1.6269450186747931,-2.508644719453446,-4.794316066133653,-2.256422032360802,1.63031986917413
0,-12.784981648185175,-6.987856058455997,-12.352925546562044,-15.344305637649157,1.6353208503679113
0,-7.513019355672252,-7.347068245454611,-11.081535842878157,-18.382191152388824,1.6403218315616996
0,-10.071058149033883,-6.516281281656831,-11.830146962125797,-12.210078578151126,1.645322812755488
0,-10.779098035261262,-4.665495167628355,-6.4387589102871985,-3.6179679151295696,1.6503237939492692
0,-7.027139020411938,-11.874709903290272,-5.267371692377326,-0.5458591624383532,1.6553247751430575
0,-7.975181109638594,-10.713925487834912,-10.805985312627902,-3.5537523186163145,1.6603257563368388
0,-6.733224307277975,-12.47314191953108,-9.394599774527585,1.3783526180594854,1.665326737530627
0,-5.721268616940825,-6.28235919559601,-9.48321508071769,2.220455649429103,1.6703277187244154
0,-0.5193140416116903,-0.8415773123007846,-3.4618312329475027,0.7725567773131952,1.6753286999181967
0,-2.7073605838246517,-2.280796265283212,-0.75044823223819,-0.845343996573413,1.680329681111985
0,3.404591754130156,2.3999839501194704,6.640933920782696,8.396753329362506,1.6853306623057733
0,8.936542969972557,8.640763338600951,6.9523152254525,5.398848756475248,1.6903316434995546
0,-3.7615069388285067,-1.6284580953725745,2.7736956807189515,-0.029057714303169807,1.695332624693343
0,-9.309557975047838,-10.537680347591127,-3.5349247149264267,-8.736966082383127,1.7003336058871241
0,-2.9176101413172955,4.893096586216207,5.016454036750998,0.24512365285474397,1.7053345870809125
0,-4.88566343979067,-1.1061272894197653,-6.492168066076334,-1.7727885076787233,1.7103355682747008
0,-12.103717872072371,-6.665351969813113,-8.030791025143309,-3.850702562801519,1.715336549468482
0,-14.431773439078754,-8.744577450076966,-12.559414841776809,-11.568618511055607,1.7203375306622704
0,-11.119830140727617,-11.99380372479757,-12.458039516500476,-12.10653635044552,1.7253385118560587
0,-6.167887975777122,-10.583030787716401,-10.76666504877552,-6.444456078114162,1.73033949304984
0,0.9040530579913422,-10.352258631562956,-6.395291436952122,-6.472377690261183,1.7353404742436283
0,5.305992963324996,-1.7814872480712238,-2.2439186784380674,-0.5503011823246156,1.7403414554374095
0,-5.832068256936569,-8.080716628174024,-6.59254676997434,-2.2082265492477697,1.7453424366311978
0,0.16986940000771467,-0.01994676222564684,-3.5511757078170794,-0.12615378570345176,1.7503434178249861
0,-6.858194062924409,-9.369177640121183,-6.959805487758513,-6.654082886186442,1.7553443990187674
0,-3.1462586425257264,0.2715907486792821,-5.838436105081875,-1.302013844960792,1.7603453802125557
0,-10.294324335168016,-6.68764158485885,-7.75706755450094,-6.919946655956487,1.765346361406344
0,-5.882391136654912,-5.206874629356762,-6.555699830095461,-4.467881312697988,1.7703473426001253
0,-7.2704590421091755,-7.546108372968236,-11.114332925250588,-3.985817808250939,1.7753483237939136
0,-5.278528045958945,-9.325342803255444,-11.482966832546785,-6.943756135202457,1.7803493049876948
0,-5.456598141999307,-6.954577907067746,-5.871601543635741,-4.2816962856479694,1.7853502861814832
0,-3.044669323468619,-3.20381367050924,-4.610237049268834,-3.059638251181784,1.7903512673752715
0,-11.172741583090309,-8.383050079028369,-12.408873339447732,-7.387582022929146,1.7953522485690527
0,-2.9308149130219,2.9377128824560845,0.9224895965044415,7.224472408378563,1.800353229762841
0,3.831110695142815,2.968475229362419,6.123851769805053,7.926525052156684,1.8053542109566294
0,5.133035250082702,3.069236977133999,8.685213191766755,8.078575917513078,1.8103551921504106
0,12.364958760275725,11.17999814094274,9.966573873259275,11.260625012869058,1.815356173344199
0,5.916881233600735,8.250758735435632,9.737933824378349,4.912672345810447,1.8203571545379802
0,7.798802677144014,6.25151877451946,9.009293054314922,6.324717923108681,1.8253581357317685
0,6.050723097217016,8.472278271304917,11.320651571320052,6.2867617508392195,1.8303591169255569
0,5.662642499445125,8.413037238147682,9.742009382683047,3.4488038344844867,1.835360098119338
0,-0.5954391111273329,7.953795686638365,3.1733664947446605,-3.9391558209455564,1.8403610793131264
0,1.5564782701464022,10.804553627556308,6.144722913044258,2.292882789321948,1.8453620605069148
0,2.2983946477093005,2.9053110708530174,4.126078642524037,-2.185080329960534,1.850363041700696
0,5.710310025836366,3.126068025750635,0.057433687665117084,-3.183045173976276,1.8553640228944843
0,3.012224408526936,-0.3531754990201912,0.7487880526224521,-3.721011737761375,1.8603650040882656
0,0.8741377994273987,0.3975805050265332,2.6401417413771746,0.23101998389397105,1.8653659852820539
0,5.416050201867264,2.2983360462721825,3.701494757768629,-1.7769500035696528,1.8703669664758422
0,5.497961618870102,4.609091132989194,6.802847105391129,3.705078305411579,1.8753679476696234
0,7.849872053040864,5.319845773213906,7.5941987874218935,4.227104916366649,1.8803689288634118
0,10.951781506388286,7.10059997458305,13.775549806415297,4.189129834603046,1.8853699100572001
0,9.353689980143914,6.871353744198115,8.76690016407067,0.6811530650881878,1.8903708912509813
0,5.295597474654705,4.242107088550345,4.998249861113845,-1.7868253874947784,1.8953718724447697
0,-1.8424960105059613,-0.8371399864234425,-1.2004011025449264,-1.8148055185604457,1.900372853638551
0,-6.580590476169139,-7.216387475087633,-6.249052727408481,-12.2427873233817,1.9053738348323392
0,-0.29868592312042475,-4.205635371719723,1.8922949860294103,-4.720770796798963,1.9103748160261276
0,5.523217648079944,2.595116329747374,5.333642037423982,0.5612440669612402,1.9153757972199088
0,8.105120236870384,4.6858676356236275,7.44498842634545,1.373257274131435,1.9203767784136971
0,7.767021842290977,2.556618552140672,0.20633415197847632,-1.674731168909171,1.9253777596074855
0,-10.011077537176254,-4.762630914711595,-4.26232078688437,-3.9927212557521825,1.9303787408012667
0,-4.039177903294522,0.058119240948794226,-2.960976391550607,-2.9007129798486497,1.935379721995055
0,4.212720742372017,2.1788690250724674,3.540367336828616,0.8412936655921859,1.9403807031888363
0,11.914618398428718,7.57961844360897,14.35171039713903,7.463298687509917,1.9453816843826246
0,15.826515063099441,13.070367502191997,14.413052787798522,10.445302092662931,1.950382665576413
0,7.448410733664619,7.09111620576318,10.81439450621461,9.147303887223256,1.9553836467701942
0,4.86030540629891,7.011864558373603,3.0757355486162026,0.9193040765672362,1.9603846279639825
0,3.0721990763106835,3.8026125632570893,6.087075910285938,2.131302665401508,1.9653856091577708
0,9.76409173841849,9.773360222986724,9.058415585840507,7.133299658016843,1.970386590351552
0,-3.014016613154875,-3.8258924604316475,-4.360245430661266,-5.634704941590451,1.9753875715453404
0,4.58787401539848,2.0048545145961763,3.1310928544290997,2.2372888703809624,1.9803885527391216
0,1.1297636176209411,-1.6843988504953487,2.162430434572241,0.2892810976956851,1.98538953393291
0,3.7016521868516437,-1.8736525542589701,-1.4662326968787573,-2.338728255862972,1.9903905151266983
0,-0.6664602837914324,-0.3229065951639072,-3.9748965466386306,-2.056739186472867,1.9953914963204795
0,-7.664573801317656,-2.5821609715584954,-4.6935611213157715,-3.484751690175197,2.000392477514268
0,-7.142688372579164,-0.27141568165881996,-10.262226427173841,-6.132765762758956,2.005393458708056
0,-5.8208040039450335,-0.15067072355988437,-5.020892469918372,-1.790781399661724,2.0103944399018374
0,-1.3789207011828803,-1.7399260952676756,-3.7295592545969263,-3.688798595932905,2.0153954210956257
0,-4.067038469568239,-1.8091817947069262,-3.7682267856814198,4.233182653677799,2.020396402289407
0,-8.245157313992447,0.8415621803053546,-5.956895067194985,-6.024837645430418,2.0253973834831953
0,0.5567227610689425,0.002305832041210931,0.8044358972392175,0.6271405122315805,2.0303983646769836
0,2.178601751522133,-0.18695083720262398,-0.844233895685304,-1.38088286771549,2.035399345870765
0,-3.3495203465554444,0.8037921748609574,-0.16290444911439445,4.591092220452814,2.040400327064553
0,-3.7576435370226178,2.334534870486895,5.108424233826537,4.583065782394498,2.0454013082583415
0,0.4842321764142465,3.7052772518257613,4.129752149884013,6.7050378234758545,2.0504022894521228
0,-1.3038932097483622,-4.203980679140242,-0.5889207044698476,2.5470083486139496,2.055403270645911
0,7.007980301068271,11.076761079409197,12.382405666901803,18.91897736216424,2.0604042518396923
0,7.329852705287166,9.37750252901643,9.76373125966443,18.070944867627098,2.0654052330334807
0,11.891723998853182,9.308243670613965,16.575056068681512,21.33291086713926,2.070406214227269
0,10.623594176926645,6.568984504281184,8.676380087706434,14.294875361094135,2.0754071954210502
0,-5.764536766211513,-3.9202749706748654,0.2977033093603679,-3.40316165177651,2.0804081766148386
0,-1.4726688368539296,-6.079534755337862,-8.120974274473964,-1.1212001738020938,2.085409157808627
0,2.8591979586054874,1.501205149273678,1.2803473279541606,-1.179240207632956,2.090410139002408
0,-11.768936386095692,-6.138055257580419,-4.92833189137032,-12.987281755773342,2.0954111201961965
0,-6.377071876928489,-3.8273159763505515,-4.147011940167217,-9.30532482026397,2.1004121013899777
0,-5.285208519306467,-0.9365770071633202,-2.955692825839009,-6.453369402370368,2.105413082583766
0,-0.5333463180103614,-5.115838349811116,-1.5343745554440684,-4.681415502507896,2.1104140637775544
0,-1.7414852773758949,-2.2051000037838167,-0.19305713576230032,-3.4294631204161883,2.1154150449713356
0,2.810374598472501,3.765638031692526,-1.2317405734085378,-4.217512255340784,2.120416026165124
0,-7.3177666945039945,-6.243624242450973,-7.5804248748596335,-17.8455629060374,2.1254170073589123
0,-10.095909160161483,0.6671131748121031,-4.119110046322288,-10.583615070496935,2.1304179885526935
0,-6.884052801859622,-0.3121497153564609,-11.767796093523867,-8.501668745625038,2.135418969746482
0,-8.592197622207694,-7.39141291163733,-6.176483021525838,-5.709723927238391,2.140419950940263
0,-3.1203436230447505,-3.930676412474547,-4.34517083463534,-11.837780610266156,2.1454209321340514
0,-3.488490805569942,-2.9999402159239885,-2.833859536499578,-7.97583878882075,2.1504219133278397
0,5.733360829432617,-1.9192043196316184,-2.052549130303187,-3.6638984561739973,2.155422894521621
0,-7.854788718657114,-7.898468720898455,-7.961239618886274,-16.10195960479676,2.1604238757154093
0,-0.23293945037161595,-7.2377334166215865,-5.989931004687052,-3.800022226343938,2.1654248569091905
0,-4.25109136604353,-2.796998403151778,-6.398623289601796,-5.838086311617206,2.170425838102979
0,-3.519244465715412,-4.426263676276017,1.5426835250452897,0.43384814927512183,2.175426819296767
0,5.112601250832803,3.074470768634319,2.6639894383044505,3.895781166593739,2.1804278004905484
0,-11.31555421599986,-6.844795063551674,-7.074705550660426,-4.102287249320417,2.1854287816843367
0,-10.683710865549973,-6.014061167748925,-7.943401442560174,-4.870357088114627,2.190429762878125
0,-10.431868696519468,0.4166724614733367,-6.592098237688702,-1.8684283392537402,2.1954307440719063
0,-7.160027706678651,-8.702594170043017,-6.690795935691579,-6.876500991861137,2.2004317252656946
0,-9.28818789285603,-5.211861056040062,-9.639494535515832,-5.914575034644576,2.205432706459476
0,-3.0963492510546837,-8.911128189734038,-7.01819403537751,-5.602650455808162,2.210433687653264
0,-10.664511776560438,-6.42039556368561,-13.766894432683275,-9.130727242968145,2.2154346688470525
0,-14.752675463926616,-15.949663169696231,-13.355595723890652,-14.608805383039519,2.2204356500408338
0,-12.990840306746648,-15.838930998599704,-14.2942979043125,-18.93688486196009,2.225436631234622
0,-2.6090062974640498,-4.788199040021227,-7.673000968001793,-2.184965664403135,2.2304376124284104
0,2.9828265724213074,-0.897467282458271,0.6482950921032751,1.096952226107399,2.2354385936221917
0,7.684658311792109,-3.13673571370943,6.559590283718368,5.328868826619104,2.24043957481598
0,8.006488929328663,-4.656004321222742,1.6908846146389895,4.07078415415299,2.2454405560097612
0,4.328318433152091,1.2947269078246837,-2.927821907570457,3.452698225401693,2.2504415372035496
0,-5.399853169186274,-4.89454201349381,-5.466529275467972,-2.3353889432973283,2.255442518397338
0,-7.258025870359569,-7.123811071857383,-4.505237481423692,-6.003477335770208,2.260443499591119
0,-2.0061996628084904,-3.403080253575087,-1.3139465174305247,-8.541566935669088,2.2654444807849075
0,-2.0943745385420067,-0.7323495444974775,-5.6126563750985845,-11.139657726114773,2.270445461978696
0,4.387449510737444,1.6883810698602741,-2.501367045695785,-6.217749689446153,2.275446443172477
0,0.7292724933863113,5.029111604064278,3.149921479815989,2.764157192783094,2.2804474243662654
0,-9.27890558229716,-2.2001579274518326,-1.5687907893555377,-6.003937060460614,2.2854484055600466
0,5.712915292055364,6.190572489541447,7.742496155967872,5.8679675700178064,2.290449386753835
0,2.0347351249553776,2.341302869056044,7.083782324728743,8.329871103410099,2.2954503679476232
0,-3.4334460751014086,2.5220332248285104,7.945067725384769,8.501773558567569,2.3004513491414045
0,1.1683717002999172,7.00276357026818,6.556352365723183,12.203674953649962,2.305452330335193
0,3.2001884595679844,3.76349391840432,6.617636252820339,19.055575305855236,2.310453311528981
0,-4.5879957889102165,-4.035775718132413,-2.6410806068677335,4.227474631187246,2.3154542927227624
0,8.53381896318749,6.57495467302366,1.2402017927214868,7.889372944454044,2.3204552739165507
0,9.635632723999096,8.665685104038268,12.601483457439727,15.681270259483675,2.325456255110332
0,9.027445501153695,6.366415586662584,10.072764392748294,16.083166589117045,2.3304572363041203
0,12.12925730145555,11.437146131971057,13.914044603304351,20.145061944889864,2.3354582174979086
0,12.771068130718202,15.927876750179141,16.065324092646616,21.266956336700716,2.34045919869169
0,8.392877993672542,8.938607450434263,15.866602862994956,12.238849772632658,2.345460179885478
0,10.374686893964375,12.99933824068801,12.027880915123099,8.460742259053314,2.3504611610792665
0,10.406494834232719,7.4500691277459845,8.31915824840515,5.282633801005892,2.3554621422730477
0,7.508301816155688,8.09080011739364,6.870434861047829,4.734524402637999,2.360463123466836
0,13.290107840463833,10.49153121451237,12.551710750320773,0.7864140675043167,2.3654641046606173
0,18.18191290686343,15.172262423079532,10.172985912598918,3.2983027987672346,2.3704650858544056
0,13.013717013805834,7.862993746029696,7.564260343287121,1.3301905993246774,2.375466067048194
0,13.705520158309524,11.743725185175329,12.885534036808254,9.642077471814519,2.380467048241975
0,8.817322336005827,3.594456741300396,2.886806986653266,5.383963418473821,2.3854680294357635
0,5.159123541351726,-1.7448115856006206,3.6780791855043207,4.555848440976069,2.390469010629552
0,6.160923767906659,0.9759202040378068,-1.3206493745042163,6.40773254040487,2.395469991823333
0,1.2527230085847156,0.6666521096584227,-0.5593787014849697,3.079615717313203,2.4004709730171214
0,8.764521255812962,6.217384130634618,8.721891196351235,13.161497971720621,2.4054719542109027
0,9.416318501519642,10.45811626608737,14.493160310522745,19.12337930291399,2.410472935404691
0,12.018114736942428,7.488848514587899,13.914428631813239,15.765259709023704,2.4154739165984793
0,7.3199099524172375,8.119580873938201,8.015696149880796,7.347139186713036,2.4204748977922605
0,7.531704137333298,12.270313341101849,10.99696285320679,7.149017731301753,2.425475878986049
0,7.473497280234328,10.821045912135054,11.42822872921548,8.360895337116384,2.430476860179837
0,8.365289368904552,5.661778582104386,7.709493764323675,4.522771997714834,2.4354778413736184
0,-2.872919609559587,-3.6874886547823102,-4.999242055942386,-0.7353522939737137,2.440478822567407
0,0.22887033147410435,0.7632441952226048,-3.207978746542342,0.1765224545838599,2.445479803761188
0,-8.10934082146293,3.563977125757806,-0.46671632243005856,-1.1716037642103232,2.4504807849549763
0,2.0824469183564176,6.244710130364258,6.214545201606532,7.160269042014271,2.4554817661487647
0,0.014233537916146677,1.565443202295212,-1.544194189236487,-0.6378591344986774,2.460482747342546
0,-6.96398097563708,-2.1938236655404535,-7.382934509877307,-4.065988301699906,2.4654837285363342
0,2.2178033649972755,2.946909519570665,2.8783242248367995,2.3658815324006532,2.4704847097301226
0,-6.920413452650838,-4.672357249697368,-5.4304179997097055,-9.57224964008565,2.475485690923904
0,-0.608631440790395,-5.961623980584097,-4.079161197890732,-1.9303818267863786,2.480486672117692
0,2.523149388609702,-1.8608906800604004,-1.6079053837976585,-0.4285150349621657,2.4854876533114734
0,5.29492902366475,-3.950157354714076,-0.9966505712140004,-2.0866492715618565,2.4904886345052617
0,-0.06329254767414627,-3.449424010774028,-1.2653967736988376,-0.27478454336070285,2.49548961569905
0,9.438484662237135,3.181309345821108,3.0158559953006487,9.357079142914708,2.5004905968928313
0,10.120260640609676,4.522042709261417,5.787107722309333,11.308941780303748,2.5054915780866196
0,2.372035374017514,1.3327760736104337,-0.35164160636024355,1.0208033612417418,2.510492559280408
0,0.9538088483721445,3.223509432658108,5.779607995300707,2.2026638774872533,2.515493540474189
0,1.865581049160666,-1.3057572200544407,-4.839143486956226,-1.8554766796135547,2.5204945216679775
0,-7.442648038285436,-6.06502389109503,-7.52789606745414,-3.503618318822353,2.5254955028617587
0,-13.000878428478767,-4.4942905868953815,-10.276649760231544,-5.801761048772044,2.530496484055547
0,-9.499110135338018,-5.703557313509215,-9.525404578662025,-4.78990487776532,2.5354974652493354
0,-8.42734317185413,-14.922824076440936,-13.984160535213022,-11.79804981360824,2.5404984464431166
0,-14.52557755001454,-15.192090880384049,-17.49291764126092,-15.466195863387394,2.545499427636905
0,-22.183813280700967,-20.841357728824207,-26.76167590678833,-24.174343033082245,2.5505004088306933
0,-2.7320503734439643,-13.280624623705052,-14.120435340002128,-8.332491327152578,2.5555013900244745
0,-7.630288836445408,-10.609891565360797,-10.93919594721046,-10.870640748456427,2.560502371218263
0,1.1014713229995736,-5.269158552749509,-4.797957733151712,1.401208701390916,2.565503352412044
0,-0.4467699019469691,-0.3484255838610818,-2.6567207015244283,2.253057021473832,2.5705043336058324
0,-4.575012517923058,-9.947692656084659,-11.635484855364702,-2.5750957888981274,2.5755053147996207
0,-3.9932565313941053,-3.0369597663433296,-6.794250197103348,3.3867502695760927,2.580506295993402
0,-11.3715019484881,-11.046226911014408,-13.453016728404595,-2.141404803840724,2.5855072771871903
0,-22.71974877465832,-14.785494085761401,-20.321784449933244,-11.219561009840914,2.5905082583809786
0,-16.93799701416029,-11.874761285277335,-13.120553361052607,-9.777718348771824,2.59550923957476
0,-15.566246669611655,-17.02402850303448,-14.059323459608988,-12.185876820227408,2.600510220768548
0,-8.284497741959441,-7.55329573118384,-5.378094742017286,-0.46403642285871566,2.6055112019623294
0,6.887249769129076,8.527437039256558,10.003132796333784,9.05780284539106,2.6105121831561178
0,0.6189958645994428,8.048169817775172,9.134359160376015,9.499640986673437,2.615513164349906
0,6.270740545389367,12.368902613564952,12.005584354595827,14.101478002577643,2.6205141455436873
0,14.70248381205391,14.779635434972208,13.386808382561792,18.82331389366921,2.6255151267374757
0,15.384225664410804,15.310368289190219,16.148031246695947,18.29514865914384,2.630516107931264
0,18.705966101095633,12.951101182070705,16.01925294809303,20.736982296535544,2.6355170891250452
0,12.067705119256598,10.841834118089325,11.060473486400843,12.208814801586232,2.6405180703188336
0,3.979442714576326,6.092567100484732,7.731692859891684,11.640646168352882,2.645519051512615
0,-1.6388211183393457,2.853300131525163,4.852911065726569,2.1524763895333,2.650520032706403
0,4.422913614575766,6.474033212804764,7.244128100255406,2.1143054569108046,2.6555210139001915
0,3.3546469071480884,0.8747663454358475,1.1153439592122294,-3.1338666381996756,2.6605219950939727
0,-1.4836212470134449,1.245499530158913,3.036558637854939,-1.5520399045979032,2.665522976287761
0,7.458109145469963,8.19623276742716,9.997772131060982,2.589785648987527,2.6705239574815494
0,5.479838077707775,6.826966057346429,6.448984433241968,-5.598389986079539,2.6755249386753306
0,-2.0284344575684097,-2.3423006004643145,-4.299804461767142,-11.566566818267852,2.680525919869119
0,2.123291532036663,0.3384327932120034,-1.7885945605132456,-3.2247448555926193,2.6855269010629
0,-2.4549839612221676,-0.7108337625418358,2.1026141304268346,-4.2129241054222115,2.6905278822566885
0,-5.443260945060416,-1.690100268612405,-4.776178395415299,-1.8511045745780446,2.695528863450477
0,-2.23153942699633,-3.169366725793829,-6.654972144358121,-5.479286269499747,2.700529844644258
0,-7.449819414202515,-2.498633134710737,-2.7137671224078934,-9.727469196244943,2.7055308258380464
0,-4.378100913414923,5.432100504201102,-1.6625633351469997,-0.6756533603585613,2.7105318070318347
0,-13.936383930817877,-8.61716580939513,-14.601360787738997,-13.01383876679045,2.715532788225616
0,-7.79466847185444,-6.176432075707097,-13.280159484743868,-9.752025419819113,2.7205337694194043
0,-9.082954541061657,-6.495698294554543,-10.288959429744494,-9.110213322878487,2.7255347506131855
0,-1.9712421420917265,-6.984964465154585,-9.57776062516439,-12.558402478427904,2.730535731806974
0,-7.529531277897671,-8.634230586060966,-8.046563072356502,-17.046592887866968,2.735536713000762
0,-6.6378219508674,-6.943496655124528,-6.7153667717562255,-10.014784551379442,2.7405376941945434
0,-6.616114162808442,-2.232762669487865,-3.2341717230252622,3.1970225320595547,2.7455386753883317
0,-0.28440791492792483,4.387971374240093,2.427022074737945,6.48882836421447,2.75053965658212
0,-4.452703207950364,-3.441294520331939,-4.461785377266631,-2.8893670530592,2.7555406377759013
0,-6.821000042237144,-2.6805603495590544,-5.810594077662927,1.7024362818994032,2.7605416189696896
0,9.74070158216633,1.390173890293101,6.530595975148693,9.384238370581302,2.765542600163471
0,2.722401665319959,3.480908203058842,4.771784782887593,4.536039214189248,2.770543581357259
0,5.534100207021453,2.4916425925078167,0.7929723470812783,1.347838813441549,2.7755445625510475
0,-0.20420279336040137,-0.8776229377901364,-0.6358413310555309,-6.340362831342441,2.7805455437448288
0,-2.242507336765708,-0.9868883844221843,-2.044656250466087,-4.248565719880747,2.785546524938617
0,-4.200813424198164,-8.576153743949138,-7.053472410025023,-5.686769851581127,2.7905475061324054
0,7.070878943450391,2.144580987306697,1.3977101916414902,5.71502477455336,2.7955484873261867
0,0.822569765320806,3.8953158132890824,7.8188915561358385,9.896818159669754,2.800549468519975
0,5.564259040357628,7.256050737939662,10.190071684942989,13.988610304545082,2.8055504497137562
0,15.285946767100258,15.176785764788626,18.01125057891137,23.46040120900628,2.8105514309075446
0,22.737632943310683,10.51752089655946,17.4724282377749,18.982190871406697,2.815552412101333
0,23.459317565355807,21.478256134834048,21.823604659754515,24.703979288229224,2.820553393295114
0,11.991000627720831,10.508991479809438,16.784779841299382,17.96576645389581,2.8255543744889025
0,11.142682123028202,9.649726930234445,13.845953777032303,15.64755236078812,2.830555355682691
0,4.724362042452379,3.330462483632191,7.89712645994059,12.359336999458977,2.835556336876472
0,6.026040376174067,-2.9488018632767425,0.7482978817671734,9.061120358944208,2.8405573180702604
0,3.9177171136865665,1.491933885870222,2.1494680334956353,4.302902427091867,2.8455582992640416
0,1.969392243972921,2.782669727350347,3.0706369057348075,7.314683190872674,2.85055928045783
0,-4.308934244325319,-4.726594342600921,-4.268195511100052,-4.27353736334704,2.8555602616516182
0,-5.137262362632342,-9.275858327696852,-16.107029226560897,-6.98175924948234,2.8605612428453995
0,-13.45559212208128,-21.215122231199857,-19.05586424962359,-18.21998248121475,2.865562224039188
0,-9.853923533136921,-13.094386055338546,-10.32470058806321,-13.61820707138535,2.870563205232976
0,3.307743394599517,2.0263501989941464,-0.1635382482879929,-1.3364330316331234,2.8755641864267574
0,-0.9105913478302923,-0.3129134680905029,2.707622764220571,-2.3446603725668487,2.8805651676205457
0,12.351072230764279,12.887822943821803,12.008782444215221,8.737110895699539,2.885566148814327
0,5.832734121249645,5.02855943484291,9.859940786064053,6.168880763003182,2.8905671300081153
0,-9.66560568604004,-6.860703995471561,-11.048902216540904,-5.7993507811873,2.8955681112019036
0,-13.46394720096116,-6.639967347854179,-12.887746570230009,-9.977583747625669,2.900569092395685
0,-12.302290432832582,-6.089230622789344,-14.466592281140239,-12.305818146739139,2.905570073589473
0,-15.240635389887274,-6.018493820196803,-15.275439354284051,-7.1140539881437395,2.9105710547832615
0,-12.338982079078033,-4.037756939399917,-9.844287793332331,-10.5822912804898,2.9155720359770427
0,-15.557330506022234,-8.207019979164947,-12.44313760065223,-14.270530031462942,2.920573017170831
0,-11.575680674992434,-3.746282937704367,-10.03198877742633,-13.458770247685447,2.9255739983646123
0,-13.734032588933358,-3.2955458126846526,-12.370841323730675,-15.067011934536477,2.9305749795584006
0,-5.162386249547716,4.345191398642845,-0.7096952386063411,-5.095255096094359,2.935575960752189
0,-8.380741657482458,-1.9340713008055461,-7.508550520259493,-1.8534997353371918,2.94057694194597
0,-11.519098812517068,-5.313333908089905,-11.697407166253805,-2.3217458545483907,2.9455779231397585
0,-7.587457713588978,-5.152596420124436,-8.10626517345214,1.0200065443218518,2.950578904333547
0,-9.975818358733783,-10.281858833421039,-10.225124537842895,-9.248242540483803,2.955579885527328
0,-9.284180745078876,-12.241121143836502,-14.993985254447901,-10.37649311040363,2.9605808667211164
0,-9.102544868850918,-7.580383346350753,-5.74284731724667,-4.184745166270797,2.9655818479148977
0,-4.880910725396927,-5.54964543499598,-3.231710719212392,-5.232998708186549,2.970582829108686
0,6.11072169063732,3.551092596946763,3.8194245473732895,3.288746264317127,2.9755838103024743
0,3.082352384894852,-1.3281692434203485,6.340558490446964,3.1004897519650463,2.9805847914962555
0,3.943981362870363,4.122569051063776,7.851691117716774,3.71223175541776,2.985585772690044
0,11.085608629664147,6.763307487414621,5.832822436359828,2.5139722750674602,2.990586753883832
0,4.027234189824585,5.77404607230772,5.303952452913492,5.5957113109802,2.9955877350776134
0,-7.4011419526722975,-3.5352151880396505,-6.654918826615446,5.6674488628510495,3.000588716271402
0,-8.879519794056828,-9.944476287664424,-9.773791396382947,1.699184929937454,3.005589697465183
0,-1.6578993302288683,-4.863737220384264,-7.24266525018418,5.320919511065187,3.0105906786589713
0,-4.086280556542276,-3.482997979463191,-1.2815403811430606,7.102652604652392,3.0155916598527597
0,-1.4246634679213406,-2.0122585576267786,2.409583218175592,6.70438420863355,3.020592641046541
0,1.2369519409801941,2.2884810527409414,3.9007055554073826,6.016114320344319,3.0255936222403292
0,-5.91143432432267,-3.2207791405924917,2.061826638068459,3.2178429365026577,3.0305946034341176
0,10.330177741779453,9.239960870149364,10.092946473368478,12.779570053245953,3.035595584627899
0,17.361788144733453,10.140701092530362,17.64406506798024,21.7812956659614,3.040596565821687
0,13.453396889240404,8.421441533543026,12.975182427624883,11.903019768851786,3.0455975470154684
0,16.905003978721542,15.17218219930664,22.80629855666494,17.17474235459991,3.0505985282092567
0,10.96660941514186,15.972923094863054,18.527413457831187,17.34646341432069,3.055599509403045
0,5.158213199118017,6.193664224006097,8.958527132090973,9.06818293760166,3.0606004905968263
0,5.149815330214177,2.4044055893603495,5.699639578847943,8.019900912636798,3.0656014717906146
0,4.331415807285401,-3.0848528071973473,2.4907507964351185,3.591617326544417,3.070602452984403
0,-1.6269853712898965,-5.9441109640145395,-4.0981392173904965,-9.216667834207861,3.075603434178184
0,11.924611792519494,2.8166311207051398,7.532969534899053,2.895045416672777,3.0806044153719725
0,1.3062072963683529,-0.862626551027582,-1.0559229492917177,-7.463242934345719,3.0856053965657537
0,5.417801137424172,7.3781160228347105,2.7251833272599546,-2.9415329004988044,3.090606377759542
0,9.509393312336751,11.888858844086364,10.06628836152975,9.620175505249204,3.0956073589533304
0,8.2309838171721,5.719601913932134,8.847392150075049,2.601882269955738,3.1006083401471116
0,2.6525726472918265,15.290345232735156,11.488494688739696,3.313587380360391,3.1056093213409
0,0.5641597974250352,11.64108879987242,3.459595972481841,3.1252908227909466,3.1106103025346883
0,-0.25425473806756416,13.851832613582626,9.52069599542063,6.9969925832144,3.1156112837284695
0,11.597329034975978,18.4225766708227,10.341794750920911,6.248692647178286,3.120612264922258
0,16.108911110315766,18.14332096710778,16.89289223149105,12.530390999649855,3.125613246116039
0,10.590491480834402,17.244065496325323,13.803988428512879,8.732087624819508,3.1306142273098274
0,6.302070138249173,8.354810250696074,8.205083332055533,3.143782505995108,3.1356152085036157
0,2.71364707325764,5.995555221016714,2.8761769309915177,-0.8745243742504087,3.140616189697397
0,-0.7847777240904207,-4.9636996028670195,-0.5827307866107219,-3.7728330337028666,3.1456171708911853
0,-0.38320426404058106,-0.012954231516135173,3.2783601669217126,-3.871143490130529,3.1506181520849736
0,0.2583674430933815,4.057791324468482,4.729449779054706,3.260544238912625,3.155619133278755
0,1.4199373869996568,4.348537054445514,4.060538036990632,5.312230135999421,3.160620114472543
0,3.1815055573169433,9.799282947490388,6.921624927542824,3.803914183548386,3.1656210956663244
0,-6.346928056410723,-1.54997100780834,-8.19728956287825,-6.104403636327558,3.1706220768601128
0,-0.6253634646333815,-2.0092248233004626,-4.776205448013614,-6.312723341615884,3.175623058053901
0,-5.493800677606719,-7.398478510950583,-6.815122741340853,-6.671044950012224,3.1806240392476823
0,-13.742239705210645,-16.837732082388815,-16.564041455738195,-14.729368478604199,3.1856250204414707
0,-19.03068055662032,-16.536985548406307,-17.862961603156442,-15.597693943590244,3.190626001635259
0,-16.37912323980785,-22.816238918444807,-25.2818831941577,-27.13602135988607,3.1956269828290402
0,-14.907567761192915,-25.345492200177226,-24.570806237441868,-21.544350740645463,3.2006279640228286
0,-8.636014125634077,-7.62474539927412,-14.259730739563535,-14.892682096946745,3.20562894521661
0,-9.074462336664432,-9.253998519581565,-8.348656705057909,-13.961015437876785,3.210629926410398
0,-11.302912396749518,-7.233251563641908,-6.747584136942105,-14.499350770861614,3.2156309076041865
0,-1.8813643074354904,-7.132504533100188,-4.8265130372381755,-2.9576881019512804,3.2206318887979677
0,-12.729818069459409,-6.2517574288528825,-8.825443407259703,-8.126027436114612,3.225632869991756
0,-11.81827368277657,-10.161010251089797,-11.284375247645695,-6.8443687775347515,3.2306338511855444
0,7.193268853481713,2.749737000675882,3.2066914417010297,3.587287870207217,3.2356348323793256
0,4.834809540731581,1.2804843274231765,3.0277566614384703,3.088942503890105,3.240635813573114
0,0.3163483803736791,3.9012317302614536,2.038820412348357,7.490595120256887,3.245636794766895
0,-4.312114626454295,-4.318020789820793,-1.75011730494548,-2.237754284276447,3.2506377759606835
0,-4.080579478656654,-7.307273231875765,-4.719056489915374,-1.3161057136030179,3.255638757154472
0,9.780953825021445,2.723474405260769,6.822002858034916,8.975540828242984,3.260639738348253
0,2.0924852858372938,4.834222123005521,1.2730607395306082,4.897185337035443,3.2656407195420414
0,-9.505985095177587,-8.525030077185905,-5.625882844923788,-5.451172191819783,3.2706417007358297
0,-1.0744573170429002,1.0357178061449377,1.475172105121559,5.240468236794426,3.275642681929611
0,-10.812931378450175,-4.2835342253654325,-4.463774409761046,-3.4478933820862308,3.2806436631233993
0,-4.921407277539043,-5.5627861698019645,-3.472722388793017,-6.99625705338808,3.2856446443171805
0,-4.289885011824355,-4.862038024901659,-7.621671830903516,-15.304622781742212,3.290645625510969
0,2.301635421719035,2.1587102120053565,-1.6506227345996942,-3.022990571081324,3.295646606704757
0,-4.936845973566899,0.2494585438737017,4.740424902013184,-6.231360424475613,3.3006475878985384
0,10.674670805764489,12.080206973651897,14.52147108089217,2.210267655668345,3.3056485690923267
0,18.666185762937474,10.730955503896862,14.682515803465702,14.741893667195377,3.310649550286115
0,3.537698900415898,3.6217041364217857,4.063559070143733,0.5735176076764651,3.3156505314798963
0,13.369210219585431,7.402452872218627,13.744600880234746,5.345139474082139,3.3206515126736846
0,2.570719720840064,-1.9567982883560158,-6.344358767843718,-6.883240737098705,3.325652493867466
0,2.852227403806973,1.0839506546716775,3.5466801237692507,2.838376970474121,3.330653475061254
0,6.783733267561321,4.544699701090483,5.1077175526888166,6.009992593152433,3.3356544562550425
0,5.675237310730054,5.8854488505057345,2.488753516332093,5.7716061271387025,3.3406554374488238
0,-0.6332604685276141,0.9661981021928996,-0.9002119881736909,-0.7667824317473326,3.345656418642612
0,0.4782399275714634,-4.443052544900938,-7.329178963871141,-9.435173087984834,3.3506573998364004
0,8.309738496590931,5.967696908036567,3.331852586296917,-3.2435658459521113,3.3556583810301817
0,0.2412352358538677,-4.351553540198085,-4.157117340395037,-4.361960709594333,3.36065936222397
0,-6.937269857591188,-2.9908038907997843,-2.5160887464927,-4.580357682369038,3.365660343417751
0,-7.035776786697614,-3.900054144826399,-8.625061634312475,-5.188756767295303,3.3706613246115396
0,-1.7442855540409883,3.2306956969187346,-0.5640360057852318,4.552842033000611,3.375662305805328
0,7.88720383822317,11.22144563372688,5.736988137538779,9.894438716048175,3.380663286999109
0,10.088691387961827,11.372195664541987,12.728010794139161,11.316033279054599,3.3856642681928975
0,10.400177092531827,6.982945787523891,6.179031962002703,3.2976257184917386,3.390665249386686
0,17.461660948379055,8.853695999899731,9.970051638305693,14.159216029982357,3.395666230580467
0,11.52314295078079,7.184446298037392,9.541069819351986,16.610804208247085,3.4006672117742553
0,5.234623093750069,5.265196677534746,9.252086500564321,11.982390246862229,3.4056681929680366
0,10.666101370196746,11.285947133272304,14.083101676426162,11.123974138074091,3.410669174161825
0,9.637577772134888,12.456697659358833,10.484115340383202,6.9655558728860765,3.4156701553556132
0,10.339052290693676,13.927448248930412,9.08512748477226,7.787135441285693,3.4206711365493945
0,12.770524916028956,13.058198893942839,17.446138100820324,11.898712832400147,3.425672117743183
0,14.151995637222203,7.418949585107875,11.647147178586245,10.440288034481874,3.430673098936971
0,1.7734644422221626,0.8597003120591966,1.8981547069106988,-0.14813896513769087,3.4356740801307524
0,11.584931317973085,9.31045106367918,8.789160673629741,9.343431820102259,3.4406750613245407
0,0.9063962506453964,2.011201828319802,1.7001650658948464,2.3550003761985447,3.445676042518322
0,0.6778592258292321,-2.1380474061092785,2.0811678703665852,-6.293433311272053,3.4506770237121103
0,0.9493202287674687,-9.4272966518944,-5.6078309266001645,-10.20186925683034,3.4556780049058986
0,-4.4492207554105185,-8.31654592106916,-10.646831338618666,-9.160307474576552,3.46067898609968
0,-5.087763741493085,3.3342047748991086,-7.375833378855703,-6.908747977834991,3.465679967293468
0,-7.836308743961366,-5.36504457495891,-7.604837059737858,-9.747190779080084,3.4706809484872565
0,-6.684855776777382,-1.0342939813373073,-3.673842392922341,-3.755635889989559,3.4756819296810377
0,-2.2634048532878506,-5.463543454706817,-2.7928493894374817,-6.24408332153081,3.480682910874826
0,-7.561955986273737,-5.822793005220907,-5.001858059848313,-11.662533084032146,3.4856838920686073
0,3.1194908119430518,-1.1320426426276307,-1.3708684143521863,-11.050985187090639,3.4906848732623956
0,-2.969064470645459,-6.2912923762565045,-3.5198804628191755,-14.969439639343797,3.495685854456184
0,2.402378154094552,4.7694577849033655,2.0511057851437866,-8.017896448288564,3.500686835649965
0,5.743818674282332,8.980207831984668,6.9620903200290245,-2.746355620323825,3.5056878168437535
0,10.835257077795525,6.290957755849178,9.013073132123933,2.28518283892939,3.510688798037542
0,1.3866933519906124,-4.5382924531728674,-1.0359457887797912,0.576718924177961,3.515689779231323
0,-4.451872516333587,-0.40754280511578733,0.23503354662147252,-5.901747369817674,3.5206907604251114
0,-1.0504405406125885,2.353206689939801,-2.743988872581364,-12.310216048137958,3.5256917416188926
0,-1.4090107341851725,-1.6360439780471951,-1.8830130572572266,-5.078687115345722,3.530692722812681
0,-3.6075831101953058,-3.4452948191052517,-1.1920390181218297,-4.3171605752629265,3.5356937040064693
0,-6.626157681554436,1.7854541568149866,-4.171066765701452,-2.4056364310716463,3.5406946852002505
0,-4.764734460811362,1.9962029398585386,-1.7200963103043312,-3.324114685517365,3.545695666394039
0,-7.263313460016704,-4.31304847982308,-8.719127661951541,-6.492595341002652,3.550696647587827
0,0.9281053093084287,-5.262300112036941,-3.9181608302555135,0.6289216004314424,3.5556976287816084
0,11.349521835972574,12.358448033561057,13.552804175569793,12.720436136983826,3.5606986099753968
0,12.460936108603953,15.989195947201766,12.853767346267603,13.671948266614551,3.565699591169178
0,11.942348115061511,15.569943618334756,14.18472867183593,17.603457986404614,3.5707005723629663
0,15.85375784208024,15.52069103508317,9.49568814109332,8.334965292142593,3.5757015535567547
0,4.845165275170097,10.341438184095578,4.356645741687055,4.5564701783314545,3.580702534750536
0,-2.1934296012092234,8.362185050674634,1.847601460375932,1.897972638536446,3.5857035159443242
0,2.84797319680245,5.762931619033513,4.3385552833717185,4.209472665774573,3.5907044971381126
0,-1.5306263471288588,-4.2863221273805285,-0.2504928034506606,1.9309702527162835,3.595705478331894
0,-11.239228249312468,-4.905576205463126,-6.939542814396134,-3.357534608221261,3.600706459525682
0,4.722167474188176,0.5351693679716272,0.6614052362854137,5.223958075244922,3.6057074407194634
0,-4.366439192349203,-0.2840854236531368,-3.5776486654152007,-4.014551704656398,3.6107084219132517
0,-0.5750482644258825,4.086659403193774,2.9832954667068745,0.7369360442769166,3.61570940310704
0,-1.2836597574081108,1.9774038319591627,-2.8457623810410038,-4.141578685706193,3.6207103843008213
0,-8.18227368648394,-10.451852154040498,-7.944822222260228,-10.800095902150725,3.6257113654946096
0,-8.530890066500792,-10.901108571337527,-12.463884070230202,-14.458615612093071,3.630712346688391
0,-7.95950891171773,-3.5803654358685186,-8.26294793753368,-11.137137821659232,3.635713327882179
0,-7.668130235633946,-2.9696227628238705,-6.402013835848819,-8.01566253583784,3.6407143090759675
0,-8.006754050964473,-7.138880566818434,-9.621081775984555,-7.904189758550762,3.6457152902697487
0,-8.115380369655385,-8.208138861981194,-12.350151767929729,-6.392719492835799,3.650716271463537
0,-6.314009202887762,-4.487397661858915,-6.419223820775585,-2.2812517410090263,3.6557172526573254
0,-8.332640561100455,-6.386656979358703,-5.298297942700406,-1.1397865048501987,3.6607182338511066
0,-3.9412744540285836,-0.7559168268200533,-1.8973741411481895,-0.6783237858190224,3.665719215044895
0,-2.3499108907896935,-1.8751772161602283,-2.4864524230763916,-3.0068635852046826,3.670720196238676
0,4.211450119916649,6.515561840920032,5.584467204821921,7.334594095797862,3.6757211774324645
0,-4.437191430452826,-2.103699667299993,-1.3446152641059872,1.2260492559423946,3.680722158626253
0,1.2141644495863302,1.1570382473152465,0.646300163384787,-0.55249810623586,3.685723139820034
0,3.0655177515449608,-2.7422244271803824,0.7872134804469935,-3.72104799236995,3.6907241210138224
0,1.8568684668851752,-1.8214877026861487,0.15812468018855347,-2.1196004040434744,3.6957251022076107
0,-4.261783413064115,-8.53075159091988,-2.8109662443060612,0.23184465735174825,3.700726083401392
0,-7.060437896977712,-6.490016103226157,-2.0000592999009137,-0.9067128094050745,3.7057270645951803
0,4.690905006705734,-0.9692812504127961,3.020845506664966,8.764727194500423,3.7107280457889615
0,0.02224528978306453,-0.5285470428048573,-1.9482518312693164,2.8661646676912405,3.71572902698275
0,8.623582944023884,0.2221865095293958,5.332648679606864,9.117599608366591,3.720730008176538
0,-4.635082039054895,-8.637080603348625,-1.7464529675069345,1.1390320141833026,3.7257309893703194
0,-6.223749668130156,-6.516348391116747,-3.5655567795109477,-3.4795381176639752,3.7307319705641078
0,-1.0624199517621284,-5.635616862946794,-2.954662763255968,-1.6181107901680858,3.735732951757896
0,4.988907101773589,-2.774886027409235,1.6662290746104162,5.42331399372964,3.7407339329516773
0,3.960231484272926,5.75584410737522,4.337118727577776,7.3447362310473805,3.7457349141454657
0,6.461553187278287,1.5365735334143804,1.3180061890553818,7.366155918441821,3.750735895339247
0,14.682872201825687,9.447302242512958,10.038891452178252,11.847573051928249,3.7557368765330352
0,0.9541885182247593,7.248030226021863,5.249774509641584,5.868987626716045,3.7607378577268236
0,1.9855021260315606,4.458757474670905,7.980655353538255,5.740399637180877,3.765738838920605
0,0.6168130143190935,5.889483978541393,5.501533975288747,3.1518090769901748,3.770739820114393
0,1.2781211719521857,4.410209727147296,9.112410365644994,8.5632159392591,3.7757408013081815
0,2.7794265876702466,0.0609347095269544,3.653284514685771,1.7646202165923761,3.7807417825019627
0,2.7307292500549085,1.9216589143741154,2.014156411874383,1.6960219011165596,3.785742763695751
0,4.46202914745845,5.7023823301552765,3.795026046212832,0.5674209846225056,3.7907437448895323
0,3.97332626792444,7.64310494505294,4.985893406362287,5.368817458695629,3.7957447260833206
0,5.56462059911965,7.203826746764395,3.7167584806299407,3.180211314699877,3.800745707277109
0,-1.3440878716873534,2.6745477223653498,0.367621256943639,3.4616025436798776,3.80574668847089
0,-9.232799157465754,-0.6147321416136478,-5.4215182770255455,-3.707008863631445,3.8107476696646785
0,2.118486728916011,6.805987141011339,1.7693398663806272,2.9243770833342815,3.815748650858467
0,-0.44023022512254406,4.936705556142321,0.110195674943806,-0.8142396248887851,3.820749632052248
0,-2.4089500319814907,10.98742308924415,3.2210491364870952,-3.5528589977630447,3.8257506132460364
0,0.1223272960184282,2.6781397251554027,-0.04809976125689491,-6.631481044642284,3.8307515944398176
0,2.033601746625862,-0.4611445519105637,-2.587251030671289,-0.8301057745824874,3.835752575633606
0,1.304873307590002,-4.630429758096644,-3.146404684133714,3.481266803693492,3.8407535568273943
0,2.6961419665484874,-2.9197159095302663,-2.1255607338561555,5.062636681560233,3.8457545380211755
0,0.9474077109700647,-2.459003022088999,-0.30471919181914964,6.304003850164623,3.850755519214964
0,-1.7413294718320738,-4.148291111342694,-9.40388006976752,0.20536830023344999,3.855756500408752
0,-1.1600695946029014,-8.367580192520437,-8.893043379082087,-1.4932699778762617,3.8607574816025334
0,-9.088812669980626,-5.916870280382258,-6.562209130522615,-5.871910993928538,3.8657584627963217
0,-10.267558710239845,-12.446161389046484,-7.341377334088932,-13.690554757448632,3.870759443990103
0,-12.12630772695993,-12.955453531804649,-13.410547999007115,-14.019201277294165,3.8757604251838913
0,-12.675059730745943,-16.464746720882484,-12.349721133618498,-18.44785056121611,3.8807614063776796
0,-3.8138147311212975,-10.584040967228203,-13.178896745175756,-14.986502615544689,3.885762387571461
0,-9.152572736640586,-12.823336280461316,-11.488074839717852,-11.205157445077884,3.890763368765249
0,-0.8513337551083571,-4.932632668993041,-6.277255422102126,-11.023815053191456,3.8957643499590375
0,-11.230097793735652,-8.031930140238638,-8.136438496167543,-7.1824754420624455,3.9007653311528188
0,-13.928864859098038,-10.981228700794267,-17.175624064861502,-13.94113861284159,3.905766312346607
0,-18.647634956832118,-21.060528356368955,-20.474812130067846,-20.1798045656186,3.9107672935403883
0,-14.396408091244831,-12.759829111454152,-15.914002692211831,-14.248473299152682,3.9157682747341767
0,-11.805184265131931,-14.089130969059488,-12.703195750037295,-9.507144810678389,3.920769255927965
0,-8.443963479885557,-13.378433930723801,-9.582391300736559,-9.535819096043943,3.925770237121746
0,-4.762745735767922,-7.677737996660296,-3.971589340268345,2.2755038499379676,3.9307712183155346
0,6.368468967719603,-3.677043165962925,0.16921013626138737,7.326824033020725,3.935772199509323
0,-0.4503193686250133,-5.206349436912526,-3.6299928657799034,1.5281414589778008,3.940773180703104
0,-0.5991107440552499,2.9343431927216432,2.6408016591959926,-0.20054386671849245,3.9457741618968925
0,-2.3979051579040234,-3.934965274550545,-5.028406283103697,-8.339231938788622,3.9507751430906737
0,-10.346702609389208,-7.914274836033353,-8.307616686806995,-11.527922751754176,3.955776124284462
0,-5.695503097337323,-9.03358548867921,-10.236829545637182,-10.316616299492642,3.9607771054782503
0,-2.6443066199798677,-2.3128972288394665,-3.4060448526360814,0.2646874249932447,3.9657780866720316
0,0.1668868249897859,3.527789947715944,0.4947373998400302,4.295988429376145,3.97077906786582
0,3.9680772401479603,5.558476045449993,7.575517219801518,2.667286721519823,3.9757800490596082
0,0.5192646280645979,-0.0008389313270165122,-2.8837053847808964,-2.7414176908606063,3.9807810302533895
0,-3.639551008813993,-1.2101549785725247,-7.032930406091539,-11.810124800114703,3.985782011447178
0,-3.9083696680458164,1.6205279076189103,3.01784216375548,-3.3188345982759526,3.990782992640959
0,-2.7671913469810576,2.471209731108764,-1.9513876671339885,1.1824529231779128,3.9957839738347474
0,-3.036016042654379,-3.0581095043131405,-4.77061989049863,-9.036262226778291,4.000784955028536
0,1.0151562481843146,3.4525702050745393,2.530145502063128,-4.14498003881611,4.005785936222317
0,2.416325528948229,3.0832488629316424,4.890908519066233,-5.883700503148013,4.010786917416105
0,5.897491803010014,8.583926472724183,5.461669168907269,5.477576390487306,4.015787898609894
0,7.248655073458584,10.634603037466114,13.07242745956072,7.328850652544665,4.020788879803675
0,16.26981534282897,9.685278559443981,12.75318339827016,14.130122293181623,4.025789860997463
0,9.340972612778394,4.365953040065373,10.193936991266305,13.021391321767691,4.030790842191244
0,-3.607873116048076,-4.813373520003939,-0.0453117562856275,0.5926577466248324,4.035791823385033
0,0.8832781562965808,-4.852701120411487,0.6254371600148438,4.7039215751652685,4.040792804578821
0,10.054426429480603,0.35797023932136585,6.516183744188466,5.825182814228662,4.045793785772602
0,0.8055717029223615,-4.111359440042154,2.626927999998118,-4.363558529727976,4.050794766966391
0,5.416713975620636,-3.260690157484462,1.9376699308770309,-5.192302450439413,4.055795748160179
0,4.27785324613555,-2.0800219117250824,0.9384095399483119,-0.6410489415220442,4.06079672935396
0,7.8289895125983175,2.9806452987661247,10.66914683007153,1.3802020036765295,4.0657977105477485
0,0.560122772651438,-1.4986885243637833,2.569881803734195,1.8614503919389724,4.07079869174153
0,-5.8787469764624705,-3.788023379446561,-10.00938553700236,-4.997303769969786,4.075799672935318
0,-11.82761973752332,-7.097359264683514,-7.918655190144488,-9.246060475203878,4.080800654129106
0,-8.516495512817745,-6.656696177906333,-10.357927153203788,-1.384819716555687,4.085801635322888
0,-9.185374303796591,-2.9060341164057877,-7.057201422880694,1.74641851365346,4.090802616516676
0,-2.43425611103784,-2.125373076950042,-2.6464779950544117,-0.45234577663064,4.095803597710464
0,-0.25314093444391256,-1.5447130559347961,0.8842431350132525,4.238887420548074,4.1008045789042455
0,3.8679712264299706,5.435945950438085,6.234961972331532,5.860118112991056,4.105805560098034
0,5.419080372026161,6.716603945918891,7.4256785217885355,-0.30865369179780705,4.110806541291815
0,9.470186502476748,3.527260933925199,7.156392787814893,-0.007427986620019977,4.115807522485603
0,3.6012896173714104,6.287916917381899,6.827104774195858,-0.536204764431294,4.120808503679392
0,-0.33761028428867745,7.1685718986917015,0.4978144840692049,-2.754984018185441,4.125809484873173
0,3.4134867960912842,13.209225879645869,11.098521920021899,2.826234259235664,4.130810466066961
0,-0.015419143110570604,5.199878861245721,6.5392270841041436,2.3874500749792382,4.13581144726075
0,1.8556718963347443,5.900530843634796,4.809929977718305,2.5386634360872034,4.140812428454531
0,5.36675991249742,15.68118182616229,13.700630601554138,8.56987434934855,4.145813409648319
0,-2.1321550967575886,16.501831807272247,9.321328955507637,4.751082821145355,4.1508143908421005
0,5.578926866211056,16.942480784155645,10.072025038530365,5.652288857321056,4.155815372035889
0,4.070005798820661,10.293128752507597,1.5627188486147787,2.363492463168836,4.160816353229677
0,8.22108169815347,14.583775706567787,9.853410382977199,5.67469364351536,4.165817334423458
0,15.572154560726268,17.01442163922784,14.744099638145391,13.885892402712505,4.170818315617247
0,10.273224382180214,6.595066542038414,5.564786609794202,13.367088744392829,4.175819296811035
0,9.784291157052927,13.575710405267673,13.355471292594244,11.668282671131898,4.180820278004816
