labels,F4,F3,Fz,Cz,timestamps
0,-1952.68,-495.14,-1253.84,-1585.78,-2.0000186859131155
0,-1952.89,-497.26,-1257.64,-1592.36,-1.9950186391983316
0,-1961.78,-507.48,-1261.65,-1598.59,-1.9900185924835476
0,-1968.98,-509.02,-1267.42,-1600.56,-1.9850185457687672
0,-1961.25,-509.47,-1260.46,-1591.19,-1.9800184990539833
0,-1958.19,-509.28,-1257.79,-1592.14,-1.9750184523391994
0,-1968.74,-515.07,-1264.82,-1593.29,-1.970018405624419
0,-1957.49,-499.42,-1258.78,-1590.32,-1.965018358909635
0,-1979.21,-513.2,-1269.27,-1601.15,-1.9600183121948511
0,-1981.97,-522.02,-1277.91,-1610.81,-1.9550182654800707
0,-1963.74,-515.2,-1274.54,-1611.77,-1.9500182187652868
0,-1980.23,-525.98,-1285.44,-1623.42,-1.9450181720505029
0,-1987.13,-524.58,-1283.78,-1620.32,-1.9400181253357225
0,-1976.61,-523.82,-1276.74,-1613.42,-1.9350180786209386
0,-1978.35,-528.12,-1280.26,-1620.75,-1.9300180319061546
0,-1961.13,-510.56,-1266.46,-1604.44,-1.9250179851913742
0,-1968.84,-512.39,-1270.08,-1612.96,-1.9200179384765903
0,-1967.14,-515.59,-1275.09,-1605.73,-1.9150178917618064
0,-1968.23,-514.89,-1272.64,-1600.1,-1.9100178450470224
0,-1977.57,-517.85,-1279.18,-1607.28,-1.905017798332242
0,-1964.49,-503.39,-1264.59,-1600.93,-1.9000177516174581
0,-1954.81,-494.6,-1259.93,-1597.26,-1.8950177049026742
0,-1962.55,-502.94,-1269.19,-1607.34,-1.8900176581878938
0,-1953.08,-497.05,-1259.98,-1607.08,-1.8850176114731099
0,-1945.05,-479.42,-1246.07,-1587.81,-1.880017564758326
0,-1934.56,-461.64,-1228.37,-1577.42,-1.8750175180435456
0,-1932.01,-467.97,-1235.53,-1584.05,-1.8700174713287616
0,-1931.34,-466.4,-1234.06,-1581.23,-1.8650174246139777
0,-1932.09,-464.84,-1231.97,-1582.62,-1.8600173778991973
0,-1921.98,-456.39,-1220.15,-1577.26,-1.8550173311844134
0,-1921.49,-459.07,-1223.69,-1577.3,-1.8500172844696294
0,-1931.93,-458.58,-1230.94,-1583.15,-1.845017237754849
0,-1930.78,-460.27,-1228.36,-1577.34,-1.8400171910400651
0,-1941.75,-466.69,-1241.27,-1590.08,-1.8350171443252812
0,-1935.74,-478.47,-1241.4,-1591.67,-1.8300170976105008
0,-1944.34,-491.64,-1246.42,-1600.58,-1.8250170508957169
0,-1946.12,-497.02,-1251.98,-1599.97,-1.820017004180933
0,-1943.23,-490.88,-1245.11,-1585.89,-1.8150169574661525
0,-1948.16,-499.11,-1252.41,-1584.64,-1.8100169107513686
0,-1946.33,-491.43,-1247.11,-1576.02,-1.8050168640365847
0,-1946.21,-488.37,-1241.23,-1574.05,-1.8000168173218043
0,-1951.2,-490.51,-1250.74,-1576.77,-1.7950167706070204
0,-1960.11,-506.57,-1252.8,-1581.51,-1.7900167238922364
0,-1957.68,-509.17,-1253.94,-1579.66,-1.785016677177456
0,-1961.26,-509.17,-1255.01,-1579.8,-1.7800166304626721
0,-1969.02,-508.19,-1261.92,-1591.89,-1.7750165837478882
0,-1964.11,-504.67,-1259.09,-1591.38,-1.7700165370331078
0,-1966.86,-507.86,-1264.9,-1594.75,-1.7650164903183239
0,-1966.39,-515.17,-1264.4,-1596.78,-1.76001644360354
0,-1963.68,-515.9,-1265.12,-1595.75,-1.7550163968887595
0,-1984.68,-528.68,-1278.24,-1605.37,-1.7500163501739756
0,-1977.85,-522.63,-1275.65,-1602.81,-1.7450163034591917
0,-1975.68,-520.96,-1273.11,-1599.09,-1.7400162567444077
0,-1977.97,-519.1,-1275.05,-1601.48,-1.7350162100296274
0,-1973.22,-515.86,-1273.5,-1593.67,-1.7300161633148434
0,-1968.24,-515.55,-1271.79,-1593.39,-1.7250161166000595
0,-1973.11,-519.25,-1276.52,-1595.01,-1.720016069885279
0,-1970.52,-514.33,-1273.23,-1598.01,-1.7150160231704952
0,-1987.64,-521.29,-1278.78,-1609.19,-1.7100159764557112
0,-1992.66,-528.63,-1284.74,-1622.0,-1.7050159297409309
0,-1986.64,-523.82,-1286.09,-1620.26,-1.700015883026147
0,-1998.57,-536.67,-1301.51,-1634.28,-1.695015836311363
0,-2001.07,-543.11,-1303.76,-1634.48,-1.6900157895965826
0,-1996.35,-544.67,-1301.31,-1637.06,-1.6850157428817987
0,-1993.1,-532.92,-1298.85,-1629.35,-1.6800156961670147
0,-1981.49,-519.38,-1280.08,-1611.31,-1.6750156494522344
0,-1964.97,-512.24,-1269.35,-1603.16,-1.6700156027374504
0,-1967.91,-513.59,-1268.98,-1596.42,-1.6650155560226665
0,-1978.64,-517.94,-1274.74,-1606.68,-1.660015509307886
0,-1985.05,-521.66,-1280.91,-1608.23,-1.6550154625931022
0,-1977.5,-513.25,-1273.71,-1601.84,-1.6500154158783182
0,-1966.89,-511.12,-1266.17,-1597.36,-1.6450153691635379
0,-1962.86,-514.08,-1264.91,-1601.9,-1.640015322448754
0,-1968.11,-512.33,-1270.37,-1604.82,-1.63501527573397
0,-1966.8,-505.09,-1264.41,-1598.08,-1.6300152290191896
0,-1961.05,-503.76,-1261.56,-1599.0,-1.6250151823044057
0,-1952.01,-505.42,-1256.1,-1591.42,-1.6200151355896217
0,-1952.91,-501.06,-1255.48,-1592.59,-1.6150150888748414
0,-1957.5,-500.57,-1254.91,-1593.06,-1.6100150421600574
0,-1953.03,-493.63,-1248.74,-1585.48,-1.6050149954452735
0,-1961.1,-504.16,-1259.85,-1599.07,-1.600014948730493
0,-1964.08,-503.68,-1261.53,-1602.48,-1.5950149020157092
0,-1970.84,-521.25,-1272.76,-1605.81,-1.5900148553009252
0,-1986.95,-531.86,-1287.07,-1620.17,-1.5850148085861413
0,-1983.13,-533.08,-1286.54,-1624.55,-1.580014761871361
0,-1978.16,-525.74,-1284.64,-1616.56,-1.575014715156577
0,-1970.31,-517.47,-1272.6,-1605.58,-1.570014668441793
0,-1957.75,-503.37,-1258.48,-1592.72,-1.5650146217270127
0,-1952.65,-496.67,-1253.98,-1584.3,-1.5600145750122287
0,-1956.06,-503.31,-1252.82,-1589.27,-1.5550145282974448
0,-1957.41,-502.15,-1254.44,-1587.39,-1.5500144815826644
0,-1951.09,-491.23,-1251.81,-1585.62,-1.5450144348678805
0,-1955.67,-496.33,-1252.4,-1589.57,-1.5400143881530965
0,-1955.84,-498.22,-1256.76,-1595.53,-1.5350143414383162
0,-1953.29,-499.71,-1255.43,-1588.11,-1.5300142947235322
0,-1965.39,-502.61,-1262.01,-1594.66,-1.5250142480087483
0,-1963.81,-509.25,-1270.53,-1599.53,-1.520014201293968
0,-1967.79,-500.32,-1266.65,-1594.31,-1.515014154579184
0,-1966.5,-498.92,-1260.93,-1585.78,-1.5100141078644
0,-1960.79,-501.74,-1254.64,-1583.08,-1.5050140611496197
0,-1956.11,-495.42,-1250.07,-1582.87,-1.5000140144348357
0,-1956.75,-500.91,-1256.98,-1585.82,-1.4950139677200518
0,-1963.49,-504.03,-1261.8,-1596.8,-1.4900139210052714
0,-1975.32,-512.99,-1270.4,-1605.7,-1.4850138742904875
0,-1978.94,-516.11,-1278.46,-1613.81,-1.4800138275757035
0,-1983.17,-525.65,-1284.46,-1616.46,-1.4750137808609232
0,-1969.09,-515.52,-1277.07,-1613.39,-1.4700137341461392
0,-1968.94,-513.86,-1270.85,-1609.07,-1.4650136874313553
0,-1966.7,-521.45,-1276.8,-1611.51,-1.460013640716575
0,-1957.37,-509.43,-1263.17,-1595.1,-1.455013594001791
0,-1956.67,-507.12,-1258.51,-1588.99,-1.450013547287007
0,-1958.16,-505.64,-1258.29,-1586.09,-1.4450135005722267
0,-1972.21,-515.75,-1271.04,-1593.61,-1.4400134538574427
0,-1964.04,-509.75,-1265.87,-1584.0,-1.4350134071426588
0,-1962.67,-504.83,-1268.71,-1584.06,-1.4300133604278749
0,-1968.96,-513.67,-1272.03,-1594.47,-1.4250133137130945
0,-1979.05,-518.99,-1279.14,-1612.87,-1.4200132669983105
0,-1975.17,-515.85,-1277.77,-1616.78,-1.4150132202835266
0,-1965.29,-517.56,-1270.74,-1611.42,-1.4100131735687462
0,-1959.35,-516.46,-1259.15,-1609.41,-1.4050131268539623
0,-1955.68,-505.3,-1255.0,-1601.22,-1.4000130801391784
0,-1952.12,-497.52,-1249.65,-1589.59,-1.395013033424398
0,-1942.8,-483.58,-1238.86,-1578.74,-1.390012986709614
0,-1947.19,-490.38,-1243.04,-1575.64,-1.38501293999483
0,-1963.64,-510.14,-1263.15,-1591.56,-1.3800128932800497
0,-1963.16,-511.89,-1266.15,-1591.86,-1.3750128465652658
0,-1973.69,-513.72,-1273.72,-1596.45,-1.3700127998504819
0,-1975.98,-517.44,-1274.35,-1607.65,-1.3650127531357015
0,-1976.33,-517.04,-1277.73,-1613.12,-1.3600127064209175
0,-1969.66,-513.87,-1271.67,-1621.51,-1.3550126597061336
0,-1966.31,-514.16,-1269.68,-1633.64,-1.3500126129913532
0,-1957.85,-505.59,-1263.23,-1617.52,-1.3450125662765693
0,-1957.84,-501.7,-1263.2,-1612.0,-1.3400125195617854
0,-1966.47,-503.55,-1266.48,-1609.85,-1.335012472847005
0,-1960.67,-494.09,-1252.65,-1592.4,-1.330012426132221
0,-1961.19,-497.45,-1258.6,-1588.91,-1.325012379417437
0,-1961.94,-498.76,-1255.24,-1582.77,-1.3200123327026567
0,-1964.38,-499.64,-1258.73,-1574.55,-1.3150122859878728
0,-1965.35,-510.33,-1266.98,-1578.92,-1.3100122392730889
0,-1971.74,-513.98,-1270.92,-1582.66,-1.3050121925583085
0,-1967.02,-512.95,-1271.73,-1583.31,-1.3000121458435245
0,-1976.22,-517.28,-1279.12,-1597.07,-1.2950120991287406
0,-1952.04,-503.46,-1257.45,-1589.33,-1.2900120524139602
0,-1959.03,-498.8,-1258.66,-1593.06,-1.2850120056991763
0,-1956.58,-496.68,-1256.4,-1597.45,-1.2800119589843924
0,-1953.35,-492.22,-1250.93,-1591.32,-1.275011912269612
0,-1951.67,-496.12,-1249.34,-1594.0,-1.270011865554828
0,-1951.2,-502.12,-1260.11,-1599.17,-1.265011818840044
0,-1952.95,-501.15,-1255.06,-1601.6,-1.2600117721252602
0,-1959.57,-502.43,-1262.3,-1604.02,-1.2550117254104798
0,-1963.71,-503.04,-1264.0,-1602.11,-1.2500116786956958
0,-1958.93,-503.03,-1260.17,-1605.44,-1.245011631980912
0,-1951.92,-495.64,-1257.23,-1598.78,-1.2400115852661315
0,-1943.83,-484.71,-1245.75,-1589.14,-1.2350115385513476
0,-1935.72,-474.61,-1239.34,-1579.32,-1.2300114918365637
0,-1934.96,-472.24,-1237.37,-1568.94,-1.2250114451217833
0,-1936.56,-470.37,-1238.45,-1575.32,-1.2200113984069993
0,-1925.84,-468.42,-1226.5,-1563.57,-1.2150113516922154
0,-1935.9,-474.24,-1231.06,-1568.37,-1.210011304977435
0,-1936.93,-467.43,-1230.19,-1566.07,-1.205011258262651
0,-1935.36,-474.31,-1233.8,-1571.33,-1.2000112115478672
0,-1941.49,-491.49,-1240.97,-1580.03,-1.1950111648330868
0,-1945.93,-504.75,-1251.42,-1590.38,-1.1900111181183028
0,-1963.59,-508.52,-1262.89,-1599.54,-1.185011071403519
0,-1963.6,-514.62,-1267.49,-1608.15,-1.1800110246887385
0,-1965.96,-513.78,-1267.45,-1608.45,-1.1750109779739546
0,-1983.96,-518.83,-1281.02,-1616.8,-1.1700109312591707
0,-1974.11,-510.47,-1275.71,-1609.97,-1.1650108845443903
0,-1958.61,-499.96,-1255.78,-1593.41,-1.1600108378296063
0,-1963.65,-507.03,-1260.39,-1603.08,-1.1550107911148224
0,-1962.78,-508.1,-1262.98,-1597.14,-1.150010744400042
0,-1959.27,-510.86,-1269.1,-1600.29,-1.145010697685258
0,-1963.32,-514.42,-1266.69,-1595.82,-1.1400106509704742
0,-1976.83,-519.25,-1273.97,-1595.07,-1.1350106042556938
0,-1984.52,-529.89,-1284.82,-1600.27,-1.1300105575409098
0,-1976.34,-524.46,-1279.18,-1590.43,-1.125010510826126
0,-1991.85,-531.13,-1290.51,-1608.1,-1.1200104641113455
0,-1991.95,-527.84,-1287.3,-1602.46,-1.1150104173965616
0,-1995.69,-531.63,-1289.83,-1605.85,-1.1100103706817777
0,-1992.64,-525.35,-1284.76,-1603.28,-1.1050103239669937
0,-1989.1,-530.2,-1286.62,-1612.59,-1.1000102772522133
0,-1985.68,-525.5,-1284.04,-1607.42,-1.0950102305374294
0,-1980.38,-517.29,-1276.79,-1605.33,-1.0900101838226455
0,-1982.1,-519.18,-1277.0,-1608.05,-1.085010137107865
0,-1968.58,-507.09,-1272.68,-1595.14,-1.0800100903930812
0,-1973.63,-505.54,-1267.82,-1592.08,-1.0750100436782972
0,-1970.44,-510.54,-1268.5,-1597.82,-1.0700099969635168
0,-1968.64,-504.77,-1266.58,-1594.57,-1.065009950248733
0,-1964.8,-505.6,-1262.62,-1593.6,-1.060009903533949
0,-1970.84,-515.21,-1274.28,-1608.44,-1.0550098568191686
0,-1961.18,-506.54,-1267.4,-1607.99,-1.0500098101043847
0,-1964.01,-516.55,-1271.93,-1615.82,-1.0450097633896007
0,-1967.55,-515.51,-1271.72,-1613.75,-1.0400097166748203
0,-1968.44,-515.36,-1268.3,-1613.61,-1.0350096699600364
0,-1975.13,-513.86,-1270.8,-1605.34,-1.0300096232452525
0,-1974.35,-517.82,-1267.88,-1605.57,-1.025009576530472
0,-1969.97,-517.0,-1267.36,-1597.4,-1.0200095298156882
0,-1957.53,-503.87,-1259.88,-1594.07,-1.0150094831009042
0,-1962.42,-509.98,-1259.84,-1592.72,-1.0100094363861238
0,-1966.92,-513.39,-1266.96,-1595.03,-1.00500938967134
0,-1967.06,-513.4,-1268.89,-1595.12,-1.000009342956556
0,-1969.45,-515.92,-1271.88,-1586.29,-0.9950092962417756
0,-1981.34,-522.96,-1277.11,-1596.39,-0.9900092495269917
0,-1975.34,-509.21,-1270.52,-1592.96,-0.9850092028122077
0,-1971.68,-509.61,-1268.58,-1600.87,-0.9800091560974273
0,-1974.94,-507.7,-1268.93,-1596.89,-0.9750091093826434
0,-1975.59,-507.83,-1270.33,-1603.3,-0.9700090626678595
0,-1964.85,-499.68,-1260.5,-1595.43,-0.9650090159530791
0,-1963.4,-502.17,-1256.51,-1594.56,-0.9600089692382952
0,-1961.26,-501.35,-1260.61,-1596.64,-0.9550089225235112
0,-1966.0,-510.31,-1264.02,-1609.62,-0.9500088758087308
0,-1961.08,-502.49,-1256.74,-1608.37,-0.9450088290939469
0,-1957.95,-506.03,-1260.73,-1609.14,-0.940008782379163
0,-1957.17,-504.02,-1256.54,-1606.72,-0.935008735664379
0,-1944.53,-485.89,-1243.83,-1603.43,-0.9300086889495986
0,-1943.99,-489.27,-1246.54,-1607.45,-0.9250086422348147
0,-1939.03,-481.73,-1238.01,-1594.09,-0.9200085955200308
0,-1922.93,-462.03,-1224.07,-1576.04,-0.9150085488052504
0,-1918.54,-452.56,-1219.83,-1568.45,-0.9100085020904665
0,-1909.52,-446.97,-1208.02,-1557.6,-0.9050084553756825
0,-1916.36,-446.83,-1214.89,-1562.12,-0.9000084086609021
0,-1920.87,-458.08,-1225.54,-1573.46,-0.8950083619461182
0,-1919.13,-455.65,-1221.97,-1573.11,-0.8900083152313343
0,-1918.44,-452.7,-1222.14,-1566.98,-0.8850082685165539
0,-1932.12,-479.23,-1237.56,-1581.41,-0.88000822180177
0,-1925.88,-487.94,-1239.4,-1583.56,-0.875008175086986
0,-1931.45,-478.85,-1235.26,-1581.13,-0.8700081283722056
0,-1933.17,-484.86,-1240.5,-1590.08,-0.8650080816574217
0,-1942.03,-489.66,-1245.24,-1587.16,-0.8600080349426378
0,-1941.92,-482.43,-1242.89,-1575.82,-0.8550079882278574
0,-1946.56,-491.71,-1246.8,-1583.21,-0.8500079415130735
0,-1947.07,-481.69,-1243.97,-1574.47,-0.8450078947982895
0,-1949.82,-489.54,-1247.04,-1584.9,-0.8400078480835091
0,-1959.56,-497.46,-1257.6,-1594.54,-0.8350078013687252
0,-1969.87,-517.47,-1275.22,-1615.49,-0.8300077546539413
0,-1978.38,-512.82,-1274.72,-1615.8,-0.8250077079391609
0,-1975.12,-521.96,-1274.95,-1622.84,-0.820007661224377
0,-1984.96,-529.87,-1285.39,-1633.5,-0.815007614509593
0,-1990.73,-530.81,-1287.65,-1633.05,-0.8100075677948126
0,-1981.12,-508.25,-1277.3,-1619.78,-0.8050075210800287
0,-1988.83,-522.82,-1294.75,-1631.45,-0.8000074743652448
0,-1989.16,-537.82,-1288.42,-1623.08,-0.7950074276504644
0,-1991.25,-542.62,-1286.06,-1610.97,-0.7900073809356805
0,-1985.23,-543.41,-1284.35,-1603.61,-0.7850073342208965
0,-1989.06,-539.19,-1286.48,-1604.49,-0.7800072875061126
0,-1983.37,-533.66,-1286.12,-1603.37,-0.7750072407913322
0,-1986.27,-532.25,-1281.48,-1599.21,-0.7700071940765483
0,-1979.72,-523.45,-1278.25,-1590.06,-0.7650071473617643
0,-1972.49,-518.5,-1268.24,-1582.94,-0.760007100646984
0,-1973.24,-517.4,-1271.16,-1581.8,-0.7550070539322
0,-1982.88,-526.58,-1278.88,-1598.56,-0.7500070072174161
0,-1984.51,-525.85,-1280.48,-1599.26,-0.7450069605026357
0,-1980.85,-516.65,-1267.93,-1590.53,-0.7400069137878518
0,-1980.17,-515.05,-1265.38,-1587.63,-0.7350068670730678
0,-1979.45,-513.51,-1268.1,-1591.5,-0.7300068203582875
0,-1981.97,-515.74,-1279.32,-1596.45,-0.7250067736435035
0,-1984.61,-526.09,-1281.52,-1601.19,-0.7200067269287196
0,-1978.07,-524.79,-1280.77,-1603.43,-0.7150066802139392
0,-1980.74,-521.7,-1278.75,-1605.63,-0.7100066334991553
0,-1994.28,-528.46,-1289.72,-1615.32,-0.7050065867843713
0,-2000.83,-543.69,-1301.64,-1627.18,-0.700006540069591
0,-1999.1,-532.78,-1296.05,-1637.24,-0.695006493354807
0,-1989.98,-533.71,-1289.24,-1637.01,-0.6900064466400231
0,-1978.55,-530.8,-1284.98,-1626.21,-0.6850063999252427
0,-1973.79,-525.58,-1279.12,-1618.85,-0.6800063532104588
0,-1960.46,-518.08,-1269.78,-1606.87,-0.6750063064956748
0,-1974.46,-512.77,-1273.95,-1604.94,-0.6700062597808945
0,-1971.21,-512.35,-1278.22,-1605.01,-0.6650062130661105
0,-1964.74,-507.18,-1264.86,-1589.24,-0.6600061663513266
0,-1969.17,-509.29,-1263.5,-1584.5,-0.6550061196365462
0,-1969.72,-512.62,-1271.18,-1590.09,-0.6500060729217623
0,-1966.86,-516.38,-1267.27,-1593.46,-0.6450060262069783
0,-1960.45,-508.92,-1256.16,-1585.8,-0.640005979492198
0,-1958.51,-497.83,-1255.22,-1582.47,-0.635005932777414
0,-1945.02,-483.83,-1243.25,-1574.74,-0.6300058860626301
0,-1952.71,-490.7,-1248.73,-1575.05,-0.6250058393478497
0,-1952.2,-494.75,-1248.22,-1578.57,-0.6200057926330658
0,-1954.36,-498.04,-1255.64,-1586.75,-0.6150057459182818
0,-1954.29,-497.49,-1255.22,-1577.23,-0.6100056992034979
0,-1957.88,-496.02,-1254.21,-1581.68,-0.6050056524887175
0,-1963.64,-498.95,-1257.0,-1592.01,-0.6000056057739336
0,-1969.99,-508.03,-1263.2,-1596.23,-0.5950055590591496
0,-1971.89,-506.29,-1261.92,-1595.75,-0.5900055123443693
0,-1969.96,-511.26,-1267.15,-1602.65,-0.5850054656295853
0,-1965.46,-505.83,-1263.9,-1603.17,-0.5800054189148014
0,-1967.5,-513.47,-1269.62,-1610.66,-0.575005372200021
0,-1982.76,-524.5,-1284.27,-1620.34,-0.5700053254852371
0,-1970.75,-508.62,-1272.12,-1606.94,-0.5650052787704531
0,-1953.11,-494.78,-1257.83,-1593.5,-0.5600052320556728
0,-1959.75,-509.31,-1264.59,-1602.64,-0.5550051853408888
0,-1956.52,-503.82,-1254.19,-1587.79,-0.5500051386261049
0,-1956.68,-504.35,-1259.92,-1588.95,-0.5450050919113245
0,-1960.89,-508.8,-1259.39,-1580.09,-0.5400050451965406
0,-1960.14,-499.96,-1256.95,-1582.7,-0.5350049984817566
0,-1961.9,-501.43,-1260.84,-1590.09,-0.5300049517669763
0,-1965.47,-500.78,-1264.58,-1593.88,-0.5250049050521923
0,-1962.06,-503.54,-1263.0,-1598.45,-0.5200048583374084
0,-1969.38,-502.51,-1269.13,-1605.58,-0.515004811622628
0,-1967.14,-503.64,-1266.11,-1599.91,-0.5100047649078441
0,-1972.91,-508.77,-1267.78,-1602.5,-0.5050047181930601
0,-1969.84,-510.75,-1268.97,-1602.85,-0.5000046714782798
0,-1964.75,-498.06,-1259.42,-1593.29,-0.4950046247634958
0,-1968.09,-502.74,-1263.1,-1595.35,-0.4900045780487119
0,-1966.82,-505.06,-1267.13,-1593.66,-0.4850045313339315
0,-1967.11,-515.27,-1273.24,-1602.77,-0.4800044846191476
0,-1972.61,-512.24,-1272.61,-1601.6,-0.47500443790436364
0,-1967.66,-513.29,-1270.5,-1604.72,-0.47000439118958326
0,-1969.98,-516.26,-1273.27,-1605.81,-0.4650043444747993
0,-1969.64,-518.19,-1276.59,-1610.85,-0.4600042977600154
0,-1960.46,-509.78,-1266.97,-1604.68,-0.45500425104523146
0,-1966.33,-508.36,-1267.05,-1601.88,-0.4500042043304511
0,-1967.97,-513.5,-1269.12,-1600.76,-0.44500415761566714
0,-1955.26,-504.42,-1258.66,-1590.18,-0.4400041109008832
0,-1953.94,-502.37,-1256.96,-1592.38,-0.4350040641861028
0,-1955.43,-502.18,-1257.26,-1591.39,-0.4300040174713189
0,-1964.72,-501.98,-1265.05,-1596.94,-0.42500397075653495
0,-1964.42,-501.18,-1258.05,-1593.29,-0.4200039240417546
0,-1972.46,-509.05,-1268.24,-1602.33,-0.41500387732697064
0,-1961.07,-506.31,-1267.18,-1597.07,-0.4100038306121867
0,-1957.1,-494.64,-1256.0,-1587.68,-0.4050037838974063
0,-1963.15,-505.15,-1264.94,-1597.1,-0.4000037371826224
0,-1965.56,-513.06,-1267.84,-1598.79,-0.39500369046783845
0,-1967.79,-509.25,-1263.65,-1598.6,-0.39000364375305807
0,-1970.63,-509.84,-1265.3,-1603.82,-0.38500359703827414
0,-1969.16,-507.46,-1271.52,-1603.03,-0.3800035503234902
0,-1962.51,-510.15,-1260.89,-1600.06,-0.3750035036087098
0,-1960.13,-502.42,-1256.06,-1597.2,-0.3700034568939259
0,-1969.42,-511.0,-1269.65,-1610.26,-0.36500341017914195
0,-1950.26,-495.89,-1251.89,-1589.27,-0.36000336346436157
0,-1965.45,-502.86,-1261.28,-1595.31,-0.35500331674957764
0,-1953.26,-501.79,-1252.48,-1591.57,-0.3500032700347937
0,-1946.92,-492.98,-1249.8,-1582.28,-0.3450032233200133
0,-1951.95,-494.4,-1251.92,-1584.34,-0.3400031766052294
0,-1955.96,-501.89,-1260.72,-1596.14,-0.33500312989044545
0,-1966.31,-504.22,-1266.7,-1596.55,-0.33000308317566507
0,-1967.9,-507.5,-1268.99,-1598.85,-0.32500303646088113
0,-1969.56,-506.69,-1267.82,-1599.92,-0.3200029897460972
0,-1973.89,-518.29,-1273.77,-1607.63,-0.3150029430313168
0,-1967.04,-501.99,-1267.93,-1600.22,-0.3100028963165329
0,-1964.87,-511.71,-1268.67,-1600.83,-0.30500284960174895
0,-1965.96,-512.13,-1267.44,-1598.34,-0.300002802886965
0,-1960.32,-509.55,-1264.1,-1598.69,-0.29500275617218463
0,-1959.68,-509.4,-1264.76,-1599.74,-0.2900027094574007
0,-1969.09,-509.59,-1269.02,-1591.65,-0.28500266274261676
0,-1966.36,-508.3,-1267.8,-1592.86,-0.2800026160278364
0,-1973.36,-519.87,-1280.04,-1604.72,-0.27500256931305245
0,-1967.55,-512.32,-1272.77,-1600.84,-0.2700025225982685
0,-1982.6,-523.09,-1284.99,-1614.73,-0.26500247588348813
0,-1976.58,-509.71,-1273.96,-1601.86,-0.2600024291687042
0,-1968.71,-506.68,-1269.34,-1601.63,-0.25500238245392026
0,-1962.84,-502.95,-1262.43,-1589.56,-0.2500023357391399
0,-1965.38,-504.39,-1259.54,-1590.53,-0.24500228902435595
0,-1963.07,-501.18,-1261.73,-1590.64,-0.240002242309572
0,-1942.53,-491.79,-1244.0,-1581.96,-0.23500219559479163
0,-1952.38,-498.14,-1254.56,-1591.73,-0.2300021488800077
0,-1963.49,-504.18,-1262.05,-1595.93,-0.22500210216522376
0,-1959.05,-496.56,-1256.42,-1591.31,-0.22000205545044338
0,-1955.79,-498.32,-1261.47,-1591.71,-0.21500200873565944
0,-1961.55,-500.18,-1263.96,-1594.95,-0.2100019620208755
0,-1955.04,-498.44,-1260.19,-1589.88,-0.20500191530609513
0,-1961.27,-499.92,-1259.43,-1589.87,-0.2000018685913112
0,-1965.92,-513.6,-1268.87,-1601.16,-0.19500182187652726
0,-1958.83,-506.23,-1260.14,-1594.72,-0.19000177516174688
0,-1966.25,-504.92,-1262.01,-1598.57,-0.18500172844696294
0,-1955.28,-498.73,-1251.65,-1590.12,-0.180001681732179
0,-1948.15,-496.95,-1254.72,-1589.18,-0.17500163501739863
0,-1954.05,-498.33,-1255.06,-1594.41,-0.1700015883026147
0,-1958.71,-501.37,-1256.59,-1593.57,-0.16500154158783076
0,-1971.14,-505.56,-1265.71,-1600.64,-0.16000149487305038
0,-1956.21,-491.41,-1253.2,-1586.43,-0.15500144815826644
0,-1972.43,-506.44,-1263.75,-1598.79,-0.1500014014434825
0,-1963.96,-512.35,-1261.73,-1588.92,-0.14500135472870213
0,-1965.72,-515.41,-1267.77,-1590.34,-0.1400013080139182
0,-1967.9,-515.78,-1268.96,-1597.07,-0.13500126129913426
0,-1970.42,-519.38,-1272.94,-1605.39,-0.13000121458435032
0,-1972.11,-524.77,-1278.89,-1611.37,-0.12500116786956994
0,-1965.45,-519.79,-1271.77,-1606.88,-0.120001121154786
0,-1975.16,-526.48,-1276.84,-1611.97,-0.11500107444000207
0,-1972.05,-514.27,-1272.02,-1607.88,-0.11000102772522169
0,-1973.04,-518.33,-1279.26,-1605.75,-0.10500098101043776
0,-1967.55,-509.66,-1270.0,-1608.02,-0.10000093429565382
0,-1965.18,-510.55,-1271.05,-1606.49,-0.09500088758087344
0,-1970.58,-513.54,-1262.72,-1602.23,-0.0900008408660895
0,-1965.66,-504.74,-1258.98,-1589.92,-0.08500079415130557
0,-1960.52,-501.97,-1257.98,-1586.28,-0.08000074743652519
0,-1962.43,-499.79,-1257.43,-1588.4,-0.07500070072174125
0,-1958.04,-500.43,-1258.86,-1589.45,-0.07000065400695732
0,-1959.05,-498.17,-1257.01,-1587.43,-0.06500060729217694
0,-1967.66,-507.74,-1266.14,-1592.09,-0.060000560577393
0,-1965.2,-502.51,-1263.51,-1591.47,-0.05500051386260907
0,-1965.02,-502.37,-1263.67,-1589.52,-0.05000046714782869
0,-1964.09,-508.3,-1267.45,-1585.38,-0.04500042043304475
0,-1957.98,-498.89,-1264.04,-1583.28,-0.04000037371826082
0,-1961.04,-501.41,-1260.0,-1588.25,-0.035000327003480436
0,-1958.08,-497.5,-1256.19,-1586.09,-0.0300002802886965
0,-1967.01,-502.02,-1265.96,-1596.76,-0.025000233573912567
0,-1957.42,-495.8,-1258.47,-1596.43,-0.020000186859132185
0,-1964.56,-508.11,-1266.17,-1605.21,-0.01500014014434825
0,-1954.05,-505.19,-1266.95,-1597.64,-0.010000093429564316
0,-1962.92,-506.52,-1268.02,-1597.88,-0.0050000467147839345
0,-1967.08,-507.31,-1264.75,-1601.47,0.0
0,-1950.33,-503.07,-1256.69,-1590.69,0.0050000467147839345
0,-1953.84,-500.17,-1255.32,-1588.09,0.010000093429564316
0,-1959.53,-495.38,-1252.77,-1591.57,0.01500014014434825
0,-1960.61,-504.83,-1257.67,-1595.82,0.020000186859132185
0,-1959.9,-505.04,-1262.81,-1604.18,0.02500023357391612
0,-1960.68,-507.34,-1262.66,-1603.97,0.0300002802886965
0,-1959.58,-502.56,-1258.16,-1595.89,0.035000327003480436
0,-1965.88,-514.45,-1273.22,-1608.06,0.04000037371826437
0,-1971.57,-517.2,-1269.82,-1604.96,0.04500042043304475
0,-1974.84,-509.08,-1269.43,-1600.39,0.05000046714782869
0,-1965.23,-511.49,-1268.65,-1601.4,0.05500051386261262
0,-1969.84,-513.63,-1274.78,-1602.46,0.060000560577393
0,-1968.8,-519.29,-1271.46,-1609.36,0.06500060729217694
0,-1973.38,-522.03,-1275.77,-1609.41,0.07000065400696087
0,-1966.21,-513.59,-1265.27,-1599.75,0.07500070072174125
0,-1972.53,-516.2,-1274.41,-1610.17,0.08000074743652519
0,-1980.2,-521.2,-1281.91,-1617.91,0.08500079415130912
0,-1980.41,-521.33,-1283.16,-1622.08,0.0900008408660895
0,-1971.24,-514.47,-1273.95,-1614.27,0.09500088758087344
0,-1975.94,-515.01,-1273.99,-1615.22,0.10000093429565737
0,-1981.41,-521.27,-1281.83,-1616.37,0.10500098101043776
0,-1973.63,-508.8,-1269.31,-1604.62,0.11000102772522169
0,-1966.2,-506.49,-1264.92,-1595.85,0.11500107444000562
0,-1959.28,-500.07,-1253.06,-1587.87,0.120001121154786
0,-1959.56,-501.92,-1254.96,-1588.52,0.12500116786956994
0,-1951.6,-491.93,-1247.56,-1582.92,0.13000121458435387
0,-1945.5,-490.95,-1247.93,-1577.92,0.13500126129913426
0,-1951.79,-497.19,-1248.68,-1581.47,0.1400013080139182
0,-1965.72,-504.25,-1262.72,-1593.87,0.14500135472870213
0,-1955.11,-494.33,-1257.29,-1586.61,0.1500014014434825
0,-1962.71,-504.3,-1257.95,-1590.34,0.15500144815826644
0,-1951.87,-501.15,-1253.28,-1592.42,0.16000149487305038
0,-1949.15,-492.39,-1249.39,-1585.04,0.16500154158783076
0,-1951.7,-496.82,-1252.0,-1594.78,0.1700015883026147
0,-1963.43,-510.92,-1262.38,-1605.09,0.17500163501739863
0,-1954.28,-507.26,-1260.83,-1604.99,0.180001681732179
0,-1952.66,-503.7,-1259.51,-1601.24,0.18500172844696294
0,-1955.92,-500.12,-1257.38,-1592.25,0.19000177516174688
0,-1961.82,-502.55,-1262.0,-1596.16,0.1950018218765308
0,-1973.19,-509.92,-1271.17,-1603.17,0.2000018685913112
0,-1977.98,-522.33,-1277.49,-1611.96,0.20500191530609513
0,-1960.16,-504.62,-1261.66,-1597.81,0.21000196202087906
0,-1960.36,-506.95,-1261.22,-1598.34,0.21500200873565944
0,-1963.25,-504.44,-1265.41,-1602.24,0.22000205545044338
0,-1978.82,-518.43,-1276.62,-1607.67,0.2250021021652273
0,-1961.45,-505.66,-1261.98,-1595.23,0.2300021488800077
0,-1961.78,-510.18,-1262.9,-1596.01,0.23500219559479163
0,-1961.14,-506.41,-1259.3,-1583.4,0.24000224230957556
0,-1968.2,-515.73,-1264.06,-1589.41,0.24500228902435595
0,-1975.64,-513.26,-1271.23,-1595.04,0.2500023357391399
0,-1972.36,-511.92,-1271.81,-1596.58,0.2550023824539238
0,-1967.29,-509.22,-1264.44,-1599.39,0.2600024291687042
0,-1967.6,-503.06,-1262.42,-1599.26,0.26500247588348813
0,-1960.85,-505.64,-1264.09,-1604.98,0.27000252259827207
0,-1968.26,-506.33,-1267.62,-1606.52,0.27500256931305245
0,-1967.44,-501.22,-1263.86,-1606.64,0.2800026160278364
0,-1964.28,-502.73,-1260.92,-1602.36,0.2850026627426203
0,-1965.89,-508.76,-1265.55,-1606.57,0.2900027094574007
0,-1960.93,-513.52,-1269.26,-1609.61,0.29500275617218463
0,-1966.96,-514.32,-1272.23,-1612.61,0.30000280288696857
0,-1975.25,-517.79,-1271.6,-1619.66,0.30500284960174895
0,-1973.95,-517.08,-1277.13,-1618.65,0.3100028963165329
0,-1974.81,-518.6,-1274.34,-1614.88,0.3150029430313168
0,-1965.45,-514.57,-1267.64,-1601.92,0.3200029897460972
0,-1959.27,-511.08,-1264.32,-1594.17,0.32500303646088113
0,-1951.38,-492.96,-1252.21,-1579.82,0.33000308317566507
0,-1967.34,-504.11,-1263.26,-1594.84,0.33500312989044545
0,-1967.66,-509.38,-1266.38,-1589.91,0.3400031766052294
0,-1959.36,-501.38,-1256.81,-1582.99,0.3450032233200133
0,-1964.23,-511.79,-1266.76,-1597.53,0.35000327003479725
0,-1963.66,-508.33,-1272.21,-1598.39,0.35500331674957764
0,-1966.48,-506.81,-1274.42,-1600.37,0.36000336346436157
0,-1962.3,-492.18,-1262.39,-1600.43,0.3650034101791455
0,-1960.91,-496.46,-1258.73,-1602.24,0.3700034568939259
0,-1960.15,-496.94,-1256.31,-1600.82,0.3750035036087098
0,-1964.86,-501.17,-1257.98,-1597.57,0.38000355032349376
0,-1968.42,-505.99,-1261.5,-1598.31,0.38500359703827414
0,-1960.82,-503.33,-1259.14,-1592.77,0.39000364375305807
0,-1968.91,-503.98,-1263.58,-1597.89,0.395003690467842
0,-1968.23,-502.99,-1264.51,-1598.6,0.4000037371826224
0,-1961.99,-498.54,-1262.2,-1588.6,0.4050037838974063
0,-1962.35,-507.51,-1262.55,-1595.77,0.41000383061219026
0,-1966.18,-505.5,-1263.64,-1597.66,0.41500387732697064
0,-1964.65,-504.33,-1260.7,-1591.52,0.4200039240417546
0,-1955.16,-499.87,-1251.06,-1584.61,0.4250039707565385
0,-1967.87,-508.99,-1263.73,-1594.01,0.4300040174713189
0,-1953.88,-500.22,-1253.9,-1584.24,0.4350040641861028
0,-1958.57,-506.06,-1261.18,-1588.49,0.44000411090088676
0,-1963.03,-511.21,-1266.69,-1593.64,0.44500415761566714
0,-1967.29,-515.35,-1266.82,-1597.75,0.4500042043304511
0,-1963.86,-509.63,-1263.49,-1598.23,0.455004251045235
0,-1958.36,-500.05,-1257.35,-1591.19,0.4600042977600154
0,-1955.5,-499.78,-1253.36,-1589.98,0.4650043444747993
0,-1953.93,-505.39,-1261.86,-1593.06,0.47000439118958326
0,-1961.48,-499.1,-1259.62,-1593.94,0.47500443790436364
0,-1962.54,-506.21,-1266.07,-1598.79,0.4800044846191476
0,-1963.27,-503.32,-1262.66,-1593.54,0.4850045313339315
0,-1964.77,-503.3,-1262.7,-1596.1,0.4900045780487119
0,-1964.86,-507.01,-1261.77,-1596.54,0.4950046247634958
0,-1956.68,-505.97,-1260.74,-1599.75,0.5000046714782798
0,-1965.76,-515.1,-1270.83,-1613.22,0.5050047181930601
0,-1964.68,-512.5,-1269.76,-1610.03,0.5100047649078441
0,-1965.53,-511.49,-1271.76,-1603.76,0.515004811622628
0,-1970.19,-510.71,-1271.98,-1601.21,0.520004858337412
0,-1969.37,-514.16,-1268.15,-1599.79,0.5250049050521923
0,-1962.51,-504.24,-1263.14,-1589.07,0.5300049517669763
0,-1960.2,-503.24,-1259.13,-1591.36,0.5350049984817602
0,-1966.03,-504.62,-1263.57,-1594.15,0.5400050451965406
0,-1953.69,-502.43,-1260.94,-1583.94,0.5450050919113245
0,-1951.37,-492.29,-1248.86,-1579.23,0.5500051386261084
0,-1951.72,-494.86,-1251.5,-1582.11,0.5550051853408888
0,-1940.74,-486.84,-1242.73,-1576.73,0.5600052320556728
0,-1949.49,-495.69,-1250.63,-1580.15,0.5650052787704567
0,-1946.65,-496.47,-1252.99,-1574.47,0.5700053254852371
0,-1954.54,-505.53,-1252.75,-1583.92,0.575005372200021
0,-1965.72,-514.97,-1264.65,-1598.75,0.580005418914805
0,-1971.54,-514.27,-1268.08,-1599.27,0.5850054656295853
0,-1968.49,-508.55,-1267.63,-1595.79,0.5900055123443693
0,-1972.43,-520.59,-1272.7,-1593.94,0.5950055590591532
0,-1975.12,-523.0,-1275.49,-1603.44,0.6000056057739336
0,-1976.2,-525.88,-1274.44,-1597.42,0.6050056524887175
0,-1980.28,-521.83,-1280.23,-1597.4,0.6100056992035015
0,-1971.07,-512.51,-1270.06,-1595.06,0.6150057459182818
0,-1970.05,-511.3,-1266.44,-1597.12,0.6200057926330658
0,-1964.8,-509.77,-1262.7,-1595.2,0.6250058393478497
0,-1966.76,-509.12,-1262.32,-1595.73,0.6300058860626301
0,-1970.5,-510.04,-1267.53,-1598.26,0.635005932777414
0,-1968.44,-509.37,-1262.87,-1589.98,0.640005979492198
0,-1965.35,-500.21,-1259.2,-1588.8,0.6450060262069783
0,-1958.94,-495.71,-1253.64,-1589.38,0.6500060729217623
0,-1946.26,-481.59,-1240.38,-1574.98,0.6550061196365462
0,-1946.31,-477.67,-1236.75,-1576.36,0.6600061663513266
0,-1941.72,-479.58,-1238.85,-1577.71,0.6650062130661105
0,-1944.95,-484.04,-1240.88,-1582.48,0.6700062597808945
0,-1939.56,-482.71,-1238.22,-1578.78,0.6750063064956784
0,-1950.52,-494.96,-1248.94,-1587.79,0.6800063532104588
0,-1949.18,-495.7,-1250.0,-1586.27,0.6850063999252427
0,-1959.61,-494.25,-1251.05,-1595.64,0.6900064466400266
0,-1973.86,-506.12,-1267.6,-1603.72,0.695006493354807
0,-1971.47,-507.33,-1272.35,-1606.2,0.700006540069591
0,-1974.31,-503.07,-1267.74,-1604.35,0.7050065867843749
0,-1973.89,-504.6,-1270.44,-1606.4,0.7100066334991553
0,-1969.8,-508.29,-1271.0,-1605.42,0.7150066802139392
0,-1962.97,-504.45,-1269.85,-1606.14,0.7200067269287231
0,-1972.86,-509.25,-1270.37,-1609.86,0.7250067736435035
0,-1969.4,-513.27,-1269.41,-1609.81,0.7300068203582875
0,-1969.28,-519.13,-1275.06,-1611.31,0.7350068670730714
0,-1972.86,-526.08,-1277.81,-1612.55,0.7400069137878518
0,-1973.57,-525.02,-1279.42,-1606.49,0.7450069605026357
0,-1979.86,-522.97,-1280.67,-1607.98,0.7500070072174196
0,-1983.81,-529.21,-1287.58,-1610.74,0.7550070539322
0,-1989.31,-530.87,-1291.51,-1617.81,0.760007100646984
0,-1975.77,-519.61,-1279.53,-1608.66,0.7650071473617643
0,-1980.1,-522.85,-1278.61,-1609.57,0.7700071940765483
0,-1978.42,-518.3,-1279.7,-1609.04,0.7750072407913322
0,-1972.51,-523.53,-1276.17,-1608.65,0.7800072875061161
0,-1975.99,-528.0,-1280.38,-1616.36,0.7850073342209001
0,-1970.16,-520.28,-1273.26,-1609.35,0.790007380935684
0,-1970.18,-517.32,-1273.54,-1605.99,0.7950074276504608
0,-1964.8,-508.25,-1267.13,-1600.08,0.8000074743652448
0,-1972.47,-512.01,-1267.42,-1600.27,0.8050075210800287
0,-1968.87,-501.2,-1259.95,-1591.49,0.8100075677948126
0,-1965.38,-501.79,-1259.84,-1590.03,0.8150076145095966
0,-1967.17,-510.01,-1263.8,-1598.38,0.8200076612243805
0,-1955.93,-504.1,-1258.71,-1592.97,0.8250077079391573
0,-1956.9,-505.71,-1261.39,-1601.5,0.8300077546539413
0,-1952.18,-498.75,-1258.08,-1596.35,0.8350078013687252
0,-1945.39,-494.78,-1249.03,-1593.86,0.8400078480835091
0,-1958.29,-495.87,-1254.04,-1595.99,0.8450078947982931
0,-1960.87,-497.68,-1259.44,-1601.67,0.850007941513077
0,-1954.85,-488.65,-1254.47,-1600.01,0.8550079882278538
0,-1957.42,-490.11,-1246.99,-1594.37,0.8600080349426378
0,-1971.33,-497.73,-1263.78,-1598.85,0.8650080816574217
0,-1972.11,-496.77,-1259.88,-1597.65,0.8700081283722056
0,-1964.37,-493.13,-1260.95,-1600.46,0.8750081750869896
0,-1964.12,-502.76,-1262.99,-1605.48,0.8800082218017735
0,-1969.87,-510.4,-1266.25,-1604.28,0.8850082685165503
0,-1969.05,-519.11,-1273.03,-1610.84,0.8900083152313343
0,-1966.66,-520.21,-1274.9,-1605.05,0.8950083619461182
0,-1971.71,-521.62,-1276.97,-1601.18,0.9000084086609021
0,-1962.15,-514.76,-1266.79,-1598.53,0.9050084553756861
0,-1969.22,-517.8,-1270.97,-1601.27,0.91000850209047
0,-1960.78,-503.3,-1259.66,-1589.31,0.915008548805254
0,-1958.05,-497.6,-1258.21,-1587.72,0.9200085955200308
0,-1964.0,-500.97,-1259.84,-1586.78,0.9250086422348147
0,-1961.2,-504.0,-1259.99,-1583.37,0.9300086889495986
0,-1963.75,-512.42,-1269.87,-1594.24,0.9350087356643826
0,-1970.29,-520.13,-1271.61,-1597.72,0.9400087823791665
0,-1974.03,-524.26,-1278.02,-1606.37,0.9450088290939505
0,-1981.28,-530.87,-1285.04,-1611.93,0.9500088758087273
0,-1975.22,-522.25,-1273.97,-1605.25,0.9550089225235112
0,-1969.1,-522.96,-1273.72,-1610.17,0.9600089692382952
0,-1964.45,-517.29,-1271.19,-1605.75,0.9650090159530791
0,-1963.32,-518.48,-1266.72,-1602.23,0.970009062667863
0,-1957.97,-510.95,-1260.79,-1598.53,0.975009109382647
0,-1965.4,-509.37,-1269.32,-1598.9,0.9800091560974238
0,-1970.0,-513.5,-1272.21,-1602.73,0.9850092028122077
0,-1964.87,-506.06,-1263.99,-1597.65,0.9900092495269917
0,-1971.56,-506.4,-1265.89,-1597.13,0.9950092962417756
0,-1968.88,-503.31,-1261.25,-1589.22,1.0000093429565595
0,-1966.98,-509.8,-1264.46,-1594.99,1.0050093896713435
0,-1961.27,-507.91,-1261.22,-1590.3,1.0100094363861203
0,-1956.83,-506.18,-1263.04,-1589.96,1.0150094831009042
0,-1967.38,-499.47,-1262.57,-1589.07,1.0200095298156882
0,-1962.46,-495.7,-1258.06,-1589.12,1.025009576530472
0,-1959.27,-495.76,-1255.95,-1584.4,1.030009623245256
0,-1959.75,-502.1,-1255.59,-1585.9,1.03500966996004
0,-1952.49,-488.56,-1248.12,-1585.82,1.0400097166748168
0,-1943.53,-494.83,-1242.77,-1578.33,1.0450097633896007
0,-1946.52,-494.41,-1244.55,-1577.53,1.0500098101043847
0,-1946.42,-494.96,-1244.56,-1576.85,1.0550098568191686
0,-1946.19,-492.78,-1247.78,-1576.06,1.0600099035339525
0,-1955.6,-497.11,-1252.01,-1588.02,1.0650099502487365
0,-1955.45,-495.95,-1255.91,-1591.79,1.0700099969635133
0,-1960.67,-500.37,-1259.04,-1594.7,1.0750100436782972
0,-1957.38,-497.45,-1261.7,-1600.04,1.0800100903930812
0,-1966.4,-507.27,-1266.68,-1604.88,1.085010137107865
0,-1968.66,-508.19,-1267.89,-1603.55,1.090010183822649
0,-1970.03,-511.72,-1266.18,-1607.02,1.095010230537433
0,-1961.75,-498.75,-1259.14,-1597.57,1.100010277252217
0,-1970.96,-509.64,-1268.22,-1603.13,1.1050103239669937
0,-1964.29,-504.28,-1264.2,-1601.15,1.1100103706817777
0,-1966.97,-503.89,-1264.92,-1598.56,1.1150104173965616
0,-1961.82,-504.48,-1260.52,-1599.76,1.1200104641113455
0,-1973.1,-509.71,-1268.08,-1607.68,1.1250105108261295
0,-1966.06,-508.85,-1264.68,-1600.98,1.1300105575409134
0,-1964.3,-513.28,-1266.53,-1605.84,1.1350106042556902
0,-1959.32,-503.26,-1256.13,-1597.75,1.1400106509704742
0,-1952.23,-493.6,-1254.06,-1591.56,1.145010697685258
0,-1963.84,-502.17,-1268.99,-1597.51,1.150010744400042
0,-1961.24,-505.67,-1265.74,-1600.82,1.155010791114826
0,-1965.47,-507.15,-1266.99,-1601.47,1.16001083782961
0,-1966.59,-509.18,-1269.86,-1608.26,1.1650108845443867
0,-1976.19,-516.64,-1271.48,-1605.41,1.1700109312591707
0,-1973.45,-519.86,-1277.23,-1614.82,1.1750109779739546
0,-1972.77,-515.93,-1276.19,-1614.38,1.1800110246887385
0,-1966.65,-516.78,-1272.14,-1614.94,1.1850110714035225
0,-1970.64,-514.01,-1274.05,-1608.39,1.1900111181183064
0,-1977.84,-519.93,-1279.17,-1610.24,1.1950111648330832
0,-1967.95,-509.81,-1267.02,-1607.1,1.2000112115478672
0,-1957.7,-508.62,-1263.78,-1599.32,1.205011258262651
0,-1958.1,-507.53,-1254.87,-1596.48,1.210011304977435
0,-1964.22,-510.33,-1260.09,-1602.58,1.215011351692219
0,-1955.5,-505.6,-1259.64,-1600.08,1.220011398407003
0,-1955.37,-504.41,-1252.73,-1594.2,1.2250114451217797
0,-1947.78,-492.52,-1247.58,-1589.89,1.2300114918365637
0,-1946.4,-495.29,-1246.72,-1586.58,1.2350115385513476
0,-1957.9,-507.5,-1261.29,-1598.03,1.2400115852661315
0,-1962.01,-503.68,-1264.99,-1597.0,1.2450116319809155
0,-1962.48,-511.94,-1265.13,-1599.55,1.2500116786956994
0,-1957.93,-508.96,-1263.18,-1598.46,1.2550117254104833
0,-1953.19,-504.57,-1255.02,-1593.51,1.2600117721252602
0,-1964.45,-502.28,-1257.63,-1594.62,1.265011818840044
0,-1961.44,-500.8,-1255.85,-1596.42,1.270011865554828
0,-1960.26,-505.63,-1259.7,-1595.42,1.275011912269612
0,-1967.14,-509.45,-1263.56,-1601.29,1.280011958984396
0,-1977.83,-516.73,-1277.36,-1612.29,1.2850120056991798
0,-1963.33,-505.04,-1262.97,-1599.05,1.2900120524139567
0,-1971.31,-505.62,-1273.58,-1603.76,1.2950120991287406
0,-1968.27,-511.21,-1272.49,-1606.42,1.3000121458435245
0,-1970.4,-515.92,-1272.6,-1604.81,1.3050121925583085
0,-1970.47,-512.71,-1268.35,-1601.09,1.3100122392730924
0,-1967.44,-506.41,-1262.26,-1597.6,1.3150122859878763
0,-1960.31,-499.39,-1255.36,-1595.12,1.3200123327026532
0,-1949.95,-493.4,-1253.24,-1592.45,1.325012379417437
0,-1955.39,-494.83,-1256.59,-1599.29,1.330012426132221
0,-1953.38,-495.22,-1251.02,-1590.5,1.335012472847005
0,-1959.67,-498.02,-1253.96,-1592.12,1.340012519561789
0,-1960.05,-500.72,-1257.02,-1594.99,1.3450125662765728
0,-1966.78,-505.18,-1261.9,-1596.51,1.3500126129913497
0,-1964.6,-507.65,-1264.46,-1600.22,1.3550126597061336
0,-1966.96,-514.51,-1265.49,-1600.22,1.3600127064209175
0,-1969.06,-510.62,-1263.98,-1604.49,1.3650127531357015
0,-1969.98,-513.87,-1268.05,-1604.27,1.3700127998504854
0,-1967.41,-511.7,-1261.63,-1596.56,1.3750128465652693
0,-1968.65,-505.49,-1266.86,-1594.89,1.3800128932800462
0,-1964.51,-504.46,-1260.82,-1596.71,1.38501293999483
0,-1967.37,-515.06,-1271.23,-1601.02,1.390012986709614
0,-1970.84,-507.49,-1267.36,-1593.61,1.395013033424398
0,-1974.12,-512.39,-1269.51,-1599.32,1.400013080139182
0,-1969.35,-513.6,-1268.31,-1596.17,1.4050131268539658
0,-1964.92,-508.38,-1261.38,-1594.74,1.4100131735687498
0,-1960.24,-506.34,-1265.84,-1595.8,1.4150132202835266
0,-1956.79,-497.69,-1258.23,-1592.66,1.4200132669983105
0,-1963.68,-515.54,-1265.94,-1609.88,1.4250133137130945
0,-1969.28,-513.47,-1271.84,-1612.92,1.4300133604278784
0,-1964.16,-508.96,-1261.75,-1599.62,1.4350134071426623
0,-1964.55,-508.75,-1267.18,-1599.77,1.4400134538574463
0,-1966.24,-510.23,-1264.76,-1602.72,1.445013500572223
0,-1969.92,-510.99,-1268.49,-1603.35,1.450013547287007
0,-1973.87,-523.33,-1277.58,-1608.5,1.455013594001791
0,-1968.58,-516.16,-1269.95,-1604.72,1.460013640716575
0,-1962.79,-512.73,-1269.34,-1601.4,1.4650136874313588
0,-1963.07,-508.12,-1265.39,-1599.11,1.4700137341461428
0,-1970.62,-515.04,-1273.75,-1609.93,1.4750137808609196
0,-1967.88,-506.61,-1269.11,-1598.9,1.4800138275757035
0,-1965.9,-505.17,-1262.7,-1598.28,1.4850138742904875
0,-1976.71,-519.99,-1278.15,-1607.87,1.4900139210052714
0,-1971.18,-515.22,-1272.57,-1608.4,1.4950139677200553
0,-1960.52,-507.51,-1262.0,-1597.31,1.5000140144348393
0,-1955.57,-499.53,-1259.58,-1591.7,1.5050140611496161
0,-1960.98,-506.27,-1265.22,-1599.64,1.5100141078644
0,-1964.86,-503.75,-1257.44,-1590.19,1.515014154579184
0,-1971.82,-507.84,-1268.56,-1603.35,1.520014201293968
0,-1974.49,-510.39,-1267.83,-1596.5,1.5250142480087518
0,-1971.69,-500.85,-1265.72,-1594.91,1.5300142947235358
0,-1967.21,-507.68,-1268.0,-1597.18,1.5350143414383126
0,-1965.24,-503.79,-1262.2,-1597.26,1.5400143881530965
0,-1964.46,-502.39,-1263.48,-1595.82,1.5450144348678805
0,-1961.62,-504.68,-1263.47,-1595.36,1.5500144815826644
0,-1968.1,-504.53,-1263.85,-1600.54,1.5550145282974484
0,-1966.09,-505.98,-1263.02,-1597.83,1.5600145750122323
0,-1959.74,-497.86,-1252.08,-1585.05,1.5650146217270162
0,-1967.24,-495.88,-1259.11,-1590.93,1.570014668441793
0,-1970.3,-506.05,-1269.37,-1606.51,1.575014715156577
0,-1972.73,-507.35,-1270.55,-1598.22,1.580014761871361
0,-1970.09,-505.83,-1268.9,-1599.86,1.5850148085861449
0,-1956.2,-500.43,-1256.38,-1595.2,1.5900148553009288
0,-1961.77,-506.37,-1262.46,-1602.55,1.5950149020157127
0,-1956.75,-499.55,-1257.29,-1597.89,1.6000149487304896
0,-1955.29,-499.49,-1257.32,-1592.47,1.6050149954452735
0,-1959.71,-499.6,-1257.73,-1592.78,1.6100150421600574
0,-1961.79,-502.45,-1260.49,-1594.19,1.6150150888748414
0,-1974.01,-510.18,-1269.61,-1602.52,1.6200151355896253
0,-1966.52,-509.47,-1269.23,-1600.57,1.6250151823044092
0,-1977.68,-513.95,-1276.79,-1613.66,1.630015229019186
0,-1972.41,-514.31,-1275.52,-1616.7,1.63501527573397
0,-1974.97,-513.48,-1276.27,-1610.53,1.640015322448754
0,-1975.68,-511.63,-1270.88,-1601.94,1.6450153691635379
0,-1971.93,-518.84,-1269.71,-1598.87,1.6500154158783218
0,-1972.88,-517.68,-1275.25,-1601.88,1.6550154625931057
0,-1971.64,-519.44,-1273.84,-1596.95,1.6600155093078826
0,-1970.63,-513.25,-1273.93,-1596.11,1.6650155560226665
0,-1965.43,-507.81,-1267.91,-1597.56,1.6700156027374504
0,-1967.62,-509.25,-1265.2,-1599.18,1.6750156494522344
0,-1961.51,-504.57,-1257.81,-1589.94,1.6800156961670183
0,-1955.98,-498.33,-1257.5,-1592.94,1.6850157428818022
0,-1968.68,-508.6,-1261.68,-1598.37,1.690015789596579
0,-1974.23,-517.51,-1267.99,-1607.08,1.695015836311363
0,-1967.84,-502.08,-1259.44,-1598.1,1.700015883026147
0,-1969.81,-508.08,-1270.95,-1600.12,1.7050159297409309
0,-1977.03,-513.64,-1272.49,-1602.2,1.7100159764557148
0,-1979.36,-515.72,-1277.02,-1609.92,1.7150160231704987
0,-1976.05,-518.97,-1276.92,-1610.46,1.7200160698852827
0,-1971.1,-517.56,-1275.23,-1604.8,1.7250161166000595
0,-1964.03,-517.33,-1270.86,-1604.83,1.7300161633148434
0,-1959.63,-508.76,-1266.71,-1598.91,1.7350162100296274
0,-1970.77,-515.06,-1271.06,-1600.57,1.7400162567444113
0,-1964.77,-507.0,-1268.02,-1598.49,1.7450163034591952
0,-1971.8,-516.35,-1271.43,-1605.02,1.7500163501739792
0,-1968.09,-506.71,-1270.31,-1599.67,1.755016396888756
0,-1975.24,-513.67,-1272.23,-1605.29,1.76001644360354
0,-1970.83,-512.19,-1271.03,-1602.84,1.7650164903183239
0,-1972.22,-514.53,-1275.59,-1602.36,1.7700165370331078
0,-1970.23,-516.31,-1275.96,-1605.32,1.7750165837478917
0,-1970.41,-513.94,-1270.35,-1602.66,1.7800166304626757
0,-1968.0,-510.19,-1269.09,-1601.44,1.7850166771774525
0,-1976.13,-515.37,-1276.89,-1605.77,1.7900167238922364
0,-1967.89,-504.05,-1263.56,-1591.16,1.7950167706070204
0,-1961.13,-504.02,-1258.36,-1590.46,1.8000168173218043
0,-1959.83,-503.92,-1255.8,-1590.31,1.8050168640365882
0,-1952.6,-495.81,-1254.52,-1587.13,1.8100169107513722
0,-1959.05,-498.74,-1254.75,-1593.48,1.815016957466149
0,-1957.17,-500.74,-1255.48,-1592.07,1.820017004180933
0,-1958.92,-498.52,-1253.17,-1592.11,1.8250170508957169
0,-1959.31,-498.58,-1254.75,-1594.95,1.8300170976105008
0,-1965.57,-499.04,-1261.32,-1602.34,1.8350171443252847
0,-1963.42,-496.19,-1258.35,-1596.11,1.8400171910400687
0,-1962.68,-504.09,-1260.37,-1600.59,1.8450172377548455
0,-1959.27,-503.87,-1264.44,-1601.59,1.8500172844696294
0,-1961.97,-507.35,-1263.75,-1602.13,1.8550173311844134
0,-1964.11,-506.6,-1261.86,-1598.18,1.8600173778991973
0,-1959.57,-504.7,-1260.8,-1600.19,1.8650174246139812
0,-1959.49,-502.39,-1257.7,-1594.71,1.8700174713287652
0,-1957.14,-501.68,-1256.91,-1594.19,1.875017518043542
0,-1954.04,-499.9,-1250.73,-1594.23,1.880017564758326
0,-1955.64,-500.13,-1255.74,-1597.74,1.8850176114731099
0,-1959.7,-502.76,-1259.51,-1600.21,1.8900176581878938
0,-1966.84,-507.84,-1265.71,-1600.24,1.8950177049026777
0,-1971.58,-514.22,-1270.76,-1610.67,1.9000177516174617
0,-1965.3,-511.21,-1262.62,-1603.15,1.9050177983322456
0,-1959.48,-504.41,-1259.18,-1597.87,1.9100178450470224
0,-1956.9,-502.32,-1257.07,-1597.06,1.9150178917618064
0,-1957.24,-504.45,-1264.31,-1600.11,1.9200179384765903
0,-1975.02,-511.77,-1268.78,-1602.43,1.9250179851913742
0,-1969.05,-506.95,-1267.48,-1601.34,1.9300180319061582
0,-1960.8,-504.83,-1260.98,-1597.6,1.935018078620942
0,-1953.1,-499.43,-1250.17,-1590.98,1.940018125335719
0,-1949.19,-493.94,-1250.11,-1588.0,1.9450181720505029
0,-1957.57,-499.92,-1253.71,-1589.3,1.9500182187652868
0,-1960.16,-500.0,-1261.45,-1597.53,1.9550182654800707
0,-1961.95,-503.21,-1258.44,-1596.32,1.9600183121948547
0,-1955.26,-497.24,-1255.47,-1591.32,1.9650183589096386
0,-1968.04,-510.84,-1268.89,-1604.09,1.9700184056244154
0,-1960.44,-505.01,-1261.4,-1596.22,1.9750184523391994
0,-1963.9,-508.7,-1262.37,-1598.17,1.9800184990539833
0,-1961.33,-508.89,-1266.0,-1600.8,1.9850185457687672
0,-1965.7,-507.34,-1268.51,-1600.52,1.9900185924835512
0,-1972.7,-509.6,-1269.23,-1601.95,1.995018639198335
0,-1972.18,-507.29,-1274.8,-1604.6,2.000018685913112
0,-1970.86,-507.17,-1269.56,-1600.26,2.005018732627896
0,-1966.42,-508.76,-1268.27,-1602.16,2.01001877934268
0,-1969.11,-508.83,-1268.31,-1594.24,2.0150188260574637
0,-1973.29,-506.18,-1270.5,-1604.5,2.0200188727722477
0,-1964.49,-507.02,-1263.74,-1597.85,2.0250189194870316
0,-1962.87,-507.21,-1265.39,-1599.86,2.0300189662018084
0,-1968.4,-506.22,-1264.71,-1593.89,2.0350190129165924
0,-1968.81,-504.69,-1259.44,-1593.9,2.0400190596313763
0,-1964.57,-503.32,-1260.42,-1591.78,2.0450191063461602
0,-1966.36,-511.23,-1265.14,-1595.94,2.050019153060944
0,-1958.05,-495.95,-1252.17,-1579.57,2.055019199775728
0,-1957.73,-497.65,-1254.79,-1580.42,2.060019246490512
0,-1953.17,-497.72,-1247.98,-1577.16,2.065019293205289
0,-1954.44,-500.46,-1255.88,-1584.2,2.070019339920073
0,-1970.83,-510.95,-1264.26,-1601.9,2.0750193866348567
0,-1966.54,-513.11,-1272.68,-1599.62,2.0800194333496407
0,-1962.21,-505.53,-1263.28,-1599.68,2.0850194800644246
0,-1976.84,-513.17,-1269.49,-1611.49,2.0900195267792085
0,-1971.45,-510.86,-1268.71,-1607.81,2.0950195734939854
0,-1970.36,-507.97,-1267.52,-1604.96,2.1000196202087693
0,-1965.61,-512.15,-1266.1,-1603.19,2.1050196669235532
0,-1966.82,-509.24,-1264.76,-1601.94,2.110019713638337
0,-1962.27,-503.27,-1265.8,-1602.73,2.115019760353121
0,-1972.4,-513.28,-1272.15,-1616.36,2.120019807067905
0,-1975.18,-506.37,-1268.69,-1609.1,2.125019853782682
0,-1971.97,-507.35,-1276.34,-1607.02,2.130019900497466
0,-1973.68,-514.43,-1270.75,-1604.23,2.1350199472122497
0,-1968.21,-510.97,-1268.92,-1610.36,2.1400199939270337
0,-1968.58,-510.04,-1267.41,-1606.5,2.1450200406418176
0,-1959.36,-508.96,-1266.63,-1602.19,2.1500200873566016
0,-1972.95,-514.94,-1272.54,-1614.63,2.1550201340713784
0,-1965.33,-514.28,-1270.57,-1602.33,2.1600201807861623
0,-1969.35,-509.84,-1270.98,-1604.37,2.1650202275009462
0,-1968.62,-511.47,-1263.04,-1598.1,2.17002027421573
0,-1959.99,-503.97,-1261.92,-1594.64,2.175020320930514
0,-1976.42,-513.89,-1271.66,-1602.64,2.180020367645298
0,-1975.79,-513.06,-1272.53,-1603.41,2.185020414360075
0,-1975.54,-506.63,-1271.18,-1600.41,2.190020461074859
0,-1972.27,-515.75,-1271.28,-1605.42,2.1950205077896427
0,-1974.4,-512.26,-1274.23,-1604.46,2.2000205545044267
0,-1968.21,-515.96,-1271.61,-1604.15,2.2050206012192106
0,-1975.78,-513.47,-1278.36,-1607.68,2.2100206479339946
0,-1979.87,-523.0,-1277.95,-1613.16,2.2150206946487785
0,-1978.11,-522.89,-1278.89,-1617.49,2.2200207413635553
0,-1967.73,-511.84,-1272.27,-1600.74,2.2250207880783393
0,-1962.14,-507.95,-1263.95,-1597.46,2.230020834793123
0,-1957.44,-510.19,-1258.04,-1593.23,2.235020881507907
0,-1957.12,-511.71,-1262.91,-1594.49,2.240020928222691
0,-1960.8,-505.76,-1267.53,-1595.11,2.245020974937475
0,-1970.53,-511.95,-1270.07,-1600.9,2.250021021652252
0,-1972.39,-514.18,-1269.11,-1604.57,2.2550210683670358
0,-1967.14,-510.46,-1265.92,-1607.11,2.2600211150818197
0,-1967.23,-507.79,-1270.22,-1609.71,2.2650211617966036
0,-1960.75,-505.37,-1267.11,-1604.79,2.2700212085113876
0,-1964.41,-502.03,-1261.46,-1595.81,2.2750212552261715
0,-1974.42,-509.26,-1266.18,-1604.58,2.2800213019409483
0,-1959.43,-500.87,-1256.87,-1592.71,2.2850213486557323
0,-1963.11,-504.72,-1257.53,-1590.25,2.290021395370516
0,-1968.58,-504.54,-1256.67,-1590.08,2.2950214420853
0,-1963.98,-500.06,-1258.06,-1586.38,2.300021488800084
0,-1961.95,-503.3,-1258.0,-1579.53,2.305021535514868
0,-1969.74,-511.1,-1267.26,-1594.36,2.310021582229645
0,-1956.62,-500.49,-1263.38,-1590.7,2.3150216289444288
0,-1955.52,-498.4,-1252.02,-1582.91,2.3200216756592127
0,-1956.13,-500.7,-1254.55,-1582.51,2.3250217223739966
0,-1953.03,-495.63,-1250.71,-1578.45,2.3300217690887806
0,-1952.39,-491.14,-1248.56,-1577.33,2.3350218158035645
0,-1956.77,-498.13,-1248.76,-1586.36,2.3400218625183413
0,-1954.79,-494.07,-1252.6,-1590.14,2.3450219092331253
0,-1954.76,-499.62,-1256.31,-1593.32,2.350021955947909
0,-1957.66,-498.98,-1257.76,-1593.87,2.355022002662693
0,-1951.88,-496.58,-1252.08,-1597.82,2.360022049377477
0,-1946.99,-491.9,-1254.46,-1595.31,2.365022096092261
0,-1952.16,-499.21,-1257.07,-1597.28,2.370022142807045
0,-1951.47,-495.33,-1251.75,-1588.97,2.3750221895218218
0,-1956.36,-503.48,-1261.75,-1593.23,2.3800222362366057
0,-1960.02,-508.82,-1260.96,-1594.06,2.3850222829513896
0,-1959.02,-506.1,-1265.96,-1592.21,2.3900223296661736
0,-1963.93,-506.41,-1265.2,-1595.54,2.3950223763809575
0,-1956.42,-500.86,-1255.92,-1585.46,2.4000224230957414
0,-1955.77,-496.62,-1250.15,-1579.5,2.4050224698105183
0,-1953.17,-499.59,-1250.73,-1582.86,2.410022516525302
0,-1957.87,-498.96,-1256.63,-1591.28,2.415022563240086
0,-1957.66,-494.81,-1253.65,-1591.48,2.42002260995487
0,-1957.72,-496.26,-1253.22,-1590.27,2.425022656669654
0,-1956.83,-501.42,-1256.94,-1594.11,2.430022703384438
0,-1968.07,-510.77,-1269.65,-1599.37,2.4350227500992148
0,-1964.97,-506.32,-1267.86,-1598.46,2.4400227968139987
0,-1973.31,-503.52,-1265.12,-1599.81,2.4450228435287826
0,-1963.12,-500.84,-1258.44,-1591.48,2.4500228902435666
0,-1965.19,-505.52,-1266.2,-1599.28,2.4550229369583505
0,-1972.17,-509.28,-1272.04,-1602.71,2.4600229836731344
0,-1962.99,-504.14,-1261.78,-1596.28,2.4650230303879113
0,-1972.13,-511.76,-1270.09,-1608.22,2.470023077102695
0,-1965.82,-513.05,-1268.74,-1600.58,2.475023123817479
0,-1962.69,-508.95,-1266.27,-1599.08,2.480023170532263
0,-1959.92,-511.04,-1265.66,-1600.74,2.485023217247047
0,-1965.28,-510.54,-1265.93,-1598.93,2.490023263961831
0,-1955.78,-503.91,-1261.65,-1589.3,2.4950233106766078
0,-1955.1,-502.57,-1258.88,-1587.35,2.5000233573913917
0,-1962.85,-505.76,-1265.02,-1597.64,2.5050234041061756
0,-1964.27,-503.87,-1258.89,-1596.46,2.5100234508209596
0,-1963.36,-508.4,-1269.51,-1600.52,2.5150234975357435
0,-1972.67,-513.16,-1272.2,-1602.17,2.5200235442505274
0,-1978.23,-511.59,-1274.95,-1604.47,2.5250235909653043
0,-1974.73,-512.8,-1274.2,-1603.46,2.530023637680088
0,-1973.66,-522.02,-1278.66,-1610.47,2.535023684394872
0,-1979.76,-522.29,-1282.17,-1614.14,2.540023731109656
0,-1987.42,-527.94,-1291.44,-1622.85,2.54502377782444
0,-1967.97,-520.38,-1278.8,-1607.01,2.550023824539224
0,-1972.87,-517.71,-1275.62,-1609.55,2.555023871254008
0,-1964.14,-512.37,-1269.48,-1597.28,2.5600239179687847
0,-1965.69,-507.45,-1267.34,-1596.43,2.5650239646835686
0,-1969.82,-517.05,-1276.32,-1601.26,2.5700240113983526
0,-1969.24,-510.14,-1271.48,-1595.3,2.5750240581131365
0,-1976.62,-518.15,-1278.14,-1600.83,2.5800241048279204
0,-1987.97,-521.89,-1285.01,-1609.91,2.5850241515427044
0,-1982.19,-518.98,-1277.81,-1608.47,2.590024198257481
0,-1980.82,-524.13,-1278.75,-1610.88,2.595024244972265
0,-1973.54,-514.66,-1270.07,-1599.16,2.600024291687049
0,-1958.37,-498.58,-1254.69,-1589.64,2.605024338401833
0,-1964.64,-499.06,-1255.56,-1589.2,2.610024385116617
0,-1958.99,-494.74,-1252.69,-1584.6,2.615024431831401
0,-1950.56,-492.33,-1251.31,-1579.88,2.6200244785461777
0,-1949.88,-491.8,-1248.55,-1580.41,2.6250245252609616
0,-1946.56,-494.16,-1248.68,-1577.97,2.6300245719757456
0,-1953.2,-496.27,-1253.64,-1586.5,2.6350246186905295
0,-1961.29,-501.02,-1256.97,-1587.07,2.6400246654053134
0,-1966.91,-504.26,-1259.85,-1596.56,2.6450247121200974
0,-1960.85,-500.64,-1257.46,-1596.6,2.650024758834874
0,-1961.92,-506.24,-1263.59,-1601.85,2.655024805549658
0,-1966.76,-505.87,-1261.67,-1600.27,2.660024852264442
0,-1957.82,-498.92,-1254.71,-1596.13,2.665024898979226
0,-1959.8,-500.29,-1258.26,-1604.32,2.67002494569401
0,-1967.31,-509.46,-1269.01,-1610.29,2.675024992408794
0,-1963.16,-506.78,-1266.5,-1601.95,2.6800250391235707
0,-1967.74,-507.83,-1262.61,-1602.94,2.6850250858383546
0,-1970.73,-508.81,-1269.49,-1600.58,2.6900251325531386
0,-1967.52,-510.29,-1271.37,-1604.21,2.6950251792679225
0,-1972.74,-509.62,-1267.43,-1608.46,2.7000252259827064
0,-1969.67,-501.69,-1266.38,-1599.41,2.7050252726974904
0,-1979.23,-515.74,-1279.32,-1611.75,2.7100253194122743
0,-1973.09,-513.3,-1278.0,-1608.49,2.715025366127051
0,-1974.38,-513.62,-1275.01,-1607.85,2.720025412841835
0,-1967.27,-514.11,-1274.3,-1611.3,2.725025459556619
0,-1972.83,-515.76,-1272.77,-1615.79,2.730025506271403
0,-1971.94,-514.07,-1271.44,-1608.76,2.735025552986187
0,-1971.92,-509.36,-1267.96,-1595.55,2.740025599700971
0,-1965.59,-502.74,-1262.3,-1592.26,2.7450256464157476
0,-1969.76,-510.57,-1269.19,-1601.64,2.7500256931305316
0,-1972.13,-509.81,-1270.54,-1597.05,2.7550257398453155
0,-1955.57,-505.74,-1258.2,-1589.37,2.7600257865600994
0,-1962.59,-503.65,-1259.96,-1594.22,2.7650258332748834
0,-1959.78,-504.64,-1263.94,-1597.41,2.7700258799896673
0,-1965.52,-508.01,-1265.37,-1605.1,2.775025926704444
0,-1967.56,-508.12,-1266.78,-1603.01,2.780025973419228
0,-1969.52,-515.71,-1271.79,-1604.45,2.785026020134012
0,-1958.25,-504.99,-1263.34,-1593.05,2.790026066848796
0,-1964.5,-503.24,-1256.92,-1588.87,2.79502611356358
0,-1959.76,-499.88,-1254.55,-1584.78,2.800026160278364
0,-1950.04,-491.96,-1246.73,-1575.31,2.8050262069931406
0,-1942.59,-496.62,-1247.27,-1579.79,2.8100262537079246
0,-1941.87,-485.66,-1242.92,-1574.07,2.8150263004227085
0,-1953.34,-496.63,-1247.96,-1580.81,2.8200263471374925
0,-1954.19,-497.49,-1250.9,-1583.13,2.8250263938522764
0,-1960.61,-503.81,-1256.85,-1586.42,2.8300264405670603
0,-1959.31,-510.09,-1264.0,-1589.72,2.835026487281837
0,-1961.42,-505.65,-1262.6,-1594.48,2.840026533996621
0,-1963.37,-504.36,-1261.68,-1591.47,2.845026580711405
0,-1969.65,-511.87,-1269.02,-1603.06,2.850026627426189
0,-1970.48,-516.42,-1280.86,-1605.77,2.855026674140973
0,-1978.8,-528.36,-1283.81,-1617.01,2.860026720855757
0,-1975.2,-520.24,-1275.08,-1612.41,2.8650267675705408
0,-1962.04,-505.12,-1264.92,-1600.13,2.8700268142853176
0,-1966.26,-507.46,-1262.05,-1601.14,2.8750268610001015
0,-1953.0,-494.26,-1252.75,-1590.06,2.8800269077148855
0,-1959.52,-502.12,-1254.9,-1592.63,2.8850269544296694
0,-1975.02,-514.01,-1275.81,-1604.6,2.8900270011444533
0,-1978.82,-513.79,-1277.65,-1608.78,2.8950270478592373
0,-1977.66,-513.24,-1279.23,-1611.11,2.900027094574014
0,-1980.6,-513.17,-1280.04,-1605.92,2.905027141288798
0,-1977.7,-511.19,-1274.61,-1609.39,2.910027188003582
0,-1980.92,-515.36,-1277.21,-1613.08,2.915027234718366
0,-1976.94,-510.9,-1274.8,-1612.27,2.92002728143315
0,-1979.1,-510.45,-1277.14,-1613.88,2.9250273281479338
0,-1970.53,-502.81,-1265.48,-1603.91,2.9300273748627106
0,-1973.75,-509.09,-1272.28,-1600.67,2.9350274215774945
0,-1976.89,-512.47,-1276.47,-1601.14,2.9400274682922785
0,-1972.96,-512.31,-1272.88,-1597.8,2.9450275150070624
0,-1975.35,-517.44,-1275.0,-1608.07,2.9500275617218463
0,-1974.66,-519.4,-1279.77,-1609.2,2.9550276084366303
0,-1974.48,-514.74,-1270.52,-1603.01,2.960027655151407
0,-1970.26,-512.71,-1268.01,-1604.06,2.965027701866191
0,-1959.27,-503.61,-1260.96,-1595.54,2.970027748580975
0,-1962.3,-508.49,-1258.44,-1595.73,2.975027795295759
0,-1961.44,-503.04,-1256.93,-1595.12,2.980027842010543
0,-1954.3,-500.4,-1258.95,-1596.32,2.9850278887253268
0,-1961.36,-501.39,-1259.48,-1593.24,2.9900279354401036
0,-1972.79,-510.7,-1271.44,-1593.17,2.9950279821548875
0,-1974.27,-517.11,-1274.56,-1597.14,3.0000280288696715
0,-1967.05,-512.03,-1272.03,-1593.52,3.0050280755844554
0,-1969.48,-510.65,-1266.07,-1591.74,3.0100281222992393
0,-1966.82,-509.18,-1262.38,-1592.14,3.0150281690140233
0,-1964.16,-504.88,-1260.89,-1592.83,3.020028215728807
0,-1971.31,-510.39,-1262.73,-1595.63,3.025028262443584
0,-1955.07,-497.93,-1254.7,-1586.07,3.030028309158368
0,-1948.04,-497.03,-1247.15,-1577.07,3.035028355873152
0,-1951.95,-498.75,-1251.82,-1586.95,3.040028402587936
0,-1948.5,-492.0,-1241.99,-1581.68,3.0450284493027198
0,-1954.44,-491.2,-1246.27,-1581.51,3.0500284960175037
0,-1960.25,-500.98,-1255.84,-1589.79,3.0550285427322805
0,-1960.26,-504.77,-1259.1,-1590.84,3.0600285894470645
0,-1961.08,-510.26,-1262.31,-1595.27,3.0650286361618484
0,-1967.04,-513.12,-1268.9,-1608.08,3.0700286828766323
0,-1953.49,-504.36,-1257.27,-1595.97,3.0750287295914163
0,-1964.11,-508.04,-1265.86,-1606.33,3.0800287763062
0,-1960.0,-499.8,-1262.08,-1601.81,3.085028823020977
0,-1955.91,-495.29,-1254.74,-1589.25,3.090028869735761
0,-1957.19,-501.46,-1255.96,-1596.27,3.095028916450545
0,-1962.77,-491.89,-1253.32,-1595.56,3.100028963165329
0,-1964.86,-495.54,-1261.35,-1595.75,3.1050290098801128
0,-1965.68,-493.33,-1255.29,-1591.88,3.1100290565948967
0,-1953.83,-488.76,-1254.47,-1592.63,3.1150291033096735
0,-1949.32,-489.04,-1247.92,-1586.35,3.1200291500244575
0,-1954.84,-489.94,-1251.01,-1590.15,3.1250291967392414
0,-1959.13,-498.83,-1256.61,-1595.74,3.1300292434540253
0,-1962.72,-501.19,-1261.94,-1599.76,3.1350292901688093
0,-1966.22,-512.15,-1265.4,-1602.66,3.140029336883593
0,-1965.82,-507.2,-1261.54,-1602.76,3.14502938359837
0,-1965.18,-503.13,-1260.09,-1595.63,3.150029430313154
0,-1964.02,-502.84,-1260.76,-1593.58,3.155029477027938
0,-1962.26,-497.39,-1257.9,-1595.09,3.160029523742722
0,-1971.79,-508.74,-1273.02,-1605.0,3.1650295704575058
0,-1966.07,-509.2,-1269.6,-1605.21,3.1700296171722897
0,-1970.94,-514.59,-1271.64,-1605.57,3.1750296638870736
0,-1979.19,-524.03,-1281.39,-1613.63,3.1800297106018505
0,-1984.48,-523.73,-1282.69,-1614.5,3.1850297573166344
0,-1981.83,-530.01,-1290.11,-1626.04,3.1900298040314183
0,-1980.36,-532.54,-1289.4,-1620.45,3.1950298507462023
0,-1974.09,-514.82,-1279.09,-1613.8,3.200029897460986
0,-1974.53,-516.45,-1273.18,-1612.87,3.20502994417577
0,-1976.76,-514.43,-1271.58,-1613.41,3.210029990890547
0,-1967.34,-514.33,-1269.66,-1601.87,3.215030037605331
0,-1978.19,-513.45,-1273.66,-1607.04,3.220030084320115
0,-1977.28,-517.36,-1276.12,-1605.76,3.2250301310348988
0,-1958.27,-504.45,-1261.63,-1595.33,3.2300301777496827
0,-1960.63,-505.92,-1261.81,-1595.83,3.2350302244644666
0,-1965.15,-503.3,-1262.8,-1591.43,3.2400302711792435
0,-1969.78,-511.52,-1266.59,-1601.16,3.2450303178940274
0,-1969.55,-514.51,-1269.56,-1600.24,3.2500303646088113
0,-1955.69,-504.48,-1258.02,-1589.95,3.2550304113235953
0,-1963.38,-502.37,-1263.57,-1594.03,3.260030458038379
0,-1974.98,-515.73,-1270.47,-1604.38,3.265030504753163
0,-1966.55,-506.17,-1263.37,-1593.69,3.27003055146794
0,-1976.29,-511.49,-1269.31,-1602.38,3.275030598182724
0,-1970.4,-512.77,-1268.32,-1605.93,3.280030644897508
0,-1969.77,-512.07,-1272.47,-1614.24,3.2850306916122918
0,-1963.18,-505.05,-1266.5,-1601.96,3.2900307383270757
0,-1970.42,-506.96,-1260.11,-1605.17,3.2950307850418596
0,-1954.81,-495.13,-1250.33,-1596.73,3.3000308317566365
0,-1946.82,-496.48,-1250.17,-1584.2,3.3050308784714204
0,-1961.95,-503.59,-1260.79,-1598.37,3.3100309251862043
0,-1952.12,-499.81,-1251.11,-1593.6,3.3150309719009883
0,-1962.92,-509.17,-1271.2,-1605.83,3.320031018615772
0,-1962.64,-506.13,-1261.31,-1596.11,3.325031065330556
0,-1958.71,-502.67,-1259.75,-1592.94,3.330031112045333
0,-1959.82,-501.33,-1262.37,-1593.18,3.335031158760117
0,-1966.13,-506.25,-1265.76,-1599.72,3.340031205474901
0,-1965.02,-511.66,-1272.19,-1608.39,3.345031252189685
0,-1957.19,-501.25,-1261.53,-1602.2,3.3500312989044687
0,-1965.26,-511.57,-1269.02,-1603.32,3.3550313456192526
0,-1972.44,-510.21,-1267.38,-1603.54,3.3600313923340366
0,-1972.54,-511.12,-1273.49,-1604.15,3.3650314390488134
0,-1967.25,-503.99,-1265.43,-1594.41,3.3700314857635973
0,-1957.62,-496.0,-1259.13,-1589.07,3.3750315324783813
0,-1955.42,-495.85,-1252.14,-1587.65,3.380031579193165
0,-1955.11,-500.24,-1258.69,-1595.67,3.385031625907949
0,-1948.05,-498.37,-1254.9,-1584.81,3.390031672622733
0,-1953.99,-500.04,-1255.33,-1582.36,3.39503171933751
0,-1960.28,-501.96,-1255.62,-1586.99,3.400031766052294
0,-1954.85,-495.94,-1250.79,-1587.85,3.405031812767078
0,-1955.88,-494.77,-1254.39,-1592.01,3.4100318594818617
0,-1955.18,-493.3,-1255.79,-1591.19,3.4150319061966457
0,-1952.75,-494.17,-1247.43,-1587.08,3.4200319529114296
0,-1951.37,-499.81,-1253.23,-1588.54,3.4250319996262064
0,-1963.75,-506.37,-1262.98,-1599.13,3.4300320463409903
0,-1953.94,-497.92,-1256.09,-1589.64,3.4350320930557743
0,-1964.62,-505.22,-1263.18,-1596.63,3.440032139770558
0,-1964.85,-509.37,-1262.8,-1605.28,3.445032186485342
0,-1964.58,-516.66,-1270.49,-1609.19,3.450032233200126
0,-1969.98,-515.55,-1275.53,-1608.15,3.455032279914903
0,-1970.62,-503.9,-1272.26,-1605.9,3.460032326629687
0,-1973.37,-512.6,-1272.49,-1608.74,3.465032373344471
0,-1972.22,-508.27,-1268.56,-1602.75,3.4700324200592547
0,-1967.8,-512.7,-1267.68,-1605.24,3.4750324667740387
0,-1973.1,-513.06,-1269.89,-1610.66,3.4800325134888226
0,-1962.42,-508.37,-1266.26,-1610.05,3.4850325602035994
0,-1968.51,-513.53,-1268.41,-1613.97,3.4900326069183834
0,-1963.14,-502.47,-1262.84,-1607.02,3.4950326536331673
0,-1959.8,-498.26,-1257.93,-1601.75,3.500032700347951
0,-1954.71,-500.95,-1255.88,-1596.72,3.505032747062735
0,-1964.16,-511.78,-1265.93,-1598.43,3.510032793777519
0,-1970.0,-507.65,-1264.66,-1604.91,3.515032840492303
0,-1966.6,-504.89,-1267.64,-1611.32,3.52003288720708
0,-1966.96,-508.88,-1266.78,-1604.09,3.525032933921864
0,-1969.16,-510.69,-1266.09,-1603.33,3.5300329806366477
0,-1972.18,-505.46,-1269.07,-1601.42,3.5350330273514317
0,-1970.32,-505.25,-1266.62,-1602.34,3.5400330740662156
0,-1972.82,-511.56,-1273.62,-1605.51,3.5450331207809995
0,-1964.63,-512.51,-1268.82,-1598.39,3.5500331674957764
0,-1954.21,-494.89,-1251.35,-1586.3,3.5550332142105603
0,-1953.1,-491.26,-1252.05,-1585.35,3.5600332609253442
0,-1953.62,-491.68,-1250.72,-1581.42,3.565033307640128
0,-1949.71,-491.73,-1255.41,-1590.69,3.570033354354912
0,-1960.72,-496.91,-1260.55,-1594.47,3.575033401069696
0,-1967.76,-498.89,-1263.06,-1597.13,3.580033447784473
0,-1962.72,-501.49,-1260.57,-1594.82,3.585033494499257
0,-1967.1,-511.54,-1265.16,-1597.1,3.5900335412140407
0,-1976.81,-512.16,-1271.85,-1602.39,3.5950335879288247
0,-1960.85,-506.72,-1264.25,-1593.81,3.6000336346436086
0,-1969.94,-507.54,-1268.49,-1603.05,3.6050336813583925
0,-1966.15,-503.17,-1261.93,-1598.3,3.6100337280731694
0,-1966.86,-505.28,-1267.76,-1603.18,3.6150337747879533
0,-1973.76,-517.71,-1272.86,-1609.84,3.6200338215027372
0,-1974.11,-518.16,-1277.38,-1613.5,3.625033868217521
0,-1973.54,-510.84,-1273.18,-1610.18,3.630033914932305
0,-1973.25,-510.23,-1271.32,-1607.06,3.635033961647089
0,-1973.59,-514.4,-1274.54,-1606.95,3.640034008361866
0,-1973.7,-515.47,-1277.27,-1605.44,3.64503405507665
0,-1971.9,-511.75,-1271.34,-1601.33,3.6500341017914337
0,-1973.92,-513.65,-1270.22,-1600.19,3.6550341485062177
0,-1969.53,-508.02,-1266.82,-1599.73,3.6600341952210016
0,-1967.94,-509.14,-1267.41,-1602.06,3.6650342419357855
0,-1961.38,-500.75,-1259.34,-1591.72,3.6700342886505695
0,-1970.03,-509.37,-1266.27,-1597.83,3.6750343353653463
0,-1964.38,-506.11,-1264.28,-1599.61,3.6800343820801302
0,-1962.53,-510.01,-1264.14,-1602.78,3.685034428794914
0,-1963.74,-509.09,-1264.77,-1601.18,3.690034475509698
0,-1969.86,-515.8,-1267.74,-1598.83,3.695034522224482
0,-1972.66,-513.76,-1266.93,-1599.97,3.700034568939266
0,-1960.91,-508.24,-1261.91,-1590.3,3.705034615654043
0,-1965.58,-507.8,-1266.88,-1596.2,3.7100346623688267
0,-1956.98,-507.05,-1259.6,-1589.95,3.7150347090836107
0,-1970.24,-515.91,-1266.68,-1597.93,3.7200347557983946
0,-1971.83,-513.79,-1268.5,-1602.55,3.7250348025131785
0,-1966.67,-512.91,-1267.89,-1600.69,3.7300348492279625
0,-1960.62,-510.05,-1263.27,-1593.65,3.7350348959427393
0,-1961.65,-501.52,-1260.6,-1591.73,3.7400349426575232
0,-1959.15,-505.74,-1263.62,-1591.71,3.745034989372307
0,-1950.93,-497.83,-1254.9,-1587.23,3.750035036087091
0,-1964.66,-500.03,-1259.69,-1593.21,3.755035082801875
0,-1963.63,-502.82,-1256.96,-1593.34,3.760035129516659
0,-1965.0,-501.39,-1259.44,-1595.93,3.765035176231436
0,-1964.34,-502.87,-1255.83,-1590.52,3.7700352229462197
0,-1962.84,-507.22,-1261.29,-1597.32,3.7750352696610037
0,-1962.89,-505.36,-1262.93,-1597.39,3.7800353163757876
0,-1961.16,-501.58,-1261.15,-1598.52,3.7850353630905715
0,-1961.65,-499.64,-1259.96,-1593.72,3.7900354098053555
0,-1960.06,-500.08,-1261.23,-1595.91,3.7950354565201323
0,-1966.97,-504.61,-1264.58,-1595.63,3.8000355032349162
0,-1974.86,-507.9,-1270.37,-1602.8,3.8050355499497
0,-1963.51,-500.48,-1263.18,-1596.17,3.810035596664484
0,-1966.07,-502.35,-1264.84,-1599.91,3.815035643379268
0,-1968.04,-496.3,-1261.73,-1602.65,3.820035690094052
0,-1965.51,-504.61,-1265.0,-1605.73,3.825035736808836
0,-1963.6,-507.75,-1267.54,-1599.93,3.8300357835236127
0,-1964.33,-511.92,-1268.1,-1595.62,3.8350358302383967
0,-1962.94,-510.21,-1267.08,-1594.04,3.8400358769531806
0,-1964.69,-509.75,-1265.26,-1592.8,3.8450359236679645
0,-1967.38,-511.44,-1274.36,-1598.9,3.8500359703827485
0,-1966.8,-515.66,-1273.85,-1600.6,3.8550360170975324
0,-1974.73,-513.21,-1271.52,-1604.98,3.8600360638123092
0,-1975.91,-519.74,-1272.3,-1612.8,3.865036110527093
0,-1977.77,-520.25,-1278.37,-1613.13,3.870036157241877
0,-1978.32,-523.76,-1277.31,-1617.56,3.875036203956661
0,-1969.46,-517.88,-1278.14,-1614.1,3.880036250671445
0,-1974.8,-520.12,-1276.45,-1610.32,3.885036297386229
0,-1966.5,-512.23,-1271.24,-1610.14,3.8900363441010057
0,-1976.88,-515.33,-1273.1,-1606.3,3.8950363908157897
0,-1979.58,-518.28,-1282.14,-1613.06,3.9000364375305736
0,-1984.3,-528.36,-1285.44,-1619.3,3.9050364842453575
0,-1980.05,-520.06,-1280.88,-1613.37,3.9100365309601415
0,-1977.46,-521.39,-1277.67,-1608.63,3.9150365776749254
0,-1974.1,-520.68,-1274.55,-1608.66,3.9200366243897022
0,-1970.42,-514.98,-1268.94,-1596.85,3.925036671104486
0,-1959.29,-510.98,-1264.8,-1591.8,3.93003671781927
0,-1966.11,-512.51,-1268.6,-1597.6,3.935036764534054
0,-1966.26,-504.37,-1262.33,-1599.33,3.940036811248838
0,-1968.06,-511.24,-1270.0,-1607.47,3.945036857963622
0,-1976.01,-515.22,-1273.28,-1610.66,3.9500369046783987
0,-1971.36,-516.34,-1275.21,-1609.45,3.9550369513931827
0,-1968.31,-509.62,-1268.38,-1598.87,3.9600369981079666
0,-1965.5,-503.78,-1264.48,-1594.84,3.9650370448227505
0,-1961.7,-501.75,-1257.4,-1596.47,3.9700370915375345
0,-1965.15,-507.31,-1267.86,-1601.88,3.9750371382523184
0,-1969.31,-508.52,-1272.01,-1610.95,3.9800371849670952
0,-1969.58,-505.69,-1261.96,-1602.46,3.985037231681879
0,-1968.44,-504.84,-1266.93,-1597.96,3.990037278396663
0,-1968.71,-510.37,-1269.75,-1608.18,3.995037325111447
0,-1964.66,-503.86,-1262.45,-1603.29,4.000037371826231
0,-1963.26,-504.23,-1260.09,-1605.03,4.005037418541015
0,-1959.78,-498.73,-1259.52,-1593.67,4.010037465255799
0,-1958.43,-496.68,-1251.91,-1591.82,4.015037511970576
0,-1949.41,-497.63,-1252.23,-1585.02,4.02003755868536
0,-1956.34,-502.95,-1254.79,-1586.13,4.0250376054001435
0,-1969.29,-512.13,-1265.03,-1598.56,4.0300376521149275
0,-1964.8,-512.17,-1264.36,-1594.45,4.035037698829711
0,-1955.63,-506.96,-1258.47,-1593.33,4.040037745544495
0,-1964.88,-511.43,-1262.36,-1603.52,4.045037792259272
0,-1960.27,-510.58,-1263.05,-1604.35,4.050037838974056
0,-1961.41,-509.4,-1264.05,-1599.8,4.05503788568884
0,-1957.86,-504.34,-1254.32,-1597.78,4.060037932403624
0,-1965.13,-508.82,-1262.42,-1597.3,4.065037979118408
0,-1971.57,-511.11,-1275.0,-1604.16,4.070038025833192
0,-1977.52,-514.42,-1272.91,-1608.41,4.075038072547969
0,-1974.21,-513.98,-1275.35,-1600.55,4.080038119262753
0,-1974.88,-510.23,-1272.05,-1597.42,4.0850381659775366
0,-1968.13,-509.45,-1267.64,-1599.62,4.0900382126923205
0,-1965.95,-508.87,-1264.11,-1594.93,4.095038259407104
0,-1961.83,-501.89,-1258.76,-1593.31,4.100038306121888
0,-1960.28,-500.61,-1257.57,-1599.48,4.105038352836665
0,-1956.23,-503.8,-1257.84,-1599.18,4.110038399551449
0,-1962.1,-501.04,-1258.17,-1599.71,4.115038446266233
0,-1966.04,-500.16,-1264.5,-1601.93,4.120038492981017
0,-1962.29,-494.12,-1253.9,-1596.35,4.125038539695801
0,-1965.72,-502.13,-1258.46,-1596.79,4.130038586410585
0,-1963.85,-501.43,-1260.19,-1596.64,4.135038633125362
0,-1960.34,-491.65,-1251.3,-1590.61,4.140038679840146
0,-1967.84,-490.83,-1255.68,-1594.43,4.1450387265549296
0,-1960.13,-490.39,-1254.93,-1593.53,4.1500387732697135
0,-1961.64,-497.04,-1263.44,-1596.82,4.155038819984497
0,-1957.49,-492.75,-1255.15,-1593.51,4.160038866699281
0,-1950.14,-490.32,-1250.26,-1585.3,4.165038913414065
0,-1955.44,-500.74,-1259.44,-1585.82,4.170038960128842
0,-1955.93,-493.76,-1251.65,-1587.52,4.175039006843626
0,-1961.97,-503.06,-1256.59,-1594.7,4.18003905355841
0,-1956.15,-493.15,-1251.68,-1588.79,4.185039100273194
0,-1964.52,-507.49,-1264.88,-1599.28,4.190039146987978
0,-1973.64,-516.03,-1274.68,-1607.0,4.195039193702762
0,-1971.93,-519.18,-1269.53,-1602.16,4.200039240417539
0,-1965.69,-517.84,-1268.13,-1602.82,4.205039287132323
0,-1971.28,-519.64,-1270.33,-1602.36,4.2100393338471065
0,-1975.45,-523.25,-1281.45,-1610.26,4.21503938056189
0,-1973.7,-515.22,-1267.93,-1604.32,4.220039427276674
0,-1977.47,-515.29,-1274.0,-1602.05,4.225039473991458
0,-1972.95,-518.3,-1277.89,-1599.86,4.230039520706235
0,-1972.6,-509.03,-1271.28,-1598.93,4.235039567421019
0,-1975.73,-506.47,-1270.22,-1599.14,4.240039614135803
0,-1971.96,-516.25,-1269.92,-1607.76,4.245039660850587
0,-1968.67,-515.15,-1268.33,-1600.8,4.250039707565371
0,-1970.23,-511.98,-1267.24,-1600.37,4.255039754280155
0,-1971.48,-515.12,-1271.8,-1600.59,4.260039800994932
0,-1963.02,-508.74,-1263.46,-1594.52,4.265039847709716
0,-1956.56,-503.85,-1264.2,-1592.04,4.2700398944244995
0,-1965.96,-510.36,-1268.38,-1600.31,4.275039941139283
0,-1959.11,-500.75,-1257.49,-1597.48,4.280039987854067
0,-1960.62,-506.58,-1262.71,-1595.63,4.285040034568851
0,-1955.64,-504.33,-1257.37,-1596.77,4.290040081283628
0,-1971.27,-513.41,-1274.19,-1604.2,4.295040127998412
0,-1974.42,-512.48,-1274.14,-1605.45,4.300040174713196
0,-1972.72,-516.72,-1273.17,-1609.16,4.30504022142798
0,-1973.93,-524.28,-1278.01,-1607.84,4.310040268142764
1,-1971.75,-511.56,-1272.02,-1606.47,4.315040314857548
0,-1963.04,-507.12,-1267.41,-1603.13,4.320040361572332
0,-1963.81,-506.63,-1268.13,-1601.27,4.325040408287109
0,-1969.52,-509.99,-1273.45,-1604.26,4.3300404550018925
0,-1969.77,-505.42,-1266.14,-1603.08,4.335040501716676
0,-1963.1,-502.49,-1264.5,-1593.12,4.34004054843146
0,-1967.91,-505.7,-1270.42,-1601.63,4.345040595146244
0,-1962.5,-505.4,-1261.59,-1598.33,4.350040641861028
0,-1968.23,-507.73,-1262.7,-1595.76,4.355040688575805
0,-1963.8,-500.26,-1261.69,-1596.14,4.360040735290589
0,-1957.63,-498.61,-1258.91,-1587.78,4.365040782005373
0,-1968.56,-508.51,-1267.43,-1591.96,4.370040828720157
0,-1970.61,-509.99,-1268.54,-1597.73,4.375040875434941
0,-1967.53,-514.14,-1269.59,-1601.09,4.380040922149725
0,-1966.84,-505.51,-1263.14,-1590.79,4.385040968864502
0,-1962.98,-505.68,-1262.53,-1593.38,4.3900410155792855
0,-1961.96,-503.26,-1256.18,-1592.19,4.395041062294069
0,-1964.66,-505.43,-1261.8,-1596.15,4.400041109008853
0,-1965.53,-504.79,-1261.14,-1594.31,4.405041155723637
0,-1966.32,-502.35,-1267.27,-1594.55,4.410041202438421
0,-1972.4,-507.69,-1261.12,-1592.9,4.415041249153198
0,-1960.07,-503.07,-1255.27,-1586.56,4.420041295867982
0,-1963.95,-499.42,-1256.13,-1588.61,4.425041342582766
0,-1956.73,-494.35,-1250.28,-1588.58,4.43004138929755
0,-1958.38,-503.83,-1259.27,-1595.2,4.435041436012334
0,-1959.18,-504.68,-1256.72,-1590.68,4.440041482727118
0,-1952.64,-495.17,-1245.59,-1583.99,4.445041529441895
0,-1954.91,-495.42,-1252.25,-1592.84,4.4500415761566785
0,-1969.32,-506.54,-1261.69,-1599.71,4.455041622871462
0,-1958.6,-500.57,-1257.79,-1597.54,4.460041669586246
0,-1954.9,-502.71,-1259.14,-1590.23,4.46504171630103
0,-1965.49,-508.19,-1267.09,-1601.64,4.470041763015814
0,-1962.52,-502.37,-1257.71,-1596.64,4.475041809730598
0,-1959.55,-500.51,-1256.78,-1601.19,4.480041856445375
0,-1969.61,-512.57,-1276.45,-1609.77,4.485041903160159
0,-1976.26,-519.12,-1279.55,-1617.0,4.490041949874943
0,-1978.75,-515.0,-1279.31,-1617.52,4.495041996589727
0,-1981.48,-516.27,-1281.12,-1619.44,4.500042043304511
0,-1974.6,-521.23,-1280.57,-1612.73,4.505042090019295
0,-1972.69,-521.85,-1273.35,-1608.17,4.5100421367340715
0,-1969.69,-520.64,-1277.47,-1605.61,4.515042183448855
0,-1974.31,-518.22,-1277.58,-1607.18,4.520042230163639
0,-1983.65,-522.03,-1281.53,-1609.09,4.525042276878423
0,-1982.59,-521.39,-1282.37,-1610.96,4.530042323593207
0,-1971.7,-513.15,-1270.98,-1597.82,4.535042370307991
0,-1975.48,-514.16,-1270.44,-1604.47,4.540042417022768
0,-1979.34,-517.99,-1275.72,-1605.65,4.545042463737552
0,-1968.15,-510.9,-1268.4,-1599.07,4.550042510452336
0,-1964.98,-507.96,-1263.32,-1598.58,4.55504255716712
0,-1962.63,-507.52,-1259.4,-1594.53,4.560042603881904
0,-1964.72,-506.51,-1262.47,-1594.17,4.565042650596688
0,-1959.98,-505.69,-1258.56,-1594.2,4.5700426973114645
0,-1966.04,-508.27,-1264.28,-1591.7,4.575042744026248
0,-1966.23,-511.07,-1263.82,-1600.63,4.580042790741032
0,-1966.67,-509.49,-1267.48,-1597.01,4.585042837455816
0,-1968.32,-508.91,-1260.63,-1598.13,4.5900428841706
0,-1968.54,-508.69,-1266.23,-1599.84,4.595042930885384
0,-1955.33,-500.58,-1258.08,-1596.87,4.600042977600161
0,-1952.16,-500.67,-1257.25,-1596.04,4.605043024314945
0,-1963.07,-507.25,-1261.95,-1599.59,4.610043071029729
0,-1965.1,-505.5,-1266.86,-1607.22,4.615043117744513
0,-1971.42,-508.36,-1271.91,-1612.23,4.620043164459297
0,-1969.11,-509.55,-1271.62,-1611.62,4.625043211174081
0,-1966.88,-510.08,-1268.46,-1605.05,4.630043257888865
0,-1967.11,-508.19,-1267.39,-1611.88,4.6350433046036414
0,-1971.57,-511.63,-1271.2,-1609.63,4.640043351318425
0,-1967.68,-507.58,-1265.53,-1602.0,4.645043398033209
0,-1968.39,-506.35,-1265.52,-1597.93,4.650043444747993
0,-1972.15,-513.59,-1269.24,-1603.26,4.655043491462777
0,-1968.93,-509.46,-1264.83,-1604.1,4.660043538177561
0,-1969.47,-506.8,-1270.52,-1603.41,4.665043584892338
0,-1975.1,-509.29,-1269.76,-1597.35,4.670043631607122
0,-1963.99,-508.3,-1261.29,-1595.1,4.675043678321906
0,-1963.07,-503.48,-1264.99,-1595.91,4.68004372503669
0,-1962.8,-502.73,-1264.5,-1597.21,4.685043771751474
0,-1959.7,-500.86,-1259.61,-1594.45,4.690043818466258
0,-1956.38,-497.16,-1254.62,-1586.21,4.6950438651810344
0,-1959.59,-501.84,-1253.16,-1585.29,4.700043911895818
0,-1961.53,-505.45,-1261.09,-1587.42,4.705043958610602
0,-1957.2,-499.89,-1253.31,-1581.96,4.710044005325386
0,-1964.75,-503.99,-1261.23,-1584.58,4.71504405204017
0,-1966.33,-505.34,-1261.09,-1594.53,4.720044098754954
0,-1967.45,-500.35,-1258.23,-1586.88,4.725044145469731
0,-1965.02,-507.03,-1265.14,-1588.14,4.730044192184515
0,-1957.9,-499.23,-1255.22,-1586.43,4.735044238899299
0,-1960.65,-507.19,-1258.36,-1589.35,4.740044285614083
0,-1965.12,-511.52,-1264.3,-1594.81,4.745044332328867
0,-1968.9,-509.81,-1270.33,-1603.43,4.750044379043651
0,-1961.74,-514.33,-1263.14,-1602.54,4.7550444257584275
0,-1968.26,-515.76,-1271.29,-1605.05,4.760044472473211
0,-1969.96,-517.61,-1274.77,-1609.59,4.765044519187995
0,-1972.6,-520.33,-1274.72,-1607.28,4.770044565902779
0,-1965.25,-509.77,-1266.22,-1600.16,4.775044612617563
0,-1967.67,-502.1,-1263.12,-1594.14,4.780044659332347
0,-1953.92,-494.27,-1249.71,-1580.88,4.785044706047124
0,-1946.29,-483.01,-1238.25,-1575.44,4.790044752761908
0,-1945.16,-473.55,-1239.1,-1575.24,4.795044799476692
0,-1949.94,-479.65,-1242.26,-1574.04,4.800044846191476
0,-1947.75,-478.38,-1242.98,-1574.82,4.80504489290626
0,-1955.37,-489.76,-1245.97,-1582.37,4.810044939621044
0,-1951.98,-484.57,-1247.84,-1583.06,4.815044986335828
0,-1953.93,-490.61,-1250.59,-1587.51,4.820045033050604
0,-1972.14,-508.82,-1269.54,-1608.73,4.825045079765388
0,-1979.6,-519.47,-1276.7,-1615.07,4.830045126480172
0,-1975.76,-514.36,-1278.23,-1617.71,4.835045173194956
0,-1985.63,-523.5,-1286.4,-1624.75,4.84004521990974
0,-1989.63,-527.12,-1291.16,-1633.55,4.845045266624524
0,-1976.59,-514.89,-1278.62,-1614.22,4.850045313339301
0,-1974.86,-509.98,-1277.01,-1612.96,4.855045360054085
0,-1973.45,-510.59,-1272.86,-1604.56,4.860045406768869
0,-1965.04,-505.65,-1263.98,-1597.14,4.865045453483653
0,-1965.89,-512.28,-1268.94,-1605.97,4.870045500198437
0,-1965.39,-510.14,-1269.81,-1601.97,4.875045546913221
0,-1968.25,-512.82,-1274.19,-1606.79,4.880045593627997
0,-1968.44,-522.37,-1279.43,-1602.45,4.885045640342781
0,-1977.89,-523.92,-1280.49,-1600.97,4.890045687057565
0,-1981.84,-530.7,-1284.81,-1601.55,4.895045733772349
0,-1978.01,-526.58,-1286.26,-1596.42,4.900045780487133
0,-1989.66,-530.21,-1291.01,-1607.38,4.905045827201917
0,-1984.74,-524.96,-1284.83,-1605.31,4.910045873916694
0,-1991.08,-526.75,-1286.77,-1614.1,4.915045920631478
0,-1985.7,-526.96,-1283.77,-1614.67,4.920045967346262
0,-1977.07,-525.56,-1282.18,-1607.27,4.925046014061046
0,-1960.51,-513.35,-1263.51,-1593.41,4.93004606077583
0,-1972.45,-517.18,-1267.86,-1601.17,4.935046107490614
0,-1959.04,-510.73,-1255.46,-1590.86,4.94004615420539
0,-1955.82,-500.16,-1253.49,-1582.92,4.945046200920174
0,-1953.55,-497.66,-1256.27,-1586.61,4.950046247634958
0,-1958.8,-502.42,-1260.35,-1599.4,4.955046294349742
0,-1958.19,-498.59,-1254.79,-1594.84,4.960046341064526
0,-1961.13,-504.92,-1260.51,-1603.11,4.96504638777931
0,-1956.25,-506.88,-1260.15,-1602.35,4.970046434494094
0,-1952.15,-501.19,-1252.89,-1599.3,4.975046481208871
0,-1954.83,-506.9,-1262.51,-1602.04,4.980046527923655
0,-1968.09,-508.03,-1265.2,-1611.52,4.985046574638439
0,-1958.19,-495.3,-1256.15,-1599.14,4.990046621353223
0,-1956.77,-492.51,-1252.49,-1593.89,4.995046668068007
0,-1959.84,-495.46,-1256.07,-1594.36,5.0000467147827905
0,-1955.17,-484.46,-1248.0,-1587.16,5.005046761497567
0,-1963.03,-494.87,-1258.48,-1598.5,5.010046808212351
0,-1962.27,-496.72,-1256.28,-1592.71,5.015046854927135
0,-1960.96,-502.67,-1261.3,-1603.23,5.020046901641919
0,-1970.39,-511.58,-1267.76,-1612.15,5.025046948356703
0,-1965.32,-509.79,-1261.72,-1605.68,5.030046995071487
0,-1972.44,-512.48,-1266.52,-1611.71,5.035047041786264
0,-1970.53,-509.53,-1268.22,-1606.45,5.040047088501048
0,-1967.39,-507.6,-1265.9,-1600.27,5.045047135215832
0,-1968.54,-511.12,-1263.93,-1601.68,5.050047181930616
0,-1969.03,-511.52,-1266.72,-1604.44,5.0550472286454
0,-1970.58,-514.62,-1273.22,-1607.74,5.0600472753601835
0,-1968.23,-515.64,-1268.99,-1607.7,5.06504732207496
0,-1964.03,-505.29,-1270.8,-1602.74,5.070047368789744
0,-1966.65,-504.28,-1266.72,-1605.38,5.075047415504528
0,-1962.87,-503.23,-1264.62,-1605.32,5.080047462219312
0,-1968.55,-511.12,-1265.93,-1611.99,5.085047508934096
0,-1962.72,-507.39,-1262.17,-1600.65,5.09004755564888
0,-1956.52,-501.64,-1255.82,-1588.97,5.095047602363657
0,-1961.37,-503.24,-1260.08,-1596.63,5.100047649078441
0,-1968.86,-516.21,-1275.01,-1603.28,5.105047695793225
0,-1968.61,-515.24,-1269.95,-1604.59,5.110047742508009
0,-1967.87,-516.18,-1269.73,-1604.88,5.115047789222793
0,-1962.56,-515.57,-1269.37,-1609.59,5.1200478359375765
0,-1973.18,-517.33,-1272.73,-1613.14,5.12504788265236
0,-1977.39,-514.87,-1275.74,-1612.57,5.130047929367137
0,-1968.72,-506.92,-1272.54,-1604.7,5.135047976081921
0,-1965.4,-505.73,-1267.09,-1598.81,5.140048022796705
0,-1964.18,-504.21,-1263.56,-1596.25,5.145048069511489
0,-1958.15,-501.16,-1260.99,-1591.86,5.150048116226273
0,-1961.06,-501.17,-1261.15,-1592.5,5.155048162941057
0,-1963.5,-509.99,-1264.15,-1600.08,5.160048209655834
0,-1964.92,-502.62,-1265.94,-1606.34,5.165048256370618
0,-1961.64,-504.41,-1258.79,-1601.8,5.170048303085402
0,-1964.72,-500.85,-1259.42,-1598.0,5.175048349800186
0,-1960.24,-496.27,-1254.5,-1589.1,5.1800483965149695
0,-1965.02,-499.78,-1253.58,-1587.63,5.1850484432297534
0,-1961.32,-499.92,-1259.61,-1589.3,5.19004848994453
0,-1961.26,-501.13,-1256.95,-1593.29,5.195048536659314
0,-1963.15,-504.41,-1267.21,-1603.56,5.200048583374098
0,-1968.68,-511.83,-1267.91,-1602.41,5.205048630088882
0,-1967.97,-511.44,-1267.78,-1600.37,5.210048676803666
0,-1961.34,-506.73,-1262.2,-1596.01,5.21504872351845
0,-1956.06,-503.27,-1253.71,-1588.49,5.220048770233227
0,-1956.18,-499.82,-1249.71,-1586.21,5.225048816948011
0,-1951.23,-503.8,-1255.7,-1591.13,5.230048863662795
0,-1956.18,-505.7,-1254.4,-1590.19,5.235048910377579
0,-1959.93,-501.73,-1256.08,-1585.48,5.2400489570923625
0,-1966.08,-502.7,-1261.67,-1590.71,5.2450490038071464
0,-1965.11,-506.78,-1262.9,-1592.35,5.250049050521923
0,-1967.23,-514.88,-1270.45,-1600.5,5.255049097236707
0,-1975.2,-523.09,-1274.25,-1613.79,5.260049143951491
0,-1983.44,-522.13,-1284.23,-1614.17,5.265049190666275
0,-1975.29,-520.53,-1277.23,-1608.47,5.270049237381059
0,-1973.86,-514.88,-1279.17,-1603.52,5.275049284095843
0,-1969.35,-502.33,-1266.4,-1604.1,5.280049330810627
0,-1959.29,-497.34,-1260.87,-1598.93,5.285049377525404
0,-1960.96,-498.28,-1259.11,-1594.53,5.290049424240188
0,-1968.93,-501.2,-1260.58,-1595.94,5.295049470954972
0,-1962.19,-508.1,-1264.07,-1593.73,5.3000495176697555
0,-1969.3,-514.45,-1272.95,-1601.94,5.3050495643845395
0,-1976.68,-517.93,-1278.91,-1609.39,5.310049611099323
0,-1973.98,-520.65,-1278.0,-1606.24,5.3150496578141
0,-1975.37,-523.19,-1276.25,-1609.09,5.320049704528884
0,-1979.99,-520.94,-1279.32,-1602.33,5.325049751243668
0,-1990.36,-526.85,-1285.35,-1613.81,5.330049797958452
0,-1979.96,-512.82,-1278.64,-1605.37,5.335049844673236
0,-1981.27,-521.21,-1278.45,-1608.29,5.34004989138802
0,-1967.24,-510.04,-1271.4,-1605.59,5.345049938102797
0,-1969.49,-506.55,-1268.14,-1596.48,5.350049984817581
0,-1968.19,-509.74,-1263.01,-1595.69,5.355050031532365
0,-1971.48,-510.79,-1270.39,-1599.31,5.3600500782471485
0,-1966.69,-512.65,-1265.98,-1596.14,5.3650501249619325
0,-1972.54,-510.17,-1268.9,-1600.8,5.370050171676716
0,-1970.57,-513.53,-1266.97,-1596.44,5.375050218391493
0,-1975.39,-511.33,-1269.87,-1597.56,5.380050265106277
0,-1969.63,-514.18,-1273.93,-1597.76,5.385050311821061
0,-1974.43,-505.75,-1267.35,-1595.94,5.390050358535845
0,-1971.14,-509.77,-1265.09,-1595.26,5.395050405250629
0,-1964.15,-498.33,-1258.22,-1587.18,5.400050451965413
0,-1962.36,-496.13,-1258.34,-1588.04,5.40505049868019
0,-1961.97,-505.43,-1256.72,-1595.55,5.410050545394974
0,-1965.4,-507.2,-1264.58,-1596.66,5.415050592109758
0,-1962.79,-508.92,-1265.69,-1601.08,5.4200506388245415
0,-1966.56,-505.48,-1261.27,-1598.7,5.4250506855393255
0,-1966.02,-508.02,-1262.34,-1598.87,5.430050732254109
0,-1971.82,-513.02,-1274.15,-1608.98,5.435050778968893
0,-1964.72,-505.19,-1264.92,-1602.41,5.44005082568367
0,-1964.56,-505.94,-1268.64,-1604.28,5.445050872398454
0,-1972.11,-508.14,-1272.76,-1604.91,5.450050919113238
0,-1967.13,-504.03,-1263.08,-1598.05,5.455050965828022
0,-1960.64,-497.64,-1258.06,-1590.19,5.460051012542806
0,-1962.9,-505.48,-1259.26,-1594.0,5.46505105925759
0,-1955.86,-496.39,-1255.74,-1588.2,5.470051105972367
0,-1964.99,-508.7,-1269.07,-1603.39,5.475051152687151
0,-1969.81,-505.57,-1267.6,-1609.21,5.4800511994019345
0,-1972.04,-508.71,-1272.35,-1610.52,5.4850512461167185
0,-1972.5,-506.56,-1270.39,-1608.69,5.490051292831502
0,-1973.99,-509.55,-1273.45,-1613.56,5.495051339546286
0,-1976.14,-510.23,-1270.77,-1612.02,5.500051386261063
0,-1957.13,-497.43,-1252.59,-1600.89,5.505051432975847
0,-1946.67,-501.84,-1259.22,-1604.18,5.510051479690631
0,-1955.38,-502.47,-1256.59,-1602.51,5.515051526405415
0,-1958.16,-506.69,-1260.91,-1598.86,5.520051573120199
0,-1962.08,-506.89,-1266.4,-1601.19,5.525051619834983
0,-1972.72,-509.84,-1270.85,-1606.67,5.53005166654976
0,-1971.66,-510.47,-1271.12,-1607.71,5.535051713264544
0,-1972.2,-514.16,-1270.32,-1602.73,5.5400517599793275
0,-1977.73,-519.76,-1280.67,-1610.52,5.5450518066941115
0,-1968.52,-509.31,-1265.42,-1601.76,5.550051853408895
0,-1956.45,-495.18,-1258.28,-1593.74,5.555051900123679
0,-1967.37,-505.41,-1265.87,-1607.82,5.560051946838456
0,-1961.69,-508.16,-1264.76,-1602.62,5.56505199355324
0,-1964.99,-509.2,-1264.17,-1599.74,5.570052040268024
0,-1965.9,-510.37,-1262.57,-1597.78,5.575052086982808
0,-1964.36,-507.71,-1261.51,-1597.74,5.580052133697592
0,-1966.2,-510.6,-1268.99,-1601.6,5.585052180412376
0,-1972.67,-509.25,-1264.44,-1601.15,5.590052227127153
0,-1969.12,-510.23,-1261.13,-1600.46,5.595052273841937
0,-1962.39,-503.06,-1262.2,-1599.25,5.6000523205567205
0,-1958.38,-500.14,-1257.77,-1597.62,5.6050523672715045
0,-1955.86,-496.35,-1253.14,-1591.33,5.610052413986288
0,-1958.63,-501.89,-1255.06,-1590.91,5.615052460701072
0,-1960.34,-510.92,-1262.78,-1605.27,5.620052507415856
0,-1956.46,-500.0,-1253.3,-1591.21,5.625052554130633
0,-1970.04,-507.64,-1265.78,-1595.05,5.630052600845417
0,-1968.22,-517.86,-1271.7,-1603.77,5.635052647560201
0,-1972.49,-516.5,-1274.31,-1612.4,5.640052694274985
0,-1968.09,-509.01,-1265.0,-1605.48,5.645052740989769
0,-1976.22,-515.22,-1274.73,-1615.55,5.650052787704553
0,-1973.34,-513.03,-1272.79,-1610.38,5.65505283441933
0,-1967.01,-505.95,-1268.64,-1607.76,5.6600528811341135
0,-1968.33,-512.97,-1266.95,-1609.06,5.6650529278488975
0,-1959.61,-507.21,-1262.47,-1599.0,5.670052974563681
0,-1963.12,-510.37,-1265.14,-1600.53,5.675053021278465
0,-1963.32,-507.27,-1262.61,-1600.31,5.680053067993249
0,-1967.37,-516.76,-1273.51,-1608.36,5.685053114708026
0,-1962.29,-504.0,-1258.6,-1597.99,5.69005316142281
0,-1961.99,-503.79,-1261.29,-1594.41,5.695053208137594
0,-1969.12,-515.03,-1270.82,-1607.92,5.700053254852378
0,-1971.1,-517.25,-1274.54,-1608.79,5.705053301567162
0,-1973.06,-514.03,-1272.96,-1606.78,5.710053348281946
0,-1974.49,-519.36,-1276.83,-1610.37,5.715053394996723
0,-1976.17,-522.46,-1277.55,-1612.72,5.7200534417115065
0,-1971.37,-515.84,-1274.68,-1605.14,5.7250534884262905
0,-1976.12,-516.61,-1279.72,-1607.82,5.730053535141074
0,-1977.78,-516.61,-1275.76,-1605.15,5.735053581855858
0,-1975.4,-516.35,-1271.72,-1601.35,5.740053628570642
0,-1972.0,-512.32,-1264.91,-1596.41,5.745053675285419
0,-1965.24,-507.6,-1265.18,-1594.92,5.750053722000203
0,-1971.35,-514.31,-1272.66,-1597.51,5.755053768714987
0,-1974.28,-511.53,-1274.16,-1605.87,5.760053815429771
0,-1969.64,-506.96,-1264.86,-1595.35,5.765053862144555
0,-1956.72,-499.7,-1254.25,-1583.1,5.770053908859339
0,-1963.01,-501.48,-1258.95,-1586.16,5.775053955574123
0,-1968.25,-502.13,-1263.99,-1592.33,5.7800540022888995
0,-1964.88,-497.46,-1265.68,-1588.65,5.7850540490036835
0,-1967.45,-511.84,-1267.67,-1599.09,5.790054095718467
0,-1959.74,-510.17,-1265.88,-1588.55,5.795054142433251
0,-1960.82,-504.3,-1261.63,-1584.78,5.800054189148035
0,-1968.18,-510.2,-1268.18,-1594.23,5.805054235862819
0,-1963.54,-505.29,-1261.76,-1591.6,5.810054282577596
0,-1965.11,-510.18,-1266.27,-1601.91,5.81505432929238
0,-1965.85,-509.98,-1269.11,-1596.11,5.820054376007164
0,-1962.7,-503.38,-1262.0,-1593.13,5.825054422721948
0,-1970.55,-508.3,-1263.01,-1592.56,5.830054469436732
0,-1967.05,-506.1,-1259.98,-1590.66,5.835054516151516
0,-1963.55,-498.18,-1259.53,-1588.31,5.8400545628662925
0,-1960.74,-499.11,-1255.73,-1590.32,5.8450546095810765
0,-1957.5,-498.65,-1258.14,-1592.59,5.85005465629586
0,-1958.36,-498.72,-1257.99,-1600.53,5.855054703010644
0,-1955.07,-496.65,-1256.85,-1593.8,5.860054749725428
0,-1958.38,-495.25,-1258.36,-1597.26,5.865054796440212
0,-1959.62,-504.59,-1262.46,-1602.94,5.870054843154989
0,-1963.82,-504.67,-1264.25,-1608.29,5.875054889869773
0,-1981.35,-513.72,-1277.55,-1615.66,5.880054936584557
0,-1980.17,-510.09,-1274.59,-1608.95,5.885054983299341
0,-1978.1,-508.07,-1272.09,-1602.55,5.890055030014125
0,-1980.17,-515.63,-1277.09,-1610.41,5.895055076728909
0,-1960.34,-495.65,-1258.45,-1594.41,5.9000551234436855
0,-1963.23,-500.73,-1261.62,-1596.13,5.9050551701584695
0,-1966.33,-504.48,-1259.27,-1596.36,5.910055216873253
0,-1958.4,-497.47,-1257.02,-1596.06,5.915055263588037
0,-1968.67,-501.46,-1264.02,-1604.24,5.920055310302821
0,-1961.54,-495.58,-1257.19,-1593.64,5.925055357017605
0,-1961.4,-504.03,-1261.38,-1595.65,5.930055403732389
0,-1955.67,-499.26,-1256.6,-1591.6,5.935055450447166
0,-1968.03,-503.24,-1265.06,-1596.05,5.94005549716195
0,-1958.27,-502.61,-1261.74,-1589.17,5.945055543876734
0,-1961.87,-501.3,-1259.72,-1589.29,5.950055590591518
0,-1953.94,-497.15,-1250.09,-1585.6,5.955055637306302
0,-1959.26,-504.23,-1257.78,-1593.08,5.960055684021086
0,-1956.39,-505.03,-1260.02,-1595.88,5.9650557307358625
0,-1965.84,-507.93,-1262.55,-1598.21,5.970055777450646
0,-1956.64,-506.47,-1256.69,-1593.49,5.97505582416543
0,-1964.23,-512.74,-1261.63,-1598.02,5.980055870880214
0,-1962.82,-509.48,-1262.57,-1601.44,5.985055917594998
0,-1973.15,-515.47,-1270.05,-1597.35,5.990055964309782
0,-1956.55,-505.14,-1260.24,-1588.78,5.995056011024559
0,-1959.95,-505.02,-1263.63,-1593.04,6.000056057739343
0,-1971.22,-510.6,-1270.31,-1599.43,6.005056104454127
0,-1974.87,-518.59,-1273.96,-1604.79,6.010056151168911
0,-1961.63,-511.26,-1262.96,-1600.14,6.015056197883695
0,-1970.42,-518.04,-1267.69,-1599.78,6.020056244598479
0,-1964.39,-513.71,-1264.4,-1594.93,6.0250562913132555
0,-1963.23,-514.25,-1271.47,-1594.21,6.030056338028039
0,-1953.25,-504.38,-1258.07,-1586.34,6.035056384742823
0,-1963.57,-512.01,-1263.43,-1590.4,6.040056431457607
0,-1964.71,-511.03,-1262.68,-1596.83,6.045056478172391
0,-1975.43,-516.5,-1272.74,-1598.51,6.050056524887175
0,-1980.49,-521.86,-1278.98,-1607.26,6.055056571601952
0,-1969.03,-516.08,-1270.85,-1595.95,6.060056618316736
0,-1965.17,-508.57,-1266.52,-1595.29,6.06505666503152
0,-1956.3,-500.11,-1258.59,-1588.04,6.070056711746304
0,-1958.96,-503.91,-1258.35,-1590.36,6.075056758461088
0,-1959.4,-500.23,-1259.32,-1598.8,6.080056805175872
0,-1967.16,-512.72,-1271.71,-1611.92,6.085056851890656
0,-1967.31,-508.91,-1264.68,-1605.08,6.090056898605432
0,-1965.65,-511.02,-1264.2,-1603.43,6.095056945320216
0,-1963.37,-508.08,-1264.17,-1603.47,6.100056992035
0,-1956.67,-495.53,-1255.38,-1595.63,6.105057038749784
0,-1954.79,-498.68,-1258.69,-1601.54,6.110057085464568
0,-1963.41,-501.76,-1258.09,-1596.93,6.115057132179352
0,-1969.08,-505.02,-1262.87,-1599.65,6.120057178894129
0,-1966.53,-511.25,-1264.69,-1606.79,6.125057225608913
0,-1955.29,-497.76,-1253.87,-1601.28,6.130057272323697
0,-1964.63,-503.99,-1262.45,-1608.76,6.135057319038481
0,-1967.36,-503.44,-1259.55,-1599.51,6.140057365753265
0,-1956.15,-497.26,-1256.59,-1594.73,6.145057412468049
0,-1957.63,-495.44,-1254.1,-1591.97,6.150057459182825
0,-1969.63,-504.85,-1264.12,-1599.38,6.155057505897609
0,-1956.47,-501.32,-1255.87,-1600.59,6.160057552612393
0,-1960.77,-496.71,-1254.76,-1592.65,6.165057599327177
0,-1962.34,-498.81,-1254.34,-1593.99,6.170057646041961
0,-1966.04,-509.68,-1267.36,-1600.79,6.175057692756745
0,-1961.15,-499.26,-1259.76,-1592.01,6.180057739471522
0,-1957.42,-499.52,-1259.29,-1596.93,6.185057786186306
0,-1961.78,-501.03,-1259.88,-1599.51,6.19005783290109
0,-1959.72,-497.79,-1253.29,-1597.24,6.195057879615874
0,-1963.14,-499.6,-1262.13,-1601.6,6.200057926330658
0,-1972.44,-513.11,-1269.52,-1606.16,6.205057973045442
0,-1970.21,-508.84,-1265.11,-1606.36,6.210058019760218
0,-1962.1,-505.49,-1268.98,-1611.55,6.215058066475002
0,-1973.23,-512.8,-1267.22,-1612.78,6.220058113189786
0,-1970.52,-504.78,-1262.81,-1605.02,6.22505815990457
0,-1967.42,-508.81,-1264.59,-1603.2,6.230058206619354
0,-1962.83,-506.37,-1269.42,-1602.13,6.235058253334138
0,-1965.42,-503.59,-1260.71,-1593.85,6.240058300048915
0,-1957.73,-503.61,-1255.74,-1593.13,6.245058346763699
0,-1966.5,-507.12,-1264.36,-1595.21,6.250058393478483
0,-1969.99,-512.76,-1268.44,-1598.3,6.255058440193267
0,-1968.25,-512.31,-1266.52,-1599.09,6.260058486908051
0,-1964.53,-505.22,-1262.9,-1594.83,6.265058533622835
0,-1970.74,-513.27,-1270.2,-1601.4,6.2700585803376185
0,-1965.04,-509.53,-1265.63,-1601.81,6.275058627052395
0,-1964.46,-506.29,-1266.27,-1598.36,6.280058673767179
0,-1975.05,-505.24,-1268.85,-1603.01,6.285058720481963
0,-1961.96,-498.73,-1260.04,-1595.65,6.290058767196747
0,-1968.26,-506.62,-1272.62,-1602.04,6.295058813911531
0,-1971.32,-519.88,-1277.79,-1606.09,6.300058860626315
0,-1964.0,-509.01,-1262.01,-1594.56,6.305058907341092
0,-1958.87,-498.47,-1254.95,-1587.77,6.310058954055876
0,-1966.08,-503.54,-1260.01,-1594.77,6.31505900077066
0,-1962.16,-501.16,-1261.96,-1597.6,6.320059047485444
0,-1969.54,-508.43,-1264.17,-1605.82,6.325059094200228
0,-1955.09,-495.42,-1253.99,-1592.27,6.3300591409150115
0,-1957.8,-502.76,-1258.77,-1605.12,6.335059187629788
0,-1966.11,-508.3,-1263.6,-1605.11,6.340059234344572
0,-1969.81,-513.26,-1269.64,-1610.77,6.345059281059356
0,-1956.72,-502.09,-1258.87,-1597.17,6.35005932777414
0,-1965.9,-516.02,-1269.21,-1602.89,6.355059374488924
0,-1967.06,-507.23,-1263.65,-1594.0,6.360059421203708
0,-1960.3,-503.42,-1265.04,-1592.23,6.365059467918485
0,-1964.24,-511.3,-1268.57,-1592.52,6.370059514633269
0,-1961.84,-504.16,-1258.68,-1587.2,6.375059561348053
0,-1973.8,-515.59,-1271.27,-1602.57,6.380059608062837
0,-1973.25,-513.99,-1267.79,-1597.95,6.385059654777621
0,-1970.9,-510.42,-1268.58,-1596.48,6.3900597014924045
0,-1966.64,-505.7,-1267.17,-1595.21,6.395059748207181
0,-1963.79,-498.76,-1261.14,-1592.7,6.400059794921965
0,-1968.42,-500.81,-1259.51,-1597.99,6.405059841636749
0,-1965.79,-503.54,-1259.41,-1592.18,6.410059888351533
0,-1969.17,-511.32,-1264.05,-1599.91,6.415059935066317
0,-1966.4,-505.41,-1262.78,-1601.47,6.420059981781101
0,-1980.01,-515.43,-1277.22,-1611.6,6.425060028495885
0,-1965.55,-508.7,-1261.21,-1593.17,6.430060075210662
0,-1965.07,-507.59,-1268.81,-1602.23,6.435060121925446
0,-1970.91,-509.25,-1269.16,-1601.68,6.44006016864023
0,-1969.85,-510.87,-1271.89,-1603.66,6.445060215355014
0,-1967.23,-510.39,-1271.61,-1601.94,6.4500602620697975
0,-1964.92,-505.37,-1267.1,-1595.96,6.4550603087845815
0,-1972.26,-512.21,-1270.89,-1603.18,6.460060355499358
0,-1966.78,-509.16,-1264.96,-1602.89,6.465060402214142
0,-1963.56,-500.89,-1261.88,-1598.18,6.470060448928926
0,-1964.28,-503.21,-1261.42,-1596.46,6.47506049564371
0,-1967.96,-507.4,-1265.74,-1598.98,6.480060542358494
0,-1962.53,-503.06,-1260.0,-1594.04,6.485060589073278
0,-1966.23,-510.26,-1263.06,-1600.18,6.490060635788055
0,-1966.11,-507.71,-1262.79,-1598.57,6.495060682502839
0,-1971.66,-512.31,-1269.95,-1605.9,6.500060729217623
0,-1966.44,-510.56,-1266.27,-1606.06,6.505060775932407
0,-1964.87,-509.09,-1265.79,-1608.41,6.5100608226471905
0,-1966.58,-507.16,-1263.02,-1606.61,6.5150608693619745
0,-1961.67,-497.4,-1260.91,-1605.0,6.520060916076751
0,-1956.84,-505.18,-1258.29,-1599.82,6.525060962791535
0,-1969.75,-510.35,-1270.32,-1603.28,6.530061009506319
0,-1968.7,-507.95,-1269.31,-1603.35,6.535061056221103
0,-1975.37,-511.06,-1277.01,-1602.72,6.540061102935887
0,-1974.11,-520.0,-1273.67,-1602.31,6.545061149650671
0,-1970.63,-518.5,-1271.75,-1598.66,6.550061196365448
0,-1967.89,-510.78,-1262.48,-1597.03,6.555061243080232
0,-1966.91,-509.61,-1267.55,-1602.66,6.560061289795016
0,-1961.38,-501.89,-1261.23,-1595.0,6.5650613365098
0,-1953.78,-502.95,-1255.87,-1592.24,6.5700613832245836
0,-1962.76,-508.23,-1266.94,-1601.5,6.5750614299393675
0,-1968.21,-509.44,-1270.03,-1604.63,6.580061476654151
0,-1979.49,-510.42,-1271.37,-1610.03,6.585061523368928
0,-1975.57,-511.36,-1273.48,-1606.78,6.590061570083712
0,-1973.68,-513.94,-1273.88,-1610.31,6.595061616798496
0,-1980.68,-514.7,-1279.1,-1616.29,6.60006166351328
0,-1975.56,-513.42,-1270.98,-1610.85,6.605061710228064
0,-1970.78,-510.12,-1271.55,-1608.15,6.610061756942848
0,-1971.29,-513.05,-1270.9,-1602.88,6.615061803657625
0,-1967.66,-518.29,-1271.51,-1598.7,6.620061850372409
0,-1968.77,-517.92,-1275.09,-1596.81,6.625061897087193
0,-1972.28,-509.88,-1271.31,-1591.28,6.6300619438019766
0,-1973.32,-512.4,-1272.44,-1595.19,6.6350619905167605
0,-1961.61,-504.12,-1264.68,-1589.5,6.640062037231544
0,-1963.18,-502.44,-1255.18,-1582.62,6.645062083946321
0,-1948.01,-492.54,-1247.37,-1574.0,6.650062130661105
0,-1947.24,-491.72,-1240.25,-1574.82,6.655062177375889
0,-1944.43,-490.85,-1245.39,-1580.05,6.660062224090673
0,-1954.63,-506.26,-1257.52,-1593.27,6.665062270805457
0,-1953.11,-496.08,-1250.82,-1590.32,6.670062317520241
0,-1943.67,-492.04,-1248.76,-1583.28,6.675062364235018
0,-1951.4,-499.4,-1254.0,-1586.07,6.680062410949802
0,-1953.77,-504.18,-1257.51,-1589.36,6.685062457664586
0,-1958.79,-504.38,-1255.27,-1588.51,6.69006250437937
0,-1957.79,-498.86,-1254.79,-1594.92,6.6950625510941535
0,-1956.48,-504.55,-1260.33,-1597.6,6.700062597808937
0,-1962.07,-511.9,-1263.82,-1599.63,6.705062644523714
0,-1968.08,-507.83,-1267.7,-1605.42,6.710062691238498
0,-1969.94,-512.13,-1274.7,-1610.54,6.715062737953282
0,-1972.15,-513.0,-1270.8,-1607.04,6.720062784668066
0,-1971.45,-512.15,-1269.34,-1602.26,6.72506283138285
0,-1973.17,-514.91,-1273.47,-1607.98,6.730062878097634
0,-1965.17,-505.46,-1263.71,-1595.65,6.735062924812418
0,-1958.4,-499.61,-1256.25,-1589.64,6.740062971527195
0,-1964.44,-505.6,-1270.85,-1599.97,6.745063018241979
0,-1961.9,-504.7,-1269.27,-1598.26,6.750063064956763
0,-1963.8,-508.37,-1265.16,-1598.27,6.7550631116715465
0,-1964.37,-508.6,-1264.12,-1598.93,6.76006315838633
0,-1969.27,-511.93,-1272.33,-1607.19,6.765063205101114
0,-1968.7,-508.33,-1266.04,-1601.3,6.770063251815891
0,-1966.06,-504.43,-1258.37,-1595.35,6.775063298530675
0,-1973.62,-506.07,-1266.46,-1598.07,6.780063345245459
0,-1978.23,-516.57,-1272.35,-1600.11,6.785063391960243
0,-1971.22,-511.16,-1271.33,-1600.95,6.790063438675027
0,-1973.92,-513.0,-1267.37,-1603.22,6.795063485389811
0,-1960.8,-507.41,-1262.76,-1596.82,6.800063532104588
0,-1970.65,-513.91,-1266.34,-1602.36,6.805063578819372
0,-1972.56,-513.87,-1270.68,-1604.56,6.810063625534156
0,-1965.15,-503.91,-1259.7,-1591.74,6.8150636722489395
0,-1964.22,-502.88,-1255.17,-1592.09,6.820063718963723
0,-1952.47,-493.15,-1246.17,-1583.33,6.825063765678507
0,-1951.15,-501.54,-1251.85,-1586.25,6.830063812393284
0,-1954.46,-498.53,-1251.77,-1596.89,6.835063859108068
0,-1957.97,-494.87,-1250.76,-1590.17,6.840063905822852
0,-1960.73,-494.44,-1256.21,-1597.3,6.845063952537636
0,-1967.85,-497.59,-1252.83,-1600.95,6.85006399925242
0,-1971.1,-506.64,-1266.67,-1602.79,6.855064045967204
0,-1969.74,-506.46,-1264.22,-1601.72,6.860064092681981
0,-1961.77,-507.42,-1260.41,-1606.08,6.865064139396765
0,-1963.61,-507.01,-1263.81,-1602.02,6.870064186111549
0,-1968.15,-510.08,-1266.26,-1601.25,6.8750642328263325
0,-1964.95,-505.71,-1267.74,-1599.79,6.880064279541116
0,-1959.79,-504.88,-1264.27,-1592.93,6.8850643262559
0,-1970.48,-505.03,-1264.33,-1593.81,6.890064372970684
0,-1971.78,-512.42,-1265.6,-1603.21,6.895064419685461
0,-1964.85,-506.45,-1265.27,-1600.51,6.900064466400245
0,-1969.07,-512.4,-1267.77,-1601.69,6.905064513115029
0,-1964.17,-509.15,-1271.54,-1602.43,6.910064559829813
0,-1968.45,-516.01,-1271.37,-1609.64,6.915064606544597
0,-1975.45,-520.79,-1278.11,-1609.85,6.920064653259381
0,-1972.43,-512.3,-1272.56,-1615.5,6.925064699974158
0,-1965.65,-511.12,-1270.48,-1610.75,6.930064746688942
0,-1963.6,-509.15,-1262.23,-1600.0,6.9350647934037255
0,-1968.23,-508.98,-1269.01,-1605.96,6.940064840118509
0,-1966.16,-513.46,-1271.63,-1607.54,6.945064886833293
0,-1969.72,-515.61,-1272.69,-1610.38,6.950064933548077
0,-1970.5,-516.18,-1277.05,-1613.95,6.955064980262854
0,-1970.4,-513.66,-1274.76,-1613.33,6.960065026977638
0,-1963.05,-500.01,-1264.92,-1601.22,6.965065073692422
0,-1965.35,-505.7,-1267.77,-1598.91,6.970065120407206
0,-1975.6,-515.79,-1280.2,-1608.78,6.97506516712199
0,-1976.38,-517.64,-1276.14,-1609.78,6.980065213836774
0,-1963.49,-513.94,-1271.26,-1602.8,6.985065260551551
0,-1965.79,-508.52,-1265.1,-1595.2,6.990065307266335
0,-1966.53,-512.18,-1269.02,-1605.16,6.9950653539811185
0,-1969.92,-509.88,-1269.48,-1603.28,7.000065400695902
0,-1975.85,-512.58,-1269.58,-1609.13,7.005065447410686
0,-1967.27,-512.07,-1268.9,-1600.21,7.01006549412547
0,-1965.18,-509.15,-1263.3,-1596.45,7.015065540840247
0,-1970.68,-501.99,-1265.57,-1601.56,7.020065587555031
0,-1971.85,-510.26,-1267.67,-1598.11,7.025065634269815
0,-1974.45,-510.42,-1267.88,-1602.98,7.030065680984599
0,-1968.45,-506.75,-1263.16,-1602.08,7.035065727699383
0,-1955.91,-497.2,-1251.09,-1588.05,7.040065774414167
0,-1960.01,-502.26,-1261.55,-1593.0,7.045065821128944
0,-1949.76,-491.51,-1245.25,-1579.46,7.050065867843728
0,-1954.5,-500.74,-1255.06,-1591.93,7.0550659145585115
0,-1966.12,-501.88,-1261.17,-1600.13,7.060065961273295
0,-1968.04,-504.52,-1263.87,-1603.97,7.065066007988079
0,-1964.83,-508.3,-1267.01,-1606.5,7.070066054702863
0,-1973.96,-515.66,-1269.33,-1603.97,7.075066101417647
0,-1980.47,-520.38,-1279.6,-1608.18,7.080066148132424
0,-1971.94,-515.15,-1267.22,-1601.88,7.085066194847208
0,-1965.27,-509.42,-1263.82,-1597.96,7.090066241561992
0,-1964.07,-507.36,-1261.26,-1598.86,7.095066288276776
0,-1967.41,-506.03,-1263.75,-1597.94,7.10006633499156
0,-1974.68,-518.03,-1270.25,-1604.42,7.105066381706344
0,-1961.5,-513.16,-1260.74,-1595.72,7.110066428421121
0,-1956.89,-507.19,-1262.57,-1593.69,7.1150664751359045
0,-1962.82,-513.37,-1263.78,-1590.97,7.1200665218506884
0,-1968.51,-506.35,-1264.67,-1592.89,7.125066568565472
0,-1970.03,-509.27,-1262.76,-1591.23,7.130066615280256
0,-1973.34,-510.55,-1273.19,-1598.45,7.13506666199504
0,-1966.75,-509.51,-1266.47,-1595.26,7.140066708709817
0,-1968.5,-511.95,-1265.48,-1597.43,7.145066755424601
0,-1958.64,-510.57,-1263.85,-1594.46,7.150066802139385
0,-1971.46,-517.59,-1269.7,-1605.06,7.155066848854169
0,-1969.46,-516.6,-1270.59,-1603.88,7.160066895568953
0,-1975.4,-516.03,-1277.08,-1607.77,7.165066942283737
0,-1972.18,-510.36,-1269.53,-1600.5,7.170066988998514
0,-1968.45,-515.04,-1272.51,-1603.8,7.1750670357132975
0,-1981.85,-515.75,-1272.77,-1612.32,7.1800670824280814
0,-1968.59,-510.4,-1267.8,-1600.1,7.185067129142865
0,-1971.05,-503.2,-1267.01,-1604.54,7.190067175857649
0,-1959.79,-502.04,-1263.35,-1595.7,7.195067222572433
0,-1961.0,-507.19,-1265.77,-1599.5,7.20006726928721
0,-1960.64,-502.64,-1266.87,-1603.3,7.205067316001994
0,-1968.82,-505.77,-1265.93,-1604.9,7.210067362716778
0,-1974.14,-511.0,-1269.05,-1603.82,7.215067409431562
0,-1978.41,-513.91,-1273.63,-1608.18,7.220067456146346
0,-1975.29,-515.09,-1270.51,-1610.6,7.22506750286113
0,-1972.43,-515.97,-1270.46,-1610.82,7.230067549575914
0,-1966.24,-507.12,-1269.56,-1603.23,7.2350675962906905
0,-1970.68,-509.0,-1268.84,-1603.96,7.2400676430054745
0,-1976.08,-511.16,-1271.38,-1609.1,7.245067689720258
0,-1978.64,-511.44,-1275.01,-1604.82,7.250067736435042
0,-1970.12,-506.57,-1273.56,-1600.18,7.255067783149826
0,-1977.94,-515.91,-1282.47,-1611.21,7.26006782986461
0,-1965.0,-508.24,-1268.18,-1599.12,7.265067876579387
0,-1959.35,-501.32,-1266.34,-1596.16,7.270067923294171
0,-1967.72,-512.77,-1266.26,-1602.69,7.275067970008955
0,-1967.37,-508.8,-1268.71,-1597.88,7.280068016723739
0,-1969.62,-507.54,-1268.64,-1602.98,7.285068063438523
0,-1967.61,-507.23,-1269.94,-1601.82,7.290068110153307
0,-1973.34,-513.1,-1270.29,-1610.24,7.2950681568680835
0,-1971.88,-517.63,-1275.54,-1606.63,7.3000682035828675
0,-1976.27,-519.04,-1280.06,-1618.99,7.305068250297651
0,-1961.69,-510.86,-1268.11,-1609.02,7.310068297012435
0,-1962.6,-511.06,-1267.96,-1610.29,7.315068343727219
0,-1969.6,-514.66,-1269.09,-1611.47,7.320068390442003
0,-1970.54,-510.42,-1267.01,-1610.07,7.32506843715678
0,-1961.3,-498.59,-1261.47,-1599.48,7.330068483871564
0,-1963.54,-500.44,-1264.61,-1602.16,7.335068530586348
0,-1958.73,-496.88,-1256.35,-1593.54,7.340068577301132
0,-1945.86,-488.52,-1250.23,-1592.64,7.345068624015916
0,-1939.5,-478.46,-1240.02,-1585.85,7.3500686707307
0,-1942.91,-475.93,-1234.68,-1586.17,7.3550687174454765
0,-1938.6,-475.08,-1236.88,-1585.25,7.3600687641602605
0,-1937.0,-473.96,-1238.63,-1583.76,7.365068810875044
0,-1944.63,-485.38,-1247.12,-1593.93,7.370068857589828
0,-1951.6,-486.34,-1250.91,-1594.23,7.375068904304612
0,-1948.46,-492.19,-1255.25,-1596.96,7.380068951019396
0,-1954.77,-496.14,-1259.66,-1599.01,7.38506899773418
0,-1954.53,-495.03,-1256.63,-1594.3,7.390069044448957
0,-1960.35,-502.2,-1260.84,-1601.42,7.395069091163741
0,-1954.77,-502.04,-1259.71,-1598.51,7.400069137878525
0,-1946.45,-502.67,-1255.96,-1590.74,7.405069184593309
0,-1954.18,-503.2,-1254.65,-1587.4,7.410069231308093
0,-1954.85,-507.67,-1263.27,-1589.97,7.415069278022877
0,-1956.46,-502.62,-1254.09,-1586.14,7.4200693247376535
0,-1968.7,-507.72,-1264.76,-1591.97,7.425069371452437
0,-1961.48,-506.58,-1261.38,-1588.08,7.430069418167221
0,-1968.62,-503.23,-1266.24,-1590.13,7.435069464882005
0,-1968.98,-510.39,-1266.78,-1594.43,7.440069511596789
0,-1964.33,-514.25,-1267.07,-1595.15,7.445069558311573
0,-1967.74,-516.71,-1272.82,-1597.29,7.45006960502635
0,-1967.21,-517.25,-1267.61,-1598.01,7.455069651741134
0,-1968.74,-517.05,-1265.8,-1593.75,7.460069698455918
0,-1971.2,-514.85,-1261.88,-1594.09,7.465069745170702
0,-1963.68,-510.6,-1261.01,-1582.78,7.470069791885486
0,-1966.77,-512.38,-1259.71,-1582.81,7.47506983860027
0,-1963.84,-506.69,-1256.2,-1584.37,7.4800698853150465
0,-1964.33,-510.64,-1264.53,-1592.63,7.48506993202983
0,-1962.96,-506.97,-1259.99,-1588.26,7.490069978744614
0,-1965.63,-508.35,-1267.95,-1598.55,7.495070025459398
0,-1951.16,-493.65,-1249.54,-1582.44,7.500070072174182
0,-1955.26,-494.9,-1252.71,-1586.19,7.505070118888966
0,-1959.1,-494.58,-1251.92,-1586.49,7.510070165603743
0,-1950.37,-485.76,-1247.51,-1575.16,7.515070212318527
0,-1958.37,-493.65,-1252.56,-1579.15,7.520070259033311
0,-1970.54,-504.93,-1261.29,-1588.2,7.525070305748095
0,-1970.81,-506.07,-1266.28,-1596.49,7.530070352462879
0,-1969.36,-502.8,-1261.02,-1590.1,7.535070399177663
0,-1963.84,-502.48,-1264.06,-1595.23,7.540070445892447
0,-1962.64,-507.12,-1260.95,-1597.85,7.545070492607223
0,-1969.02,-512.67,-1267.14,-1604.59,7.550070539322007
0,-1967.89,-512.91,-1270.92,-1602.16,7.555070586036791
0,-1970.41,-514.5,-1276.38,-1609.49,7.560070632751575
0,-1956.54,-502.65,-1260.68,-1593.4,7.565070679466359
0,-1971.17,-510.14,-1269.38,-1599.97,7.570070726181143
0,-1973.09,-519.02,-1274.69,-1606.38,7.57507077289592
0,-1969.09,-510.01,-1266.47,-1602.23,7.580070819610704
0,-1973.19,-512.64,-1274.18,-1606.39,7.585070866325488
0,-1971.94,-518.86,-1269.4,-1603.39,7.590070913040272
0,-1963.13,-507.75,-1268.42,-1596.63,7.595070959755056
0,-1968.47,-513.02,-1268.38,-1598.93,7.60007100646984
0,-1978.27,-516.15,-1270.39,-1602.42,7.605071053184616
0,-1974.92,-515.27,-1275.62,-1601.49,7.6100710998994
0,-1972.68,-509.95,-1270.16,-1603.53,7.615071146614184
0,-1976.65,-508.48,-1267.16,-1601.72,7.620071193328968
0,-1970.06,-511.16,-1268.18,-1603.61,7.625071240043752
0,-1958.1,-510.21,-1267.6,-1602.58,7.630071286758536
0,-1964.53,-509.04,-1264.02,-1598.68,7.635071333473313
0,-1967.73,-509.94,-1269.94,-1603.03,7.640071380188097
0,-1968.31,-510.51,-1271.5,-1605.69,7.645071426902881
0,-1956.61,-499.2,-1258.15,-1594.34,7.650071473617665
0,-1978.78,-509.12,-1267.9,-1603.67,7.655071520332449
0,-1972.16,-506.68,-1262.69,-1604.4,7.660071567047233
0,-1968.58,-509.91,-1265.44,-1599.78,7.665071613762009
0,-1970.36,-512.58,-1272.83,-1603.95,7.670071660476793
0,-1961.47,-502.71,-1261.37,-1599.55,7.675071707191577
0,-1962.1,-498.74,-1258.72,-1599.54,7.680071753906361
0,-1955.17,-498.9,-1254.58,-1590.82,7.685071800621145
0,-1960.12,-500.34,-1255.04,-1594.18,7.690071847335929
0,-1970.65,-505.27,-1260.53,-1592.68,7.695071894050706
0,-1961.13,-502.54,-1255.28,-1592.02,7.70007194076549
0,-1953.17,-500.92,-1254.51,-1591.74,7.705071987480274
0,-1955.68,-497.09,-1257.2,-1595.25,7.710072034195058
0,-1964.48,-503.79,-1261.13,-1596.48,7.715072080909842
0,-1968.43,-499.78,-1262.65,-1592.99,7.720072127624626
0,-1968.1,-510.19,-1265.39,-1601.02,7.7250721743394095
0,-1964.2,-505.64,-1266.23,-1602.01,7.730072221054186
0,-1961.96,-501.6,-1267.95,-1596.2,7.73507226776897
0,-1960.07,-499.79,-1254.96,-1588.94,7.740072314483754
0,-1959.2,-509.19,-1262.83,-1596.8,7.745072361198538
0,-1966.99,-511.66,-1262.6,-1595.88,7.750072407913322
0,-1967.99,-510.88,-1268.47,-1605.73,7.755072454628106
0,-1967.46,-506.83,-1262.31,-1595.53,7.760072501342883
0,-1965.71,-504.82,-1261.3,-1597.03,7.765072548057667
0,-1964.16,-509.03,-1266.5,-1600.48,7.770072594772451
0,-1953.17,-495.34,-1255.09,-1588.99,7.775072641487235
0,-1961.71,-504.52,-1259.22,-1599.04,7.780072688202019
0,-1967.46,-509.94,-1269.8,-1603.58,7.7850727349168025
0,-1971.78,-512.39,-1269.24,-1604.57,7.790072781631579
0,-1977.05,-516.42,-1273.99,-1613.39,7.795072828346363
0,-1970.67,-514.1,-1272.76,-1602.31,7.800072875061147
0,-1969.91,-514.83,-1270.24,-1611.87,7.805072921775931
0,-1970.22,-515.82,-1270.91,-1611.41,7.810072968490715
0,-1971.02,-506.69,-1267.46,-1600.93,7.815073015205499
0,-1956.73,-498.25,-1256.84,-1592.09,7.820073061920276
0,-1963.74,-509.56,-1264.26,-1603.19,7.82507310863506
0,-1974.28,-510.21,-1273.96,-1608.15,7.830073155349844
0,-1957.8,-503.03,-1263.61,-1595.38,7.835073202064628
0,-1968.89,-514.25,-1269.38,-1604.85,7.840073248779412
0,-1960.1,-503.98,-1261.22,-1593.83,7.8450732954941955
0,-1969.9,-515.12,-1269.92,-1602.86,7.850073342208972
0,-1962.14,-513.95,-1269.41,-1601.73,7.855073388923756
0,-1963.87,-513.05,-1267.05,-1600.85,7.86007343563854
0,-1966.81,-510.27,-1269.37,-1606.81,7.865073482353324
0,-1961.7,-511.02,-1262.34,-1599.56,7.870073529068108
0,-1966.59,-510.23,-1268.26,-1606.61,7.875073575782892
0,-1966.47,-509.2,-1270.7,-1607.75,7.880073622497676
0,-1965.79,-511.36,-1268.13,-1601.7,7.885073669212453
0,-1962.98,-507.19,-1265.36,-1601.08,7.890073715927237
0,-1979.03,-513.1,-1271.86,-1608.51,7.895073762642021
0,-1981.35,-518.51,-1278.88,-1606.36,7.900073809356805
0,-1983.13,-520.2,-1280.86,-1606.92,7.9050738560715885
0,-1973.58,-510.68,-1272.82,-1607.33,7.9100739027863725
0,-1976.59,-513.9,-1273.63,-1606.83,7.915073949501149
0,-1968.49,-515.39,-1272.77,-1603.15,7.920073996215933
0,-1966.73,-514.37,-1273.8,-1602.89,7.925074042930717
0,-1981.95,-521.19,-1282.75,-1611.62,7.930074089645501
0,-1974.57,-517.05,-1271.52,-1608.74,7.935074136360285
0,-1980.47,-520.62,-1283.48,-1615.47,7.940074183075069
0,-1958.67,-509.69,-1266.97,-1598.23,7.945074229789846
0,-1965.57,-506.97,-1265.08,-1596.45,7.95007427650463
0,-1967.11,-508.12,-1263.15,-1601.05,7.955074323219414
0,-1972.03,-512.68,-1268.19,-1602.86,7.960074369934198
0,-1972.45,-516.09,-1273.89,-1605.08,7.9650744166489815
0,-1965.91,-512.57,-1264.54,-1601.54,7.9700744633637655
0,-1964.86,-509.4,-1263.95,-1595.76,7.975074510078542
0,-1963.55,-506.86,-1262.22,-1598.73,7.980074556793326
0,-1959.76,-504.27,-1258.08,-1596.21,7.98507460350811
0,-1953.82,-494.45,-1255.0,-1587.13,7.990074650222894
0,-1960.74,-497.26,-1255.39,-1592.95,7.995074696937678
0,-1958.57,-497.76,-1256.19,-1595.14,8.000074743652462
0,-1962.2,-505.98,-1259.66,-1594.38,8.005074790367239
0,-1960.68,-507.5,-1265.92,-1596.27,8.010074837082023
0,-1967.74,-511.16,-1272.76,-1605.11,8.015074883796807
0,-1968.03,-509.3,-1270.44,-1603.31,8.02007493051159
0,-1969.93,-505.43,-1265.23,-1595.87,8.025074977226375
0,-1977.2,-516.12,-1277.07,-1603.6,8.030075023941158
0,-1970.58,-507.38,-1267.92,-1596.99,8.035075070655942
0,-1971.61,-513.79,-1270.17,-1598.65,8.04007511737072
0,-1975.57,-516.69,-1272.79,-1611.68,8.045075164085503
0,-1968.61,-508.58,-1269.84,-1604.51,8.050075210800287
0,-1977.56,-523.63,-1276.96,-1614.52,8.055075257515071
0,-1971.27,-511.75,-1272.76,-1605.21,8.060075304229855
0,-1968.19,-507.08,-1269.87,-1609.59,8.065075350944639
0,-1969.99,-512.54,-1267.42,-1606.22,8.070075397659416
0,-1969.3,-516.3,-1270.63,-1606.89,8.0750754443742
0,-1965.62,-509.1,-1268.06,-1599.96,8.080075491088984
0,-1970.2,-508.1,-1265.4,-1596.97,8.085075537803768
0,-1973.28,-514.63,-1270.46,-1600.6,8.090075584518551
0,-1969.76,-514.03,-1266.03,-1591.03,8.095075631233335
0,-1963.09,-509.64,-1262.29,-1593.8,8.100075677948112
0,-1964.45,-511.74,-1265.94,-1600.24,8.105075724662896
0,-1965.41,-512.02,-1262.45,-1602.97,8.11007577137768
0,-1962.54,-503.72,-1263.65,-1598.02,8.115075818092464
0,-1961.5,-506.09,-1256.76,-1596.76,8.120075864807248
0,-1966.0,-508.27,-1262.84,-1596.09,8.125075911522032
0,-1964.04,-503.86,-1264.4,-1591.34,8.130075958236809
0,-1959.74,-499.86,-1258.96,-1589.21,8.135076004951593
0,-1957.97,-499.71,-1252.62,-1592.05,8.140076051666377
0,-1962.24,-500.16,-1255.34,-1593.98,8.14507609838116
0,-1966.68,-503.84,-1267.9,-1591.03,8.150076145095944
0,-1963.65,-507.69,-1263.09,-1596.31,8.155076191810728
0,-1968.61,-509.25,-1266.03,-1596.98,8.160076238525505
0,-1963.23,-504.62,-1264.63,-1600.73,8.16507628524029
0,-1950.28,-498.16,-1254.54,-1597.83,8.170076331955073
0,-1952.7,-498.51,-1254.94,-1596.3,8.175076378669857
0,-1955.64,-499.04,-1259.12,-1599.31,8.180076425384641
0,-1953.99,-500.59,-1252.52,-1594.66,8.185076472099425
0,-1959.52,-506.56,-1261.0,-1601.31,8.190076518814209
0,-1966.35,-511.65,-1264.3,-1601.12,8.195076565528986
0,-1963.18,-505.87,-1261.98,-1595.83,8.20007661224377
0,-1959.48,-503.9,-1259.77,-1595.75,8.205076658958554
0,-1958.45,-502.41,-1258.98,-1593.86,8.210076705673337
0,-1959.75,-498.15,-1257.68,-1590.88,8.215076752388121
0,-1956.32,-497.41,-1255.45,-1587.53,8.220076799102905
0,-1965.62,-503.49,-1264.64,-1599.89,8.225076845817682
0,-1952.34,-501.2,-1255.06,-1589.75,8.230076892532466
0,-1962.77,-512.25,-1261.03,-1592.53,8.23507693924725
0,-1968.29,-512.71,-1266.23,-1597.13,8.240076985962034
0,-1963.91,-503.84,-1259.58,-1585.7,8.245077032676818
0,-1961.24,-497.29,-1255.72,-1584.23,8.250077079391602
0,-1955.5,-493.08,-1256.63,-1588.74,8.255077126106379
0,-1963.36,-500.38,-1255.35,-1595.22,8.260077172821163
0,-1956.14,-496.57,-1251.61,-1586.46,8.265077219535947
0,-1954.04,-497.73,-1248.92,-1585.31,8.27007726625073
0,-1954.81,-498.91,-1256.38,-1591.36,8.275077312965514
0,-1950.69,-492.53,-1253.13,-1589.29,8.280077359680298
0,-1952.27,-495.6,-1253.38,-1588.89,8.285077406395075
0,-1959.71,-498.58,-1255.07,-1587.68,8.290077453109859
0,-1966.32,-504.67,-1259.07,-1596.86,8.295077499824643
0,-1961.5,-502.89,-1264.14,-1595.45,8.300077546539427
0,-1965.29,-507.77,-1265.8,-1602.86,8.305077593254211
0,-1966.37,-503.53,-1265.74,-1605.74,8.310077639968995
0,-1973.08,-506.18,-1264.11,-1604.75,8.315077686683772
0,-1954.81,-492.15,-1250.09,-1591.57,8.320077733398556
0,-1958.9,-494.88,-1251.95,-1593.46,8.32507778011334
0,-1962.09,-503.23,-1260.68,-1595.16,8.330077826828123
0,-1970.46,-513.09,-1266.29,-1602.57,8.335077873542907
0,-1971.46,-512.83,-1272.86,-1600.46,8.340077920257691
0,-1966.1,-511.91,-1270.75,-1601.83,8.345077966972475
0,-1974.47,-517.79,-1279.05,-1608.68,8.350078013687252
0,-1974.77,-519.91,-1276.3,-1611.34,8.355078060402036
0,-1971.13,-511.97,-1271.89,-1608.79,8.36007810711682
0,-1968.54,-508.17,-1266.96,-1604.64,8.365078153831604
0,-1970.54,-507.51,-1268.29,-1605.76,8.370078200546388
0,-1967.86,-509.83,-1270.42,-1608.54,8.375078247261172
0,-1968.49,-509.2,-1262.82,-1602.57,8.380078293975949
0,-1980.16,-514.89,-1272.64,-1610.97,8.385078340690733
0,-1981.62,-516.93,-1274.86,-1614.33,8.390078387405516
0,-1972.66,-515.47,-1280.22,-1610.76,8.3950784341203
0,-1958.37,-504.18,-1260.18,-1596.38,8.400078480835084
0,-1962.04,-507.73,-1260.86,-1600.66,8.405078527549868
0,-1959.16,-508.32,-1261.06,-1599.06,8.410078574264645
0,-1958.65,-505.94,-1260.29,-1593.08,8.415078620979429
0,-1964.7,-507.28,-1263.36,-1599.65,8.420078667694213
0,-1954.58,-496.04,-1249.09,-1592.94,8.425078714408997
0,-1959.53,-498.96,-1259.08,-1599.5,8.43007876112378
0,-1966.36,-508.77,-1268.0,-1603.11,8.435078807838565
0,-1964.54,-501.5,-1260.59,-1600.05,8.440078854553342
0,-1964.13,-500.37,-1263.77,-1602.5,8.445078901268126
0,-1966.48,-506.86,-1264.98,-1602.65,8.45007894798291
0,-1967.37,-505.92,-1265.96,-1599.17,8.455078994697693
0,-1970.55,-510.16,-1267.64,-1603.19,8.460079041412477
0,-1974.13,-512.97,-1276.88,-1607.44,8.465079088127261
0,-1976.11,-512.82,-1275.09,-1604.19,8.470079134842038
0,-1975.22,-510.46,-1272.52,-1601.43,8.475079181556822
0,-1968.16,-519.01,-1271.24,-1600.22,8.480079228271606
0,-1964.14,-513.03,-1264.37,-1599.78,8.48507927498639
0,-1962.83,-508.73,-1262.54,-1594.04,8.490079321701174
0,-1968.79,-509.53,-1262.85,-1592.73,8.495079368415958
0,-1971.34,-516.85,-1270.24,-1601.22,8.500079415130735
0,-1980.85,-522.67,-1280.67,-1613.82,8.505079461845519
0,-1975.31,-519.13,-1280.61,-1608.76,8.510079508560302
0,-1969.82,-514.33,-1272.04,-1612.71,8.515079555275086
0,-1969.78,-516.02,-1269.21,-1606.87,8.52007960198987
0,-1970.56,-513.0,-1268.72,-1604.76,8.525079648704654
0,-1972.61,-513.3,-1271.88,-1605.86,8.530079695419438
0,-1975.39,-521.21,-1275.49,-1610.33,8.535079742134215
0,-1966.8,-516.66,-1271.3,-1601.4,8.540079788848999
0,-1965.9,-510.52,-1268.75,-1599.72,8.545079835563783
0,-1967.96,-513.9,-1268.13,-1603.67,8.550079882278567
0,-1969.09,-512.47,-1267.53,-1600.65,8.55507992899335
0,-1967.65,-515.09,-1269.58,-1602.86,8.560079975708135
0,-1973.06,-512.1,-1270.17,-1602.49,8.565080022422912
0,-1969.84,-512.05,-1270.79,-1596.39,8.570080069137695
0,-1966.62,-511.58,-1276.37,-1597.16,8.57508011585248
0,-1972.71,-515.28,-1270.46,-1593.81,8.580080162567263
0,-1960.14,-508.11,-1263.31,-1588.01,8.585080209282047
0,-1964.1,-505.58,-1265.17,-1595.2,8.590080255996831
0,-1969.34,-512.33,-1269.02,-1603.19,8.595080302711608
0,-1977.55,-508.78,-1273.02,-1609.03,8.600080349426392
1,-1969.46,-506.83,-1263.38,-1596.4,8.605080396141176
0,-1976.39,-505.44,-1272.85,-1604.15,8.61008044285596
0,-1979.74,-512.78,-1274.06,-1611.26,8.615080489570744
0,-1973.17,-504.1,-1269.96,-1603.93,8.620080536285528
0,-1971.48,-509.29,-1270.4,-1602.72,8.625080583000305
0,-1969.92,-508.72,-1270.3,-1603.0,8.630080629715088
0,-1969.94,-512.05,-1269.33,-1603.4,8.635080676429872
0,-1978.19,-522.86,-1279.35,-1613.69,8.640080723144656
0,-1971.09,-515.34,-1270.78,-1606.71,8.64508076985944
0,-1969.03,-505.27,-1265.28,-1601.88,8.650080816574224
0,-1964.25,-512.01,-1263.69,-1604.03,8.655080863289001
0,-1972.74,-517.65,-1272.0,-1607.63,8.660080910003785
0,-1970.64,-514.7,-1275.62,-1607.32,8.665080956718569
0,-1967.49,-516.66,-1271.74,-1610.49,8.670081003433353
0,-1974.43,-515.38,-1275.57,-1616.89,8.675081050148137
0,-1971.27,-513.4,-1269.44,-1607.39,8.68008109686292
0,-1961.67,-509.44,-1268.55,-1600.07,8.685081143577705
0,-1960.65,-507.69,-1264.24,-1602.31,8.690081190292481
0,-1970.86,-512.32,-1271.51,-1613.01,8.695081237007265
0,-1967.95,-512.63,-1269.94,-1605.33,8.70008128372205
0,-1967.41,-510.85,-1266.37,-1600.24,8.705081330436833
0,-1966.68,-512.32,-1269.58,-1600.02,8.710081377151617
0,-1972.87,-514.24,-1272.69,-1602.49,8.715081423866401
0,-1974.73,-515.85,-1273.94,-1605.37,8.720081470581178
0,-1976.82,-517.74,-1278.14,-1612.43,8.725081517295962
0,-1972.91,-509.52,-1271.21,-1601.95,8.730081564010746
0,-1965.62,-502.76,-1262.77,-1599.96,8.73508161072553
0,-1968.51,-501.18,-1262.8,-1599.13,8.740081657440314
0,-1973.14,-506.75,-1268.04,-1604.57,8.745081704155098
0,-1970.29,-517.66,-1271.47,-1607.26,8.750081750869874
0,-1962.27,-506.77,-1266.48,-1599.63,8.755081797584658
0,-1965.49,-509.24,-1265.31,-1600.27,8.760081844299442
0,-1957.56,-502.71,-1255.68,-1587.89,8.765081891014226
0,-1951.51,-498.45,-1253.84,-1584.27,8.77008193772901
0,-1951.78,-500.69,-1254.06,-1585.38,8.775081984443794
0,-1952.25,-497.09,-1248.28,-1582.45,8.780082031158571
0,-1957.94,-506.18,-1251.81,-1590.89,8.785082077873355
0,-1956.8,-504.42,-1259.91,-1588.52,8.790082124588139
0,-1961.81,-503.61,-1259.16,-1593.75,8.795082171302923
0,-1962.76,-501.26,-1259.48,-1589.31,8.800082218017707
0,-1972.83,-510.99,-1265.71,-1596.42,8.80508226473249
0,-1962.63,-507.72,-1262.29,-1597.66,8.810082311447268
0,-1953.71,-505.32,-1258.42,-1593.96,8.815082358162051
0,-1954.75,-503.45,-1259.86,-1594.77,8.820082404876835
0,-1965.92,-505.79,-1265.44,-1593.53,8.82508245159162
0,-1974.5,-509.0,-1267.88,-1596.17,8.830082498306403
0,-1970.92,-506.75,-1265.89,-1600.23,8.835082545021187
0,-1967.9,-505.13,-1270.26,-1599.42,8.840082591735971
0,-1971.35,-507.95,-1268.24,-1600.97,8.845082638450748
0,-1961.95,-507.06,-1261.94,-1591.28,8.850082685165532
0,-1964.14,-503.56,-1266.91,-1592.84,8.855082731880316
