labels,F4,F3,Fz,Cz,timestamps
0,4.440272414519084,3.6173286392050263,5.489556180983155,4.844110080272444,-1.9999259499236182
0,2.4999151273738973,2.556919803218452,1.849516750515314,3.644110413128159,-1.9949261350488072
0,-4.9504400420015235,-7.373486214274992,-5.400520373490694,-7.635886766658387,-1.9899263201739998
0,1.48920690511279,-0.17388941703090355,-0.32055519138400823,0.6041185341948362,-1.984926505299189
0,9.118855967437943,4.275710191358357,5.589412296578806,7.414126309070643,-1.9799266904243815
0,-5.391492856443265,-3.3046873926132236,-6.120617909825702,-4.115863448661954,-1.9749268755495706
0,3.2481604318242714,11.104917827454166,2.109354189151772,3.8341492542040467,-1.9699270606747632
0,10.85781583041625,18.344525847595854,12.529328593222244,8.334164410697507,-1.9649272457999558
0,-6.192526662761221,-3.165863336931504,-9.230694698114204,-10.305817986377793,-1.9599274309251449
0,-9.392867050036902,-8.596249731662184,-10.040715685543304,-11.965797944267212,-1.9549276160503375
0,2.506794666415885,5.663366657645674,3.96926563048871,3.4842245302046093,-1.9499278011755266
0,2.256458484776861,-0.3070141746227154,-6.210750750007926,2.0142494307527903,-1.9449279863007192
0,-7.273875596610036,-7.257392234008707,-11.540764826645745,-7.015723248686561,-1.9399281714259082
0,-2.8142075792928853,-4.48776752592397,-0.7407765985603839,-1.6556935140824085,-1.9349283565511008
0,5.215462535412492,-3.7281400554100985,2.9292139356613536,3.3643386288024684,-1.92992854167629
0,-7.494865253624921,-8.208509827025397,-8.03079322224385,-5.405626825624943,-1.9249287268014825
0,-8.595190947378942,-4.488876844811267,-2.16079807034928,-4.225589882839943,-1.9199289119266716
0,-3.045514546431669,-4.189241112256351,2.039199393538508,-2.4855505480742246,-1.9149290970518642
0,-4.585836050798382,-10.049602632299525,-4.25080082815417,-5.8155088261980215,-1.9099292821770533
0,-0.9261554600108617,-0.3299614073205982,-2.0907987328577042,-2.8254647216963265,-1.9049294673022459
0,5.863527226680009,9.89968256074482,8.12920568211771,9.594581761255135,-1.899929652427435
0,2.0732120100319467,2.2193292699888136,1.939212419419548,-1.7353693814825109,-1.8949298375526276
0,-3.1971011093920607,-1.361021281834682,-2.180778518558777,-4.4853181542248235,-1.8899300226778202
0,5.442587868802843,6.448630902702002,6.3692328703344,5.544735438635079,-1.8849302078030092
0,8.292278944859046,1.1182858207980861,5.099246588047511,7.944791392668125,-1.8799303929282019
0,1.9719721186714385,1.0679434694031325,1.6792626362032588,1.054849703162931,-1.874930578053391
0,0.4816673896679865,3.427603845230231,3.4892810160341026,-0.10508963501508262,-1.8699307631785835
0,9.731364756898579,10.917266944737024,15.109301728371237,11.474973372666629,-1.8649309483037726
0,2.261064219046226,5.046932763926547,0.35932477347633096,0.6350387203868578,-1.8599311334289652
0,-5.199234225608655,2.2266012981766226,2.8793501509376687,-2.154893598100881,-1.8549313185541543
0,4.000469420994118,4.766272542310739,8.14937785982147,1.875176410696083,-1.849931503679347
0,-2.1898248430937954,-4.404053509207589,-3.160592101191177,-6.184751259744311,-1.844931688804536
0,-6.2001170197629,-3.034376862048156,-7.0105597336695125,-5.644676615779011,-1.8399318739297286
0,2.6395928892454354,4.895302478194569,3.8794749608638024,3.2554003365460185,-1.8349320590549176
0,3.349304882360597,2.0749845059833407,1.6895119810647405,5.825479591415509,-1.8299322441801102
0,-8.030981041952796,-5.265330784315657,-9.25044867434725,-8.954438857016848,-1.8249324293052993
0,-5.331264885150928,0.8043566016105425,1.2295929934515322,0.5056449853597169,-1.819932614430492
0,6.698453351594733,1.9940466581551777,6.549636983488128,4.195731112783616,-1.8149327995556845
0,-3.051826332661864,-8.97626062019622,-7.790316705152451,-3.1141804804258424,-1.8099329846808736
0,-4.26210393883248,-8.756565238746568,-3.1302680733892707,-4.454089799957433,-1.8049331698060662
0,6.5176205322160685,2.723132797672299,6.369782878013627,4.77600314858789,-1.7999333549312553
0,5.3573470796148275,3.5528334846669094,1.8498361483899877,2.686098359689611,-1.794933540056448
0,-4.302924297725119,-3.247463182054532,-5.6101082630463335,-7.353804172240617,-1.789933725181637
0,-1.583193601106709,-0.6277572068436772,4.199949642825928,-1.1837044527920142,-1.7849339103068296
0,2.3365391681784455,4.291951405952482,3.8900098651231554,8.166397512599474,-1.7799340954320186
0,-4.403725991061316,-4.658337348008819,-9.14992759710533,-0.5534982814918243,-1.7749342805572113
0,-4.493989079903692,-0.5586234730752069,-0.7498627447930368,-1.1933918406953756,-1.7699344656824003
0,6.875749900754847,4.511093026461277,3.4602044213376404,5.7267168291820605,-1.764934650807593
0,-2.1645090498793067,-8.849187853639666,-9.329726099236636,-4.783172277769297,-1.759934835932782
0,-9.204765932605907,-9.70946611746653,-9.489654306806626,-9.383059167462353,-1.7549350210579746
0,-3.135020748042445,1.7302582313348838,2.0204197988167776,1.2770561544531815,-1.7499352061831637
0,1.1747265036098307,1.2699851896116114,-2.7195037816571843,2.727173682704362,-1.7449353913083563
0,-1.6455241775170601,0.4397147544042129,-1.2094250472315597,-0.8427065878320987,-1.739935576433549
0,-1.1357727911546212,-1.0505530772804827,0.7406560032234221,0.9474153376617007,-1.734935761558738
0,5.453980663010677,-2.800818308450531,-0.2792606290806773,2.6775394539207853,-1.7299359466839306
0,-4.5662638147382655,-2.30108094201184,-9.979174942845804,-4.602334244387642,-1.7249361318091196
0,0.7234937758267529,0.8286590193058885,6.410913063429644,-0.3122057625981569,-1.7199363169343123
0,7.293253434912739,6.608401572871205,9.481003391400195,6.887924894017573,-1.7149365020595013
0,3.473015162579567,-0.43185328406283086,-0.078903957499463,2.3480577201128328,-1.709936687184694
0,1.0227789585400506,0.4578944455170143,-1.288808982266575,0.24819271006647667,-1.704936872309883
0,7.002544822130603,6.897644758420619,11.331288317797002,6.098329857962346,-1.6999370574350756
0,8.162312752301062,2.6773976512271487,5.9613879430684085,9.428469157570364,-1.6949372425602647
0,-1.4479172524905248,0.3071531201882155,3.1514898933784057,-0.20138939781114795,-1.6899374276854573
0,5.301854805741967,10.046911161218231,5.391594167962326,8.348754184575789,-1.6849376128106464
0,13.26162892458629,12.716671769791096,19.651700765475276,14.468899896938497,-1.679937797935839
0,4.711405101070439,2.9064349406625434,1.6318096837738607,5.79904773073915,-1.674937983061028
0,1.801183331492032,5.276200667774384,7.981920919758059,7.529197676521994,-1.6699381681862207
0,8.410963611526249,12.275968944388161,12.352034469487247,15.419349723939472,-1.6649383533114097
0,1.8607459363708434,3.865739763101999,2.9521503282510757,5.879503861727982,-1.6599385384366023
0,0.21053030079721446,3.6455131158031118,4.382268490585124,4.189660077673635,-1.654938723561795
0,12.690316699210605,12.845288993739436,13.332388950379844,15.489818358730007,-1.649938908686984
0,9.000105125548195,12.39506738746858,15.202511700801287,16.729978690981355,-1.6449390938121766
0,-3.190104426932582,-5.025151713304627,-7.767363265919139,-4.409858940572045,-1.6399392789373657
0,1.3496880344560926,0.9946316804532025,5.492764041699042,1.2903054481556424,-1.6349394640625583
0,6.4894825021497535,-0.22558244244391246,5.792893614799584,3.030471840859832,-1.6299396491877474
0,-9.24072103154425,-11.745794093094363,-7.496974555673227,-12.889359778801072,-1.62493983431294
0,-2.6709225743277702,-3.276003282275925,-2.136840478877573,-3.469189426948917,-1.619940019438129
0,6.598877866293499,5.163789979710438,5.963295836143401,4.070982880743408,-1.6149402045633217
0,-2.9313197170458776,-3.846414317131499,-7.856565619525465,-2.3488428710598126,-1.6099403896885107
0,-9.831515331699862,-5.166616182710149,-3.746424854705344,-8.448666697571245,-1.6049405748137033
0,3.328291015159401,6.8331843731849835,3.7037181220060496,3.9015113861860007,-1.5999407599388924
0,-7.7019006832840855,-5.477012659117724,-4.336136697760935,-3.0783086345461,-1.594940945064085
0,-5.262090433491002,-1.2772072892490853,-4.765989322237536,-5.788126774338234,-1.589941130189274
0,-6.132278241496427,-7.2873995266993425,-4.0358397594233715,-2.4779430475357205,-1.5849413153144667
0,2.5275358871580313,-1.897589380631275,1.6843119830271214,3.8722425318152203,-1.5799415004396593
0,-2.5726480527160973,-3.7677768598078814,-3.545534102270051,-3.5675700501539414,-1.5749416855648484
0,-5.812830066120177,-2.0879619726331233,-7.185378022503034,-7.427380807225541,-1.569941870690041
0,8.326989842105014,4.921855272738115,8.204780215378177,5.872810247014471,-1.56494205581523
0,4.04681166715089,3.9716748681864975,-1.335059395429609,1.1830030991643334,-1.5599422409404227
0,-9.103364595981216,-4.898503194580224,-7.624896861753733,-7.536802264172499,-1.5549424260656117
0,0.04646104761623299,3.021321075994396,10.465267809593115,0.06339414364972684,-1.5499426111908043
0,-4.913711406937196,-3.88885232853088,-6.314565388157077,-4.316407690488006,-1.5449427963159934
0,-4.423881964179938,-3.32902341649754,-4.864396461777387,-8.116207779376014,-1.539942981441186
0,6.64594937165059,4.6408078039040195,3.785774582076731,6.903993864552996,-1.534943166566375
0,2.8357825964188397,-3.3793586754111242,0.35594773692322923,-0.15580277089967776,-1.5299433516915677
0,-6.33438229414634,-6.279522862472127,-9.563877003651783,-5.985597697920739,-1.5249435368167568
0,-1.094545304393671,2.0003152348632867,1.016300354088965,-0.7753909286595034,-1.5199437219419494
0,4.155293561451325,-0.7998443910230484,2.346479804161313,0.26481752493245664,-1.5149439070671384
0,-1.5048657007519188,-5.480001747596,-12.403338659206904,-5.4349723488947275,-1.509944092192331
0,-8.885023095139772,-6.0401568421314895,-4.903155041508168,-5.804760561677643,-1.5049442773175237
0,-3.9751786256476196,-4.460309681523715,-4.2629693476998884,-1.0045471246086457,-1.4999444624427127
0,-6.185332295740482,-3.660460272177013,-7.872781582120847,-1.7143320485023419,-1.4949446475679053
0,-6.975484108319518,-3.0706086200444993,-4.092591748542548,-5.804115343884947,-1.4899448326930944
0,1.5243659342515263,1.0792452692680192,0.03760014978417631,2.0761029789680814,-1.484945017818287
0,10.244217829939053,5.54910139032313,4.867794109945127,12.246322909916344,-1.479945202943476
0,-0.3559284233860124,0.1989597376047088,2.407990129039098,3.086544438578173,-1.4749453880686687
0,-5.306072828180616,-4.021179694594011,-3.7618117960246407,-2.613232445949666,-1.4699455731938578
0,3.963784612957631,3.3986830879484646,-1.8116116684409218,6.656992245028864,-1.4649457583190504
0,-5.276356102493183,-5.831451920485387,-7.4114094912662125,-4.532781499978935,-1.4599459434442394
0,-11.606494976869216,-5.941584725462326,-9.491205267175568,-6.612553692513286,-1.454946128569432
0,3.433367987883647,4.8882846677205425,11.629001001654027,5.577675656031859,-1.4499463136946211
0,11.233232790195835,-0.4318437460119525,-0.12079068669867699,7.407906534393007,-1.4449464988198137
0,-2.8369005715691635,-2.7119699717063037,0.9394196656937978,-3.9318610688647655,-1.4399466839450028
0,0.31296790059605767,-0.0820940144095682,-0.620367943481189,0.14837283455206363,-1.4349468690701954
0,4.4028382044736345,1.1477841209060253,2.419846483361925,1.4786082328539745,-1.429947054195388
0,-5.4672896622389775,-5.852335570652392,-6.689937056208982,-4.391154885712787,-1.424947239320577
0,-2.5174157018469923,5.08754690611044,6.140281435420512,3.2490834671514817,-1.4199474244457697
0,-2.15753991649065,-0.9825684535418207,0.8105019558995596,0.05932327979050778,-1.4149476095709588
0,-10.107662307997785,-5.312681654339539,-9.959275497157876,-6.410435459435064,-1.4099477946961514
0,-9.187782877720775,-5.912792700900085,-3.1890509260143167,-9.52019276200509,-1.4049479798213405
0,0.6420983736449742,2.227098402476626,4.5011756674246755,-1.0699486389482842,-1.399948164946533
0,9.031981445928269,4.046991651763143,2.471404281482939,2.070296899223737,-1.3949483500717221
0,-3.4981336609788896,-3.6231129570494955,-6.188365085564303,-8.14945615769161,-1.3899485351969147
0,-1.378246947380523,1.9467845719400625,5.22186756449661,-3.189207819670371,-1.3849487203221038
0,3.2416415863370625,3.846684234582566,3.0421022298720968,0.9510419036366958,-1.3799489054472964
0,-2.918468060193052,-2.8834139733548616,-5.627661091326325,-4.948706997111589,-1.3749490905724855
0,-3.548575887308659,0.5664899437957955,0.7525775989447197,-3.9984545310190773,-1.369949275697678
0,8.271318104724573,7.306395981644077,10.452818298746323,5.57179929305075,-1.3649494608228672
0,-1.408786084370943,-2.983695864334139,-3.0669389940052656,1.4420544663507688,-1.3599496459480598
0,-2.888888455018823,0.20621440114531275,-3.0666942816663085,-0.9176890199715357,-1.3549498310732524
0,3.8710109922757234,5.526126773255529,9.343552433277608,4.162568825064151,-1.3499500161984415
0,1.2809122569948979,-1.2039587529369915,0.09380114823585617,1.8328279922901403,-1.344950201323634
0,-8.469184661421199,-5.974042182488767,-8.425948139581115,-5.946911527608256,-1.3399503864488231
0,-0.02927976344949812,0.34587647959520434,0.6443045670261267,-1.7366497439528477,-1.3349505715740158
0,9.83062695062851,5.565797228481514,6.25455926545183,1.5436133341144151,-1.3299507566992048
0,-4.969464519478295,-4.864279940629006,-11.30518404681214,-6.066122302351701,-1.3249509418243974
0,-4.2895541742206955,-12.88435503251397,-3.494925372170178,-6.685856662086007,-1.3199511269495865
0,-0.39964201400028365,1.6155719483929787,1.635335287305171,4.034410246509406,-1.314951312074779
0,-3.5897280389692248,-4.784499001796831,-7.404402070088477,-4.635321584654836,-1.3099514971999682
0,-3.8398122490195483,-3.0645678865525023,-2.4541374457640384,-5.9250521634668445,-1.3049516823251608
0,5.620105356182975,8.245365290895151,7.536129159131361,5.8452185024055545,-1.2999518674503499
0,-1.899975222922619,-3.724699472644194,-8.523602256421025,-4.204509594517165,-1.2949520525755425
0,-9.460053985883349,-6.684762180426871,-9.723331693343614,-8.684236461600413,-1.2899522377007315
0,-0.7401309320554341,-3.994822835568188,-1.1630591521721851,-5.923962105914793,-1.2849524228259241
0,-1.8702060604081012,-5.134881440770224,-3.9127846328735023,-2.443686533987714,-1.2799526079511168
0,-7.470279369550521,-12.604937998201878,-16.022508134890337,-7.863409751785502,-1.2749527930763058
0,-11.370350857696838,-5.874992509363759,-0.772229657040124,-8.16313176474732,-1.2699529782014984
0,2.7795794775217377,0.4549550249936151,0.46805080256330833,-3.3728525777097222,-1.2649531633266875
0,5.639511638980598,-5.975095395302149,-6.591666753722936,-2.502572194907863,-1.2599533484518801
0,-0.5505543703579964,-2.1051437700619156,-2.9213823232641767,-2.132290620132625,-1.2549535335770692
0,7.39938145223211,13.794809901113677,14.23890409679281,8.587992143047844,-1.2499537187022618
0,12.449319109086929,10.384765618444451,9.569192509160608,8.938276090961107,-1.2449539038274509
0,0.11925860194736601,2.2747233814672345,1.6994829158995917,-3.0314387805110314,-1.2399540889526435
0,-4.480800068052898,-0.9153168110334136,1.0097753183440803,-2.9411524759174954,-1.2349542740778325
0,5.169143099944917,2.974645039311264,4.330069717395635,5.6891350000704355,-1.2299544592030252
0,-3.4409118932204157,-6.535391069247816,-7.1896338862423885,-5.850576357194743,-1.2249546443282142
0,-4.210965046681067,-1.2154251383933863,-1.2993354918767468,0.6197134476606951,-1.2199548294534068
0,1.7689836405496284,1.0945428303865992,4.600964901340477,2.720004410071776,-1.214955014578596
0,-7.121065830335239,-2.7854871642200654,-10.148732705596892,-5.919703474471543,-1.2099551997037885
0,-11.321113457841342,-4.6055151234003,-7.998428311491817,-7.019410210371157,-1.2049553848289776
0,4.318840760017698,3.244458951833865,0.20187808531284937,4.980884198257942,-1.1999555699541702
0,1.9987968256871165,0.20443506061953992,1.132186486973761,1.4711797475543864,-1.1949557550793628
0,-3.7512452582523856,-5.525586797866891,-4.637503104102581,-6.608523566313669,-1.1899559402045519
0,5.4287145107289145,9.004393375572256,8.012809314556932,11.721774252779154,-1.1849561253297445
0,5.2786761350584674,3.6543755800702393,3.9831237453465804,6.852073200806286,-1.1799563104549335
0,-4.471360383056743,-7.595640185478029,-7.066559809579958,-5.457626726668526,-1.1749564955801262
0,-4.901395041573143,1.5543460776787559,-0.2662413482076887,-1.637325534434377,-1.1699566807053152
0,12.988572161594815,9.294334368331093,15.974079131499952,12.272976772646102,-1.1649568658305078
0,0.5685412284687031,3.68432468512665,-2.105598368639117,6.993280189519611,-1.159957050955697
0,-3.5514878392499605,0.7943170262874508,-1.235273847282135,1.1235847105807135,-1.1549572360808895
0,5.698484959884881,3.9243113896218746,5.445052696600091,5.043890329621537,-1.1499574212060786
0,2.9784596271991814,-7.385692227287624,-3.854618736073241,-3.125802959955923,-1.1449576063312712
0,-2.481563836163649,-3.8056938268406655,-6.924288144402878,-6.605495164887108,-1.1399577914564603
0,2.8584145707568767,-0.06569341117442568,-0.3939555273028438,-1.7351862917519019,-1.1349579765816529
0,4.318394848808779,5.194309017838885,7.376379116591186,8.705123653145877,-1.129958161706842
0,1.568376998663235,-4.555686541631661,-3.413284211308856,0.9254346635281644,-1.1249583468320346
0,-7.431638979213767,-3.0356800914525257,-4.492945509698237,-3.5542532671194946,-1.1199585319572272
0,9.358346915587903,9.024328366569115,5.127395222753432,9.956059854478886,-1.1149587170824162
0,-0.23166531654110234,-0.25566116940191086,-4.162262012520684,-1.09362597858197,-1.1099589022076088
0,-13.981675675289825,-13.865648701338122,-11.081917213975668,-16.81331077336124,-1.104959087332798
0,0.8383158398139392,-1.7156342310558472,-0.8615703797369646,-1.46299453668037,-1.0999592724579905
0,-11.141690770250856,-11.10561775980429,-13.271221507353301,-11.602677274674589,-1.0949594575831796
0,-13.43169550384085,-14.435599288072398,-10.58087059365909,-10.41235899266366,-1.0899596427083722
0,-4.7016983584852605,1.3944211845257888,4.119482365317047,-2.752039695135049,-1.0849598278335613
0,5.168300669126592,0.4744436591475757,-0.4601626258360896,0.8582806141573361,-1.0799600129587539
0,0.8483015827410063,-3.0855318626742654,-6.729805562289531,-3.9713980681124594,-1.074960198083943
0,-0.08169561390837415,1.5244946206954852,5.650553560896091,-0.7110757450703132,-1.0699603832091356
0,10.588309082721395,9.174523110891734,7.71091474870753,5.7892475802810175,-1.0649605683343246
0,-0.9016843241282784,-1.615446390647645,-6.4587219940566225,-0.10042809508421274,-1.0599607534595172
0,-0.26167583158231883,2.414586117186415,1.9416433371694017,2.85989722562321,-1.0549609385847063
0,3.0283345629978173,5.694620635235792,16.762010746815765,11.100223538922432,-1.049961123709899
0,4.278346862117947,5.6346571640646825,1.6623802389337312,10.230550840862701,-1.0449613088350915
0,4.518361068053439,3.904695703819299,-0.03724818308593096,5.8108791267341955,-1.0399614939602806
0,2.718377182724641,2.464736254176564,8.983125483613026,4.5612083909963985,-1.0349616790854732
0,5.568395207664123,2.9947788144206346,2.703501241510428,5.111538627437696,-1.0299618642106623
0,-9.74158485590722,-7.225176616412719,-11.976120907244155,-10.318130170585718,-1.0249620493358549
0,-1.7915630068174506,1.6048699606852828,-3.3657409605062893,2.0322019901882213,-1.019962234461044
0,4.238460756326867,1.604918544850535,1.8846410842558632,6.342535103158013,-1.0149624195862366
0,-3.0215135648968907,-9.575030864662752,-7.724974770026581,-4.46713083825913,-1.0099626047114256
0,-4.101485968864644,-4.104978268395913,-5.064588520117506,-7.226795840711623,-1.0049627898366182
0,3.3985435461449147,3.3350763334902758,7.875799837551348,6.013540089287881,-0.9999629749618073
0,4.138574981942721,-2.0548670588603235,-0.7138096932775516,5.443876945381365,-0.9949631600869999
0,-11.661391659695928,-7.544808445171427,-10.143417108899909,-10.33578527887537,-0.989963345212189
0,0.13864362307843384,-0.7847478249594005,5.706977594465938,2.35455341000948,-0.9849635303373816
0,6.998680832373774,1.225314802576366,3.117374420783652,7.814893005631217,-0.9799637154625707
0,-8.13128002956914,-2.924620561550639,-6.9222266259739795,-5.054766498441781,-0.9749639005877633
0,3.568761039478728,7.315446083720048,7.2081744580994345,1.4055748911934383,-0.9699640857129559
0,9.588804041726851,7.97551473930395,5.398577676844061,6.165917167848086,-0.964964270838145
0,-2.1511510208106572,1.4455854057101034,-4.311016966118851,-1.5637396752831452,-0.9599644559633376
0,-5.96110414641866,-3.8243419170160404,-0.37060946739141626,-5.283395645163776,-0.9549646410885266
0,-2.271055333399703,0.9357327709668368,2.9298001763975656,1.326949251261304,-0.9499648262137192
0,3.548995420189126,-1.3441905304586232,1.7402119686230082,1.657295007198683,-0.9449650113389083
0,-7.720951883507465,-2.6741118213106008,-12.669374087377179,-7.372358384051126,-0.9399651964641009
0,3.449102757784252,5.275968898475314,11.18104201184273,3.1979890709121137,-0.93496538158929
0,3.409159346442643,1.4060516289512135,7.841460269810995,5.338337365598857,-0.9299655667144826
0,-3.650782115174273,-1.433863629975755,-5.648119310211181,-1.751313506547135,-0.9249657518396717
0,-0.8907216247756443,-1.8037768785160853,-1.6176967252967722,1.6990364477222837,-0.9199659369648643
0,0.079340819979867,-3.653688116828109,0.17272802746685734,0.4593872215257896,-0.9149661220900533
0,-3.3805947784470125,-7.723597344841895,-5.026845048832373,-4.1602611920561925,-0.909966307215246
0,-14.760528417382377,-9.633504562054663,-10.386415950853394,-13.089908799809388,-0.904966492340435
0,2.3295399063199764,0.3165902326511363,5.544015325153301,5.030444391899134,-0.8999666774656276
0,3.969610196346294,-2.1733129590392153,0.9544487832971483,2.7707983771392524,-0.8949668625908203
0,-3.140317543399727,-3.103214135098548,-2.875115572237115,1.971153150062055,-0.8899670477160093
0,9.369756690893158,7.8768867066582535,15.065322262606903,8.611508704573934,-0.8849672328412019
0,7.7298329027648105,1.556989568379345,4.735762291537895,5.181865034170065,-0.879967417966391
0,2.539911095261432,-4.172905547998546,-0.27379548233518647,-2.987777868141972,-0.8749676030915836
0,1.4099912708673823,-1.5827986406572434,-3.0133510564007606,-0.3074200096906402,-0.8699677882167727
0,6.560073431654676,6.617310292286253,6.457095571789796,7.782938602085888,-0.8649679733419653
0,-0.8998424206193849,-4.2825787472701995,-6.82245559534272,-1.0967020403809111,-0.8599681584671544
0,-2.2897562844510206,-0.8424657574970482,-5.652004555337745,-0.10634194489070636,-0.854968343592347
0,10.280331841521216,9.74764926340132,9.438448694455753,10.344018880548827,-0.849968528717536
0,-7.3895780414809895,-9.112233682866608,-6.181095843170122,-7.0456195722959585,-0.8449687138427286
0,-9.899485932309982,-6.212114594642065,-9.760638165378886,-10.225257311793232,-0.8399688989679177
0,0.9606081704506455,2.348006529971278,4.689821730905412,-2.334894346041869,-0.8349690840931103
0,-4.579295731299284,-4.521870306770422,-3.6697161508835507,-2.304530682587946,-0.8299692692182994
0,-9.28919763524084,-9.071745102324654,-13.249251807038037,-13.824166328459853,-0.824969454343492
0,-4.789097538595605,-1.981617853770112,0.20121476655039053,1.2961987098459815,-0.8199696394686846
0,3.3610045619559883,1.508511442280774,1.591683574520337,3.856564426353491,-0.8149698245938737
0,-4.458891329892158,-5.831357210464828,-5.7978453781553965,-7.123069184660765,-0.8099700097190663
0,-9.598785210228717,-5.771223808074208,-5.987372086308734,-5.712702128800038,-0.8049701948442554
0,7.751322925154421,13.00891165363502,10.933103455479435,6.987665588587157,-0.799970379969448
0,9.9214330806549,9.629049178813439,7.0635812526691675,11.528033962270706,-0.794970565094637
0,-3.2584547395736374,-0.11081122892130427,-4.155938689644437,-0.591597013329361,-0.7899707502198297
0,6.541659468169269,8.89933043336355,10.814543633181271,6.898772655622797,-0.7849709353450187
0,5.271775707222856,3.3294741680541198,4.755028225409849,8.119142962444117,-0.7799711204702113
0,0.18189398057690442,2.1096199770616018,-0.90448490914226,1.1495138999387695,-0.7749713055954004
0,3.862014290861188,10.27976786184557,7.3660042329068185,7.679885460375511,-0.769971490720593
0,8.45213664038515,7.149917823359405,7.796495654563505,14.420257635466205,-0.7649716758457821
0,-0.527738968922015,-2.5599301380491846,-2.763010641614815,1.210630416206543,-0.7599718609709747
0,-3.2976125355020542,1.6402239774955036,-2.802514653445047,2.231003792828269,-0.7549720460961638
0,1.2325159420660123,2.1403801696730054,3.1979836211708763,6.911377755024396,-0.7499722312213564
0,5.252646465223009,-0.7294615619259295,-1.6515158156146064,6.181752292083475,-0.744972416346549
0,-0.3272209646776573,0.18069878220357086,0.1589870383584483,1.3321273928211386,-0.739972601471738
0,2.502913653508353,2.4308612015117146,0.9894921852396038,3.2425030455932533,-0.7349727865969307
0,8.283050320690519,9.191025695331692,9.60999962711076,7.982879238386724,-0.7299729717221197
0,-3.7268109625161454,-6.418807737276815,-6.279490634171959,-10.276744041131918,-0.7249731568473123
0,-8.016670195718564,1.5613609024966686,-2.638978596959511,-6.846366805382878,-0.7199733419725014
0,-0.1265273784085077,3.8315316133970945,6.991535740408152,-1.085989066451634,-0.714973527097694
0,-11.286382509672775,-10.308295605817799,-12.637947620311442,-9.495610835887819,-0.7099737122228831
0,-9.986235588039971,-9.318120756221417,-9.307428677149193,-7.635232124694248,-0.7049738973480757
0,1.033913388662329,-1.6479438383764828,7.523092572352285,1.0251470567207681,-0.6999740824732648
0,-1.4259355767695336,-3.4377648522165845,-3.336383868907349,-6.524473301519294,-0.6949742675984574
0,-5.475782481197023,-3.2175837972221157,-7.055857997875404,-9.464093208868503,-0.6899744527236464
0,7.184372678695739,8.622599327374822,11.104670188600366,6.696287325668982,-0.684974637848839
0,7.96452990622959,3.1627845223241637,5.26520069366287,4.846668293394467,-0.6799748229740281
0,-2.0953107955762063,-3.2570282118970213,3.4357335200924157,-1.002950314476862,-0.6749750080992207
0,-1.9251494240721838,-1.1968388750309762,-1.7737313298233564,-0.6425685069840692,-0.6699751932244098
0,10.57501402321244,8.843352533144808,11.18680614585695,9.487813706669503,-0.6649753783496024
0,2.2451795485501327,2.0135460127289964,2.7473459487346354,-1.8718036829206572,-0.659975563474795
0,-2.8546528461505845,-2.1662584364896347,-0.41211192003973063,0.6585793145576062,-0.6549757485999841
0,13.485516840678393,15.463939184954679,16.008432540235,9.698962689182611,-0.6499759337251767
0,17.105688610157863,14.444138876039409,14.13897932966408,14.449346430672271,-0.6449761188503658
0,7.065862462512265,7.304340634821461,10.379528447353826,4.409730528006785,-0.6399763039755584
0,20.41603839673382,21.314544458159073,23.13007989111315,17.500114969184573,-0.6349764891007474
0,26.426216410399896,26.934750341514718,24.600633657217,19.20049974108886,-0.6299766742259401
0,19.09639649930609,21.544958278519385,16.911189740054514,13.150884829220576,-0.6249768593511291
0,20.00657865715565,21.34516826060202,19.88174813195689,8.521270217554303,-0.6199770444763217
0,23.096762875558614,26.3253802769388,25.102308823260678,12.581655888725924,-0.6149772296015108
0,22.756949144067246,25.24559431444277,19.11287180228692,9.052041824261366,-0.6099774147267034
0,17.777137450124265,21.535810357668442,18.513437055274444,5.532428004685263,-0.6049775998518925
0,28.337327779051403,30.186028388768918,30.934004566392378,17.24281440959372,-0.5999777849770851
0,28.287520113963915,23.056248387460084,22.88457431762268,10.873201017597433,-0.5949779701022742
0,21.657714435549757,23.926470330969895,22.87514628855357,10.48358780615903,-0.5899781552274668
0,24.377910721989448,24.86669419408381,26.785720456351164,10.553974751570689,-0.5849783403526594
0,30.988108949028682,28.096919949191452,25.90629679579034,16.084361829016846,-0.5799785254778485
0,23.95830908992252,24.387147566218328,23.646875279196305,12.224749012508951,-0.5749787106030411
0,22.508511115348092,25.247377012564815,21.547455876449344,8.235136274802253,-0.5699788957282301
0,27.728714993487387,28.887608253114145,28.36803855507458,15.765523587452707,-0.5649790808534227
0,19.738920690132627,20.687841250232893,21.478623280254855,7.545910920890286,-0.5599792659786118
0,12.559128168812022,14.678075963876005,19.609210014825635,3.8662982444867833,-0.5549794511038044
0,21.06933739108633,23.04831235188773,27.68979871936969,12.44668552673398,-0.5499796362289935
0,16.1695483167965,10.278550370272622,10.850389352317347,7.927072735351851,-0.5449798213541861
0,5.1697609041626,4.508789973432197,7.4909818701693585,-0.9525401627220815,-0.5399800064793752
0,8.099975110049304,12.209031114557723,19.12157622793759,6.1078467988198755,-0.5349801916045678
0,12.680190890335936,11.36927374591859,8.282172379411364,4.208233585876865,-0.5299803767297568
0,-1.529591799917894,-2.5404821810955527,-3.9072297227448534,-6.731379835961851,-0.5249805618549495
0,-3.109373006288252,-2.0702367157606507,2.0333698734024033,-8.890993501185429,-0.5199807469801385
0,-1.4291527745690802,2.0900100924266294,1.123971119554818,-4.690607443931484,-0.5149809321053311
0,-6.508931150406234,-6.3897418059741025,-8.265426032592504,-9.490221697702971,-0.5099811172305238
0,-17.17870817904524,-14.669492460168769,-16.90482163110703,-16.65983629524127,-0.5049813023557128
0,-3.5384839050002315,-8.239241918760795,-3.254215723362594,-6.099451268329781,-0.49998148748090543
0,-15.228258371811762,-15.39899022938048,-11.893608355769421,-13.44906664765359,-0.4949816726060945
0,-23.03803162192204,-22.31873743845011,-20.77299957374074,-24.998682462731438,-0.4899818577312871
0,-13.02780369638592,-8.848483590942156,-7.562389421521285,-9.528298741674385,-0.48498204285647617
0,-2.3075746346930117,-5.048228730342431,-7.291777942058946,-2.2979155110692555,-0.4799822279816688
0,-15.257344475054225,-18.507972898940658,-18.501165177156903,-14.827532796318227,-0.47498241310685785
0,-14.357113254679675,-11.577716137969565,-12.960551167511865,-8.977150621939472,-0.46998259823205046
0,-0.9468810097312534,-4.217458487501417,-6.619935952565232,-1.0667690115704103,-0.4649827833572395
0,-18.476647775325304,-17.657199986493907,-18.58931957051562,-16.15638798802129,-0.45998296848243214
0,-16.106413585552993,-20.026940672804106,-19.60870205831951,-15.006007573269471,-0.4549831536076212
0,-2.9961784733096684,-5.1266805829520035,-1.6080834515268907,-1.295627788248407,-0.4499833387328138
0,-5.595942470339577,-12.286419752070731,-11.687463784368202,-4.255248652885803,-0.4449835238580029
0,-19.46570560751804,-19.046158214095765,-23.876843089994452,-10.634870186430085,-0.4399837089831955
0,-9.385467914813711,-10.085896001741789,-2.6162214003737967,1.1655075924008538,-0.4349838941083881
0,-7.985229421052564,-12.445633146375966,-13.015598746164846,-2.104115334626949,-0.4299840792335772
0,-21.69499015388306,-23.665369678011263,-25.00497515680885,-16.603738985352344,-0.4249842643587698
0,-9.724750139727373,-12.975105625189117,-11.514350660383473,-7.483363377051259,-0.41998444948395885
0,-8.84450940367294,-8.544841014854073,-7.6937252833929115,-1.5429885261573886,-0.41498463460915147
0,-14.934267969568738,-11.714575872545211,-14.993099050953923,-5.602614448342096,-0.40998481973434053
0,-11.964025860135196,-9.60431022268567,-13.372471987023056,-7.322241158756134,-0.40498500485953315
0,1.0262169030124522,0.9559559112444637,4.788155885544785,4.418131327889084,-0.3999851899847222
0,-11.023539700844381,-13.473777493488022,-15.751215455225612,-11.141497002744593,-0.3949853751099148
0,-20.03329569168901,-20.953510458890346,-20.710586030557725,-19.031126164556852,-0.3899855602351039
0,-9.87305108850631,-8.273243005881737,-10.109955860568975,-2.320756170625923,-0.3849857453602965
0,-4.872805909017064,-8.582975154039998,-9.029324963964655,3.5196129669448046,-0.37998593048548557
0,-10.652560169842921,-11.972706921766523,-17.388693358154754,-8.800018763364335,-0.3749861156106782
0,-2.6823138867893745,-2.7024383265121044,-1.5380610594143223,0.7003486271808721,-0.36998630073586725
0,4.047932924946635,6.617830614994698,5.252571916903667,10.48071512748366,-0.36498648586105986
0,1.5881802504469924,-1.661900113683195,-5.396794444114184,1.721080726348886,-0.3599866709862525
0,0.5184280747340597,0.4083694709521145,1.6038398426918454,3.1714454121738056,-0.35498685611144154
0,5.078676382646392,7.728639352257505,7.984474762472375,12.321809172881304,-0.34998704123663416
0,2.9989251587983428,6.048909513350077,4.2551103001985355,11.36217199580307,-0.3449872263618232
0,-9.490825612418785,-9.940820063021981,-14.554253559471409,-4.1674661325181015,-0.33998741148701583
0,-8.770575946565549,-5.290549394247841,-1.1736168318772302,-2.2871052261584075,-0.3349875966122049
0,-4.320325858719879,-6.140278497381705,-6.142979531913361,-5.116745299306798,-0.3299877817373975
0,-14.550075363232692,-13.100007388849969,-15.162341673860906,-11.156386365843787,-0.3249879668625866
0,-13.629824473588389,-7.909736084298203,-8.171703271240371,-4.246028439084303,-0.3199881519877792
0,4.140426797725437,4.800535401451677,8.438935663285921,9.284328468249516,-0.31498833711296825
0,-7.81932156095356,-9.57919294583551,-12.760424882367046,-6.515315656292903,-0.30998852223816087
0,-10.23906956076568,-9.528921140006611,-12.80978491991245,-8.804960825117544,-0.30498870736334993
0,1.1611827876588527,0.41135080560221876,0.7208555395544036,0.9953929496153763,-0.29998889248854255
0,-2.9985645257810463,-8.028377121754195,-5.578503514318096,0.5557456561422393,-0.2949890776137316
0,-8.418311510807598,-11.868104934277905,-12.587862091305732,-10.56390271703237,-0.2899892627389242
0,-3.5380581767728905,0.8421673564541873,4.142779799361232,6.826447818820965,-0.28498944786411684
0,3.972195467406393,-1.9775602605167704,4.703422148914259,2.86679725261414,-0.2799896329893059
0,-4.087550586905746,-7.797287795746865,-8.335935051289777,-5.80285442677064,-0.2749898181144985
0,0.3027036517446936,4.0929847404967745,2.614708190097032,1.3674927694748715,-0.2699900032396876
0,2.5929581748626886,0.4232573381725985,0.3553518645214704,-2.842161169756252,-0.2649901883648802
0,-6.356787026006953,-6.726470012677866,-5.724004036464635,-5.811816255392554,-0.25999037349006926
0,-5.696531959207123,-6.186197321879295,-7.973359521147392,-6.171472498077451,-0.2549905586152619
0,5.553723367191424,6.074075401067791,8.557285402513653,4.3288700919423855,-0.24999074374045094
0,1.193978945322493,-0.09565185309728985,-0.3120692732190563,2.7292115046828256,-0.24499092886564355
0,-4.725765232705835,-4.655379093634787,-3.241423556139293,-5.090448269848163,-0.23999111399083262
0,-3.2555091747947698,-1.8551063297870636,-2.7307774540937153,-1.0501092416800024,-0.23499129911602523
0,1.9147471113318515,-1.7248335706054085,-2.1501309747754895,1.20022857926936,-0.2299914842412143
0,-6.454996381830429,-4.634560824889169,-9.199484125588835,-3.449434816780439,-0.2249916693664069
0,-10.564739661526424,-8.704288101135315,-10.47883691348536,-14.599099439424181,-0.21999185449159597
0,1.2555172654576554,-2.7440154073895435,2.121810655230624,-4.018765297773653,-0.2149920396167886
0,-8.444225607112113,-9.073742751134178,-10.967541425110214,-14.53843240014406,-0.20999222474197765
0,-7.013968284970595,-8.423470139238864,-4.276893159650357,-10.768100753907914,-0.20499240986717027
0,-0.6537107733356643,0.25680242208158865,-1.2762445530076607,-1.9277703654458112,-0.19999259499236288
0,-1.4034530769465485,-1.1929250728412633,-3.535595609336953,0.0725587596800425,-0.19499278011755194
0,-5.463195200228933,-4.792652629366633,-5.844946332453836,-7.41711338362811,-0.18999296524274456
0,-5.92293714732951,-0.212380252647123,0.6857032741505148,-0.8967868001720906,-0.18499315036793362
0,1.107321077980239,-2.1421079476145723,-2.3536467927100713,-0.48646149444797837,-0.17999333549312624
0,-10.592420527675715,-11.231835718948538,-14.352996535938242,-8.35613747067617,-0.1749935206183153
0,-11.752161967206817,-7.001563570899826,-7.0623459579392565,-6.4258147327497515,-0.16999370574350792
0,1.8180967571485973,1.888708492903502,-0.3316950603669324,1.524506715908154,-0.16499389086869698
0,-7.211644356167672,-5.811019530634925,-9.431043844187784,-5.935173127685698,-0.1599940759938896
0,-10.011385308192995,-7.3507476442553035,-8.180392309817343,-10.904854266151808,-0.15499426111907866
0,5.538873900536085,-0.9804758503039586,4.870259542893994,0.6954632983694338,-0.14999444624427127
0,3.9391332698543398,-0.7102041507004938,1.4409117144989405,4.235779564228613,-0.14499463136946034
0,-9.040607200358902,-9.489932547039242,-10.248435794343742,-6.983905470008211,-0.13999481649465295
0,1.319652489769952,3.2903389593911263,4.952217017122708,1.9064081942782993,-0.13499500161984201
0,2.649912340266838,-1.6793896323980768,-2.227129850142397,-2.3032794441772393,-0.12999518674503463
0,-7.219827648714926,-8.519118323187524,-9.776476395006064,-6.032968386472453,-0.12499537187022725
0,-2.929567476902264,-2.2388471134977954,-0.7658226160694013,-1.8226586334672565,-0.11999555699541631
0,8.970692856185813,4.651423996508772,1.8948314884547797,8.747649814234864,-0.11499574212060892
0,1.8209533510674283,-0.22830499314258695,-1.7345140794022955,2.647956956028507,-0.10999592724579799
0,-1.9887859919839137,1.4519659175065984,-0.15385931755726037,0.6882627910013474,-0.1049961123709906
0,4.421474827059674,4.9422367282580195,6.15679577606139,4.538567317898103,-0.09999629749617966
0,-0.7382641919034335,-0.17749256128170934,1.467451203402604,-0.0211294647900463,-0.09499648262137228
0,-9.178003049025142,-8.847221951662267,-10.561893033766683,-10.810827558704153,-0.08999666774656134
0,12.622258255620688,6.613048556619144,9.698763066316038,5.609473034630034,-0.08499685287175396
0,4.822519721949772,0.21331896320036947,6.11941950545238,2.5297723139023645,-0.07999703799694302
0,-5.447218650439513,-3.9064107322871826,-2.469923714795989,-5.86992972216459,-0.07499722312213564
0,2.3130431377421186,3.1638594697488034,6.230733406759384,1.9403669251197324,-0.0699974082473247
0,6.213305085694467,7.684129568874038,6.3513908709986815,10.180662254455124,-0.06499759337251731
0,-1.3464328075069436,-4.135600435529454,-3.19795132153781,-1.689043735639407,-0.05999777849770638
0,-2.486170542988819,-1.9253305443011606,3.812706829376173,-1.068751046980717,-0.05499796362289899
0,7.364091878021655,9.60493924165252,11.563365323727842,7.811540318394842,-0.04999814874809161
0,-0.07564554579581795,2.7052089212990618,4.874024161093067,1.8818303582673563,-0.04499833387328067
0,-1.545382815950542,1.3254784932532115,0.7646833404286216,-5.117880929846774,-0.03999851899847329
0,7.9948800658757415,8.155747955726792,8.525342860137904,5.032406451410454,-0.03499870412366235
0,9.215143097763901,6.9160173065181185,6.586002718159554,6.132692499330419,-0.029998889248854965
0,-1.364593722675224,-0.9837134570835808,0.5666629119086826,-3.5970227889930233,-0.024999074374044028
0,-8.464330398267906,-2.0634443382118657,-8.842676561612402,-3.3567394166739124,-0.019999259499236643
0,0.635933068138563,3.176824659848471,3.967984294556798,7.623542613160764,-0.014999444624425706
0,-4.413803326005395,-2.9629064661894797,-7.61135452240442,-2.656176702612799,-0.009999629749618322
0,-1.1935395829433857,2.407362280385087,-3.9406930150404236,-2.2458973672148503,-0.0049998148748073845
0,5.716724295272497,3.9376308962437903,4.489968814408251,5.074380616090145,0.0
0,1.6869883065879057,0.09789937792664796,-2.039369036090709,2.874657243996803,0.004999814874810937
0,-6.742747551204431,-5.031832278182499,-9.308706568484979,-10.515067486920644,0.009999629749618322
0,1.057516719652409,2.758435924291815,10.611956215429004,1.5452064199435855,0.014999444624429259
0,5.90778111702404,3.3087039817951833,3.1926193139392693,3.445478961420147,0.019999259499236643
0,-2.0619543612399407,-1.4110281092776085,-1.4767172748834254,-5.794249865527014,0.024999074374044028
0,-5.0916897174092215,-2.830760352637574,2.5739464467336033,-2.2939800638782137,0.029998889248854965
0,6.238575046257531,6.549507247987511,10.454610476348279,9.436288363502877,0.03499870412366235
0,-4.011160072425609,-7.470225311126549,-4.674725188785109,-0.2534445862717441,0.03999851899847329
0,-5.010895075607723,-6.3599580336449915,-8.844060551680146,-6.823178916295864,0.04499833387328067
0,6.739370034668711,12.790309076974555,10.596604384700912,11.627085370225512,0.04999814874809161
0,-2.1203647435472672,-1.8494239826514192,-1.9127303824773416,0.447348269999521,0.05499796362289899
0,-10.940099412188111,-5.819157216092758,-10.512064856082954,-7.992390220485961,0.05999777849770993
0,-1.1498339729689842,3.441109372996231,1.8686009611262724,-0.19213010480535647,0.06499759337251731
0,7.870431572785217,4.4513757810300785,6.8692670666712825,5.568128613648206,0.06999740824732825
0,-0.9893027761146864,-1.37835799564944,-5.470066541861584,-3.91161406843156,0.07499722312213564
0,-5.1090370209955696,-3.9380919608539493,1.1706001330076763,-4.661358154377001,0.07999703799694657
0,5.141228836760297,2.522173881606451,-0.10873291124764212,1.1988963525939977,0.08499685287175396
0,2.1014947957954115,-3.5775604719676606,-5.468065677069665,-5.850850550498462,0.0899966677465649
0,-0.13823914535538975,0.39270497482119343,1.692601833231102,-2.840598866380784,0.09499648262137228
0,12.082027011601653,7.952970218405746,10.413269617434798,10.179651402440651,0.09999629749617966
0,4.992293264558273,5.183235255050911,6.193937673102256,2.6999002534339565,0.1049961123709906
0,-4.847440389136633,-0.2264999193815257,-1.065394002738355,-3.1998523162458854,0.10999592724579799
0,0.9728260475022121,6.373764690551546,8.70527458642396,4.170393690279298,0.11499574212060892
0,3.6830925713959135,1.9640290799596722,1.985943436700744,6.870638269733579,0.11999555699541631
0,-2.50664082055675,-1.5157067563450592,-3.923387456150648,-1.1891185814101435,0.12499537187022725
0,-2.756374131507877,1.8445571762495474,3.9172819034207658,0.5411231330140261,0.12999518674503463
0,8.153892635403867,5.214820872247746,5.997951510876017,5.201363408977382,0.13499500161984557
0,-3.625840522997395,-3.3049156739955117,0.25862136146884357,-6.388397757668738,0.13999481649465295
0,2.8844263899677585,4.1553475317037485,-1.9107085498322607,-3.4781603710925433,0.1449946313694639
0,0.5446933708558459,3.605610483388838,2.399961771793733,0.38207556472389387,0.14999444624427127
0,-2.6550395838404364,-6.554126825047887,-4.339367678837181,-8.7976899539066,0.1549942611190822
0,-7.164772477588153,-6.483864399727751,-5.238696906814157,-12.86745693026886,0.1599940759938896
0,4.625494686358081,2.6963977534956998,5.821974082977495,1.5627746329894168,0.16499389086870053
0,-6.524238095006202,-8.693340370869326,-4.087354714182033,-3.246995266115905,0.16999370574350792
0,-7.463970824459466,-14.333078777916326,-14.096683302885843,-9.146766629124356,0.1749935206183153
0,-6.713703504388234,-4.702817472069771,-2.6060116873284658,-5.386539457160985,0.17999333549312624
0,5.786563863352599,4.097443543054293,12.07466012886453,6.833686249142285,0.18499315036793362
0,-6.6831687227253695,-10.072295735624877,-15.574667857668294,-2.646089510557281,0.18999296524274456
0,-2.2629012639364285,-3.512035310869229,-3.9639956501767024,-3.915866736577218,0.19499278011755194
0,1.7473662385936537,0.5282248149383447,4.426676748449812,1.97435457081176,0.19999259499236288
0,-0.5023662160901786,-2.121515360236351,-1.7726506643246667,-3.3054255885236876,0.20499240986717027
0,-4.592098628870833,-3.181255838228932,-6.271977890925047,-1.9352072145848673,0.2099922247419812
0,2.1281689994572264,3.9390033792644963,9.31869506630087,5.175009692738922,0.2149920396167886
0,6.908436668174998,2.219262290603032,0.2793682050219296,3.405225133550657,0.21999185449159953
0,-8.391295623516545,-7.360479105916942,-9.939958477216152,-6.864560892209333,0.2249916693664069
0,1.668972123501582,5.759779187987522,10.170715017113562,1.1556516153205674,0.22999148424121785
0,9.23923990837673,5.17003717061844,8.84138868553598,5.835862656074741,0.23499129911602523
0,1.0895077301259997,-3.1397051598735977,0.9720625252236872,-0.6639277700463316,0.23999111399083617
0,-2.1602244125739527,-3.959447805521739,-4.247263467158702,-1.5837196633159152,0.24499092886564355
0,5.060043478700361,4.200809231665425,5.283410704811978,4.2364869758806325,0.2499907437404545
0,0.6603114022413148,-3.338934050213063,-4.125914962467042,-0.5933078529031943,0.2549905586152619
0,-5.299420643781378,-1.8686776530033595,-6.425240472554388,-6.893104150169333,0.25999037349006926
0,4.0608473387721045,7.9715784214891094,10.785434171130019,6.167098083638286,0.2649901883648802
0,4.931115348059384,7.121834171345429,5.9961089651701025,7.817298848118723,0.2699900032396876
0,-5.148616617873963,-3.557910405730445,-9.983216094147833,-7.542501857327226,0.2749898181144985
0,2.161651438883109,1.8423446875979874,4.217458989237422,2.5976959664751815,0.2799896329893059
0,6.771919516191041,3.802599448507192,11.028134211370181,6.3578923186465515,0.28498944786411684
0,-9.327812388181469,-11.70714612587171,-14.971190431830095,-6.7319128017655485,0.2899892627389242
0,-5.497544276473736,-8.656892038231877,-4.740514944495246,-5.051719395768011,0.29498907761373516
0,2.3627238493570686,3.313361709247981,2.5701606695953014,8.628472535777739,0.29998889248854255
0,0.19299198768177728,1.143615114879666,3.2308364070504627,3.308662992089811,0.3049887073633535
0,-4.326739863002731,1.9838681770961208,-2.0884877354740996,-0.671148027841159,0.30998852223816087
0,7.613528295828295,10.564120894147903,13.48218823849433,13.299039474610419,0.3149883371129718
0,8.643796462600529,5.644373263873452,2.942864325064158,14.509225497549421,0.3199881519877792
0,-8.73593536459158,-2.825374716450213,-0.9364594801834412,-1.4505899617533766,0.3249879668625901
0,1.3043328120764368,1.4848769500381873,0.8942168179269506,4.1495930931330145,0.3299877817373975
0,14.724600990369858,11.295128259996424,14.324893214342218,17.3597746580517,0.3349875966122049
0,5.334869167775392,3.4353792097664937,5.645569703598262,4.499954728190845,0.33998741148701583
0,2.93513734111551,1.7856297951643212,2.0262462795418275,-0.5698667020937696,0.3449872263618232
0,5.075405506548945,3.9758800115285395,0.30692293540793014,6.790310360913875,0.34998704123663416
0,-0.33432634021395713,-1.783870146105826,1.407599664116819,5.090485910538746,0.35498685611144154
0,-9.064058203688854,-11.573620682799488,-13.941723541455572,-8.169340060229594,0.3599866709862525
0,3.3862099116794755,1.1066283966194361,2.9989533118167433,1.7208324414387879,0.36498648586105986
0,9.476478001614383,2.3768770877233893,5.829630217424303,1.611003408455285,0.3699863007358708
0,-6.943253938250175,-4.332874613694395,-9.379692831005801,-6.528827166163268,0.3749861156106782
0,-3.85298591246114,-0.8926267117730484,-3.5790158397973437,-3.4986592892703623,0.3799859304854891
0,9.707282074471516,7.047620789420787,9.211661184939349,9.921507032493569,0.3849857453602965
0,-6.15244998190901,-3.012132114209181,-7.647661762760151,-3.60832820745419,0.38998556023510744
0,-6.412182086089127,-3.1318854268761296,-6.276984688828035,-0.6881650158418614,0.3949853751099148
0,1.0780857576061496,0.9883608472208489,4.293692401007066,0.9919966005245564,0.39998518998472576
0,-8.61164645479708,-9.551393295938425,-11.885630498656289,-5.677843365098007,0.40498500485953315
0,-16.521378726808184,-14.59114785999417,-18.30495339277602,-19.07768491919557,0.40998481973434053
0,-6.681111061166144,-3.570902847865654,-7.534276285450616,-6.597528067562125,0.41498463460915147
0,-2.810843459623526,-5.510658261592068,-4.3735991796365195,-1.2273728149942265,0.41998444948395885
0,-7.350575923120842,-6.460414102495144,-12.132922077316433,-7.157219165475018,0.4249842643587698
0,-7.99030845200501,-7.050170371319284,-8.57224497967073,-10.757067122426054,0.4299840792335772
0,1.0299589539430127,-1.8599270682339415,3.9884321129002545,6.183083311286759,0.4349838941083881
0,-3.3797737045742817,-6.419684192875799,-6.980890799423219,-3.536767866756674,0.4399837089831955
0,-4.12950642654519,-3.019441744427845,-2.2602137161401643,-2.276620658796818,0.44498352385800644
0,6.840760789247889,7.110800278279875,6.650463363474971,7.983524932976962,0.4499833387328138
0,2.9510279440648852,-1.4289581234692021,-1.7088595597755125,-0.6763310936837597,0.45498315360762476
0,-8.268704960984529,-8.438716948452576,-6.908182485151021,-6.45618874118584,0.45998296848243214
0,3.2015620751419704,0.9115238046496168,3.852494588148049,3.6739519880425076,0.4649827833572431
0,12.02182905352403,3.0917641374159612,6.223171661043036,7.724091091640477,0.46998259823205046
0,-5.777904024949826,-7.767995948422039,-1.7361512656477642,-3.2557714328937992,0.4749824131068614
0,1.8023628402719458,-1.4477564510186425,-2.9754741913247464,0.8843644116791871,0.4799822279816688
0,4.272629649569726,7.16248263166643,8.28520288452212,6.4144986224468115,0.48498204285647617
0,0.872896403216243,-4.757278698248758,-4.1841200376603505,-7.945368803611153,0.48998185773128355
0,-0.8268368986967846,-2.6970404386929623,3.6265570424348734,-7.605237869511453,0.49498167260609804
0,9.983429743734803,10.543197412414727,8.95723412494116,7.764891421995929,0.49998148748090543
0,-0.5763036698415263,-0.7065651429264843,2.6079112096768378,-2.9549809315779703,0.5049813023557128
0,-6.416037140075041,-2.536328102975208,-4.771411703964253,-3.1548549326811095,0.5099811172305202
0,11.304229332255389,10.493908533793297,13.139265383112473,13.825269416196624,0.5149809321053347
0,8.594495746230848,4.974144768663578,3.9099424697140477,3.7153921123458704,0.5199807469801421
0,-1.6252378995201069,-4.755619397489231,-1.3793804458189345,-6.864486847401726,0.5249805618549495
0,2.3650283931061087,4.954616035873849,2.3912966344394007,-0.49436746649735674,0.5299803767297568
0,17.135294621832386,8.04485106911084,20.771973708105413,6.115750251658551,0.5349801916045713
0,7.6955607838183315,2.2450857022747206,-2.6373492277719177,-2.224133696307179,0.5399800064793787
0,1.5558268753530844,3.4853199349570323,1.323327823104005,-2.1840193138697175,0.5449798213541861
0,12.026092891901865,9.00555376630152,10.804004856507666,5.846093395448413,0.5499796362289935
0,1.9263588282767476,2.1257871949886993,0.9846818678338803,-2.2537955719068545,0.554979451103808
0,-8.21337532123113,-1.5539797807707036,-5.174641147925819,-8.363686219531015,0.5599792659786154
0,2.5268904374812973,5.3762528369209654,3.536035804017452,1.226421449130136,0.5649790808534227
0,5.737156098600516,-0.4735149542165211,2.596712718449918,1.7965274309148773,0.5699788957282301
0,-11.552578343660386,-7.703283156576435,-11.792610409842776,-8.763368277156552,0.5749787106030375
0,0.1976871049707385,0.7469482275268357,-1.481933585928227,-7.203265677851114,0.579978525477852
0,4.257952439002164,4.3671791959943,3.5087431854866415,2.4268352264938806,0.5849783403526594
0,-2.9117823469046145,-6.472590253176791,-6.8205801000234665,-6.053065566015795,0.5899781552274668
0,-9.991517258046347,-7.932360121914061,-7.469903446692564,-4.722968056957774,0.5949779701022742
0,-1.0612522994685687,-4.262130411800502,-1.8592268583887384,2.1571277523979013,0.5999777849770886
0,-3.1209874757620004,-3.991901123870216,-6.64855033847669,-1.5827781389565563,0.604977599851896
0,-10.3407227910786,-8.581672258619573,-10.657873889803005,-4.282685731891171,0.6099774147267034
0,-3.710458249095199,-1.4714438160290908,3.632802485356792,1.427404972853577,0.6149772296015108
0,-0.9001938529326561,-0.7012157956025682,-2.936521214780884,3.0374939746657086,0.6199770444763253
0,-1.7899296052726004,-4.09098819651477,-4.125844991735649,-3.152418727059414,0.6249768593511327
0,-9.65966550850811,-9.04076101767211,-5.3451688468104255,-10.402333132906328,0.6299766742259401
0,5.990598435276448,-1.3405342575771888,1.4355072190133955,7.727750756779366,0.6349764891007474
0,-5.299137775715051,-8.160307914216169,-16.833816794864465,-9.05216705804268,0.6399763039755548
0,-8.258874143072058,-7.070081985039374,-6.573140888491421,-7.422086577157021,0.6449761188503693
0,5.871389331887845,3.5001435330394832,5.637534938823288,8.337992199987434,0.6499759337251767
0,0.5716526480948328,2.70036864347015,-4.181789311700054,-0.5019307258135453,0.6549757485999841
0,-8.618084195463414,-8.119406650219938,-5.051113638651944,-8.431855353769327,0.6599755634747915
0,-2.6678211996866907,1.0808176555469686,8.93956195950119,0.6782183169723417,0.664975378349606
0,2.442441634840415,3.151041564512621,2.550237484311688,4.388290287489831,0.6699751932244133
0,-3.5372956922007615,-2.1287349195031986,-8.759087062854942,-4.921639441031563,0.6749750080992207
0,0.07296681898500952,-1.118511792714033,10.151588319238192,-2.151570867399231,0.6799748229740281
0,4.333229168250788,4.421710948661322,7.672263631737488,3.438496009679856,0.6849746378488426
0,-1.03650864458097,-4.268066691604104,-4.237061124544745,-2.601438808397714,0.68997445272365
0,2.9837533801807288,4.78215529021622,8.163614050783154,2.168624679771837,0.6949742675984574
0,2.8640152420686897,5.85237689775176,4.674289157791686,4.488686475536441,0.6999740824732648
0,4.114276940410774,1.3525981343835936,-3.5550358037825402,-1.6712534198920947,0.7049738973480792
0,-6.485461525696823,-7.4771809967989,-12.124360834386295,-7.751195005414654,0.7099737122228866
0,5.224799842730015,2.8630395072372976,11.426314065725698,6.398861720155806,0.714973527097694
0,1.7850610446565596,-1.4467403503311735,1.3869888965129589,5.19891675811576,0.7199733419725014
0,-4.56467792102552,-3.226520566203507,-0.10233634219856731,-0.7310298903955722,0.7249731568473088
0,-7.154417055422835,-3.5463011369500945,-0.7116616508312514,-6.3709782244806785,0.7299729717221233
0,5.6758436405891715,7.103917941037449,1.5290129701009605,6.639071756733564,0.7349727865969307
0,-5.2738958336094655,-4.765863328559566,-10.83031247986714,-5.720879945787574,0.739972601471738
0,-6.993635478472978,-2.275644942083382,-3.5396380009533517,-2.770833331005541,0.7449724163465454
0,7.846624705764923,8.254573104151591,10.351036407010412,8.98921160221717,0.7499722312213599
0,0.7868847190239673,-0.17520918621308548,-2.58828925566036,2.959254854980861,0.7549720460961673
0,-5.422855438846435,-3.0749918097299287,-7.01761498877037,-8.530703571859902,0.7599718609709747
0,4.017404231933453,4.68522523691412,4.19305920788507,0.3793363224445,0.7649716758457821
0,4.597663731148706,3.395441956963692,5.6437333346304985,2.95937453880128,0.7699714907205966
0,-10.732076941481694,-11.634341646443636,-13.01559260823423,-12.230588921704095,0.774971305595404
0,-3.3218177861899654,-4.884125570076613,-1.5549186203483751,-6.470554057714139,0.7799711204702113
0,8.368441197077225,5.476090189695361,3.655755298976882,8.279479132607896,0.7849709353450187
0,-5.0912999914449,-2.0436943631769644,-10.88357084925302,-7.100489348543274,0.7899707502198261
0,-5.351041351523984,-0.8034792246984198,-2.232897063770418,-2.7304594988538655,0.7949705650946406
0,3.6492171171828223,3.326735609096492,4.197776657039157,1.3795686841452122,0.799970379969448
0,3.179475415178647,0.6269501421342176,-2.211549684974236,4.389595203084944,0.8049701948442554
0,-7.110266457039513,-3.6028356217416357,-2.730876087922755,-8.550379939399317,0.8099700097190627
0,0.9799915010201077,4.157378321275949,1.589797450130416,1.3796432593504542,0.8149698245938772
0,7.140249289941985,7.69759197494195,6.830470931169855,2.9896648021374825,0.8199696394686846
0,-7.869493089697361,-6.332194657205493,-8.668855642911545,-12.670315308099648,0.824969454343492
0,1.8707643626174577,1.9280184281537562,2.7518177297018864,-1.5402970681950154,0.8299692692182994
0,13.001021647384722,10.868231234245222,9.832491050839582,6.269719525398004,0.8349690840931139
0,-0.5987212351304395,4.348443764040222,0.003164322160512871,3.6997344763977713,0.8399688989679213
0,3.181535714859811,4.238656019972971,0.07383754494972483,1.059747788311397,0.8449687138427286
0,12.701792496682337,12.36886800386391,16.034510720136524,12.96975946426293,0.849968528717536
0,10.882049109107644,6.2390797168673835,5.065183848166264,7.669769506846983,0.8549683435923505
0,-7.0476944498536485,-5.340708840563189,-9.704143071167485,-2.630222082034772,0.8599681584671579
0,4.742561817225639,6.5695023315607735,16.306529961489918,3.709784698958237,0.8649679733419653
0,3.0428179075537702,3.0197132330172907,2.8372029452122423,3.989789850882506,0.8699677882167727
0,-4.326926181776618,-1.4600761366281338,-2.5421241213704957,-2.820206625403833,0.8749676030915801
0,5.3333295462163,5.5401342219540535,0.6285487599881023,2.099795270793368,0.8799674179663945
0,7.973585088390984,5.210344307866558,7.109221587400358,3.3797955400796686,0.8849672328412019
0,-9.466159558638612,-6.279445880061753,-13.340105641091645,-8.080205817004767,0.8899670477160093
0,-3.8759043983992143,-4.31923634313916,3.7905670725964296,-5.730208799845498,0.8949668625908167
0,0.4843505657930272,-0.6290270824961632,5.1512397267356125,-0.3402134074863864,0.8999666774656312
0,1.234605330926222,0.1911819010298675,0.08191231961407722,-0.29021963857576716,0.9049664923404386
0,-4.7251401058785145,-8.958609393182165,-3.8974151506575083,-6.630227491513325,0.909966307215246
0,1.125114252574876,0.9115990344938978,2.503257313959682,-2.1902369644702926,0.9149661220900533
0,11.445368403524954,8.44180718393702,8.053929711503482,12.329751944611697,0.9199659369648678
0,-6.224377655964104,-3.937984944971734,-6.935397960139214,-5.0602607622350195,0.9249657518396752
0,2.805876070889681,2.292222647454645,5.205274296724278,5.009724916757772,0.9299655667144826
0,6.736129580700718,8.422429960728754,7.555946479655839,10.539708983070003,0.93496538158929
0,0.43638286989613595,1.5026369941097208,0.8666185859577776,0.4296914377878146,0.9399651964640974
0,-2.7633640653672233,1.5128437464713755,2.01729061253849,-5.520327718456222,0.9449650113389119
0,6.336888770899105,3.973050216352565,6.527962555970132,5.119651514771429,0.9499648262137192
0,4.867141374548958,3.6832564020298117,-2.1813655874616082,4.0496291378815625,0.9549646410885266
0,2.757393741134018,3.263462301478981,-1.3106938217028132,-5.110394848837675,0.959964455963334
0,2.8676458658060797,7.56366791230989,5.119977849209622,2.3495795547732783,0.9649642708381485
0,13.517897743306973,8.28387323166464,8.220649421125325,9.789552348813853,0.9699640857129559
0,-4.79185063212304,-0.6159217438908396,-5.248679110416152,-2.190476466827512,0.9749639005877633
0,-3.5515992666857534,5.134282981686481,5.751992249800574,4.339493107380605,0.9799637154625707
0,6.018651833295233,1.1344874040823836,2.8326634967939075,8.199461070641687,0.9849635303373852
0,-4.981097338455768,-5.125308481236732,-2.6266653746030753,-4.320572578179205,0.9899633452121925
0,-6.430846788158187,-6.925104678800223,-2.3159943696908165,-7.840607840455811,0.9949631600869999
0,6.229403478144238,4.885098807129791,3.664676506256265,6.649355282520441,0.9999629749618073
0,-2.220346545410864,-6.154698027419456,-7.47465275194867,-4.380683210335605,1.0049627898366218
0,-7.460096864626983,-8.494495186197693,-8.68398214931901,-5.98072331999175,1.0099626047114292
0,-0.9798474851513896,-2.0342926725874038,1.226688309533729,0.5292349527727824,1.0149624195862366
0,9.720401587621927,6.095909510471785,13.637358620362075,6.899191607408291,1.019962234461044
0,-11.43934965163708,-5.713888639754782,-14.181971221115061,-11.400853356580502,1.0249620493358513
0,-1.7891012082547686,-2.693687125967613,3.4586987806704426,-4.960899939609452,1.0299618642106658
0,5.301146912640883,3.9765140492468185,9.759368621321476,1.039051858265161,1.0349616790854732
0,-1.6386052939124716,-3.2232851165747642,-8.749961703607433,-4.4709979625940255,1.0399614939602806
0,-3.7783578328946814,-0.8730846258566661,-0.7492921986985003,-5.79104940152818,1.044961308835088
0,9.701889290688982,6.7471155189942795,7.011377131502536,7.218897542386948,1.0499611237099025
0,4.742136071713769,3.327315315472839,5.5520462824264,1.6988428702036136,1.0549609385847099
0,-5.75761749527791,-0.6724852392087084,-6.027284750779267,-10.601213417098206,1.0599607534595172
0,10.252628583947683,6.247713851859715,15.67338402671554,5.928728681480867,1.0649605683343246
0,3.9628743033862253,3.487912585317247,-1.1259473905917454,1.8386691670865103,1.069960383209139
0,-5.216880343294513,-1.3418890425058183,-4.665279008607386,-7.821391959101322,1.0749601980839465
0,-9.986635362598301,-10.781691035456342,-12.88461083334948,-10.861454695793327,1.0799600129587539
0,3.2636092392260947,-1.3114933971845946,1.6560571295699984,0.358480958767119,1.0849598278335613
0,-2.6861465436655623,-3.8912961308799483,0.9067248750843353,-0.011584993095839047,1.0899596427083758
0,-5.805902716860968,-0.2610992393167682,-0.11260760161290001,-2.581652548743516,1.0949594575831831
0,6.804340714231608,11.349097274907555,6.378059694640785,12.598278294507331,1.0999592724579905
0,1.144583744288796,-0.33070659096644395,5.988726758788024,4.098207539100104,1.104959087332798
0,-2.6651736321151884,-1.8505108400634358,-7.7906064145627,-4.641864812990256,1.1099589022076053
0,2.8150685794694685,3.429684524253397,3.7900601689903577,-2.471938760101585,1.1149587170824198
0,1.8853103734405683,-4.470120501428901,-9.619273496084922,-4.652014300490192,1.1199585319572272
0,-10.48444825583103,-10.809925920426796,-16.748607414969587,-15.072091432028888,1.1249583468320346
0,-1.5442073138309333,6.100268264260387,0.17205840786865165,-2.882170151947561,1.129958161706842
0,3.6160331942907287,9.210462049911516,4.582723968752929,4.357749543246379,1.1349579765816564
0,-13.133726736323974,-8.809344566297561,-6.45661073560574,-13.492332342477546,1.1399577914564638
0,-4.213487110218147,-2.239151587382004,-4.975945708378418,-2.4824158048036753,1.1449576063312712
0,5.2167520685370325,4.611040983729809,4.79471904747899,6.637499161008193,1.1499574212060786
0,2.97699079617696,6.7912331441961165,0.14538352920403083,5.807412559893877,1.154957236080893
0,-6.562770931103489,-3.2785751090305335,-5.403952265951019,-3.7426756034293387,1.1599570509557005
0,-0.14253311715888461,-0.21838377926314018,1.9767116592938825,1.547234675479106,1.1649568658305078
0,3.187704234275719,-2.808192869866006,-3.872624697641131,3.247143400956913,1.1699566807053152
0,-7.472058880419953,-5.46800238405527,-10.281961339120489,-5.122949422706675,1.1749564955801226
0,-1.6018224647474841,-1.3878123247776046,3.848701732844556,-1.3630437912228315,1.179956310454937
0,8.278413477976343,2.7523773053068012,19.299364516489376,12.516860299752764,1.1849561253297445
0,-3.03135105552735,-6.057433496291441,2.1900270096994015,-2.043237145573059,1.1899559402045519
0,0.26888393131686705,2.112755268039494,15.24068920947787,4.986663876633072,1.1949557550793592
0,6.6091184349565175,1.802943596011676,12.771351111805668,7.33656336981648,1.1999555699541737
0,2.109352451678914,-1.5468685146437224,-5.85798728833919,-0.6035386629610678,1.2049553848289811
0,-3.1204140224905075,-4.9266810662083,-9.217325996630926,-4.12364221897484,1.2099551997037885
0,-0.5501809916865865,0.9135059391505008,0.9733349812849712,-1.3837472955784378,1.214955014578596
0,4.680051539963115,0.43369249944700106,-5.026004359828518,0.07614611002847566,1.2199548294534104
0,-4.59971643167172,-7.35612138717423,-4.45534402483429,-8.343961999150174,1.2249546443282178
0,0.7205150892477022,1.4040642775938885,13.865315981644827,-1.4740716198422057,1.2299544592030252
0,6.410746098560976,5.754249492241783,3.7859756549045196,2.8658172515544216,1.2349542740778325
0,-3.9790234079669986,-8.185565744705219,-11.523365010148947,-11.814295381099797,1.239954088952647
0,-4.198793434672549,1.254618565270355,-6.43270601873832,-3.9544095136503303,1.2449539038274544
0,5.791436014159809,7.634802420759224,0.9679526243086845,0.24547485852278456,1.2499537187022618
0,2.4116649343010845,1.1049858202779534,1.678610914623135,-0.3746422595493308,1.2549535335770692
0,-5.858106678585851,-4.174831237917996,-8.62073115196086,-8.024760862618535,1.2599533484518766
0,2.4521211710860626,1.3253512442865163,7.199926420511225,3.2651190547708846,1.264953163326691
0,2.4323484789493177,-4.404466734919733,-6.229416371875434,-3.5450025016827946,1.2699529782014984
0,-0.7774247593796582,-5.704285177159448,-6.09875953291006,-4.365125526089713,1.2749527930763058
0,-0.05719854837807245,-1.0741040837558422,-3.6581030661063996,-1.4352500123463305,1.2799526079511132
0,-0.5869728925639156,-0.7539234556938379,0.012553025441445265,0.20462404591058025,1.2849524228259277
0,-6.766747796393496,-2.583743293719296,-7.8767912609929125,-4.2455033447545985,1.289952237700735
0,-5.816523264095339,0.8764364015679317,3.973864072157543,2.8243678223629005,1.2949520525755425
0,8.163700700455799,6.536615629626134,20.764519022546303,13.094237553977973,1.2999518674503499
0,1.8939240935556256,-1.573205610200514,9.485173587310033,0.4041058564832547,1.3049516823251643
0,-6.385853088622723,-4.603027318745884,-1.8041722374418985,-4.416027264232824,1.3099514971999717
0,3.2343691499971117,3.2571505031413768,2.5064815435522085,12.4038381973993,1.314951312074779
0,3.644590805527984,2.1673278546867323,0.42713492519890395,5.503702246685468,1.3199511269495865
0,-7.715188125933208,-5.662495264899931,-6.7422120976699755,-12.716435111473158,1.3249509418243939
0,0.4750323517224172,-2.5923188563855266,0.028440469875756547,-0.90657387233637,1.3299507566992084
0,5.855252234729889,9.517857079602443,11.569092622915795,6.503285969073407,1.3349505715740158
0,-0.5945284806663752,2.1180325424112,-6.540255643551557,-0.11685558211460598,1.3399503864488231
0,2.815690201596893,3.478207531065135,2.610395665233183,2.673001479077288,1.3449502013236305
0,5.0859082773596676,6.238382044172597,15.311046543829658,13.48285715733111,1.349950016198445
0,4.876125742184337,0.30855607995154016,5.471696986384842,6.662711456825413,1.3549498310732524
0,-4.793657408706977,-1.421270363704397,1.4123469863208264,-0.6274356189762474,1.3599496459480598
0,8.8665588196515,8.868902710894663,4.1029965364117045,8.882415932762722,1.3649494608228672
0,3.466774422013877,6.579075301188984,0.46364562905076906,4.502266114413585,1.3699492756976817
0,-5.753010607151926,-2.130752595819646,-4.765705743568557,-3.687885072089089,1.374949090572489
0,-5.3727962735186,-0.15058098352427035,4.504942410710353,0.11196237490148642,1.3799489054472964
0,15.627417417348653,14.169590134463085,16.77559008397008,15.371808456906535,1.3849487203221038
0,-1.5223695401714517,-3.8102392457741643,-5.15376273213528,-4.048346824843881,1.3899485351969183
0,-2.4221571520533205,-2.0000691285485424,-3.763116046496652,-1.3385034695549318,1.3949483500717257
0,5.208054575463636,8.780100481617689,10.947530131772305,13.341338523292663,1.399948164946533
0,5.51826563601002,5.100269580036964,-1.6418242065378368,2.251179153933291,1.4049479798213405
0,-4.3415239770135265,-0.979561838345306,5.858820929090961,-0.7789815778787519,1.4099477946961478
0,1.3786857295773323,1.6806062210419472,9.629465528791687,4.050856327206257,1.4149476095709623
0,4.068894748901078,-1.4492262474041944,-3.1698904177585514,2.380692868317056,1.4199474244457697
0,-12.99089692592205,-9.959059249259294,-7.849246921242079,-5.259471955585992,1.424947239320577
0,-2.820689301594012,-2.2388927898247837,-4.308603992278208,-0.1196381455948125,1.4299470541953845
0,6.199517615581184,-2.988726873940545,0.8920383589185024,1.2301942973036972,1.434946869070199
0,-4.980276180426464,-5.918561506004498,-6.1073198774832065,-6.6199746277490705,1.4399466839450064
0,-1.5900706955946866,-1.8283966900349686,0.04332128895401999,-4.280144921434482,1.4449464988198137
0,10.680134064120615,9.37176757023979,5.493961848860592,8.829683415829154,1.4499463136946211
0,-3.029661907336505,-5.048068728876863,-5.225398207093317,-2.430489616266603,1.4549461285694356
0,-15.24945861617643,-9.437905591162934,-8.13475888822531,-10.92066401808257,1.459945943444243
0,2.5207439316067264,3.9922569797764025,1.465879796392991,2.099160210173475,1.4649457583190504
0,-0.5490542694734172,0.11241898064866873,-3.8934821619310753,0.18898306864587838,1.4699455731938578
0,-4.338853224565702,-3.957419591702487,-10.45284477155535,-3.111195442302849,1.4749453880686723
0,1.0713470613316702,6.042741259582287,2.2877919595590286,3.5186246777529195,1.4799452029434796
0,7.121546583307563,3.4429015313117355,4.418428023835981,7.128443429205892,1.484945017818287
0,-0.39825466365030326,-3.3069387798941463,-7.980936586164876,-5.161739187747535,1.4899448326930944
0,-7.078056684761201,-2.366779677569243,-3.640301877820873,-4.441923173085018,1.4949446475679018
0,7.102140514719317,7.4733788347648655,0.45033214174655356,5.197891473285631,1.4999444624427163
0,1.122336929580767,-2.626463246433404,-4.969034534264306,1.0277047515684132,1.5049442773175237
0,1.5525325544912865,0.033694075162941275,10.551598087522414,-1.9324833380962558,1.509944092192331
0,7.802727383862833,13.633850795725397,13.09223000033858,13.747327204258337,1.5149439070671384
0,2.4329214117752436,4.294006911084525,9.542861196771991,3.697136378255505,1.519943721941953
0,-0.486885368077578,-2.2758375835026565,-0.8365083315217904,-3.613055817010722,1.5249435368167603
0,-2.0966929622654678,4.1443173067619785,0.2641214063998976,0.9767506171775784,1.5299433516915677
0,8.76349862255051,8.19447157642129,9.154750401136015,7.806555679425127,1.534943166566375
0,-3.146310620411371,-1.7253747802930162,-9.394621356927619,-1.6536406318133035,1.5399429814411896
0,-7.4161206980771075,-7.305221769449124,-1.4039938775035554,-8.613838318277423,1.544942796315997
0,7.404068382677068,5.2649306028688585,4.816632829819092,5.545962618333636,1.5499426111908043
0,0.4242566150862047,-2.564917669276816,1.2372587555507353,-0.08423782350673674,1.5549424260656117
0,-6.195556007657946,-2.064766591752754,-2.6521161098967556,-6.584439645265426,1.5599422409404191
0,5.184630507605011,9.03538382957966,3.8785082237755155,6.05535715163432,1.5649420558152336
0,9.364816154023107,7.885533588696819,4.809131746780148,1.5751525658212506,1.569941870690041
0,-2.594999075508972,-2.494317320865868,-4.5702455508441915,-4.4550534041475345,1.5749416855648484
0,6.115184811498802,6.065831093955316,6.670376320757908,5.964739240192291,1.5799415004396558
0,10.885367807156438,8.305978825869854,9.690997351246592,11.874530497175108,1.5849413153144702
0,-1.314450096900342,-0.2338741328224372,-4.658382470087241,-0.32567963527095345,1.5899411301892776
0,-7.214268909490636,-5.003727790221525,-8.987763154273152,-3.9358911597378,1.594940945064085
0,3.215911360468307,5.436417845430727,6.952855287729403,4.543895920937371,1.5999407599388924
0,4.356090704183614,3.536562765876431,-6.046527154788815,2.453681603871069,1.6049405748137069
0,-4.413730887150564,-2.7732930372868494,1.564089507593988,0.5134658860489626,1.6099403896885143
0,-5.343553422393567,-2.5331495726096875,-4.015294735607822,-0.6367512357284731,1.6149402045633217
0,2.9066230897432557,-0.08300684859839369,-3.7246798947116035,0.023030235248555783,1.619940019438129
0,-4.213201359220424,-3.7828648735956882,2.975934020183259,-4.907189704285021,1.6249398343129435
0,-1.223026777604032,1.9972763442172834,0.4565469991264398,4.1325889425116715,1.629939649187751
0,2.4371468264035503,-1.9925832032215207,1.0471590321565727,4.37236617253461,1.6349394640625583
0,-8.292680555265811,-5.732443523871033,-8.942229890725242,-5.447858017425026,1.6399392789373657
0,-2.742508930495176,0.7076953744922756,-2.8716197793501417,-1.6280836306638924,1.644939093812173
0,5.707661693115394,5.677833484285895,6.688989356778308,5.7716893295932055,1.6499389086869876
0,-1.0021686918797192,-3.332029202064797,-1.4804024916810592,2.101460860133602,1.654938723561795
0,-6.61200009295272,-7.051892692200066,1.1502046658396825,-5.558769042410761,1.6599385384366023
0,-1.7118325174900557,-1.4917569936002426,-2.3591891801965326,0.23099961851872441,1.6649383533114097
0,3.3383340273743904,-0.2116221134038691,1.5314159606746856,-0.6792331604041876,1.6699381681862242
0,-12.581500465268368,-9.431488058440413,-14.737979920962678,-14.139467382288915,1.6749379830610316
0,-3.0113360020425413,2.348645164763052,4.392623165802053,-0.7597030498429931,1.679937797935839
0,6.768827410848468,3.908777549957189,5.793225212252724,3.2900598347563266,1.6849376128106464
0,-8.241010232517347,-8.211090909007364,-9.38617379022164,-8.440178730320874,1.6899374276854608
0,-3.8108489379354222,0.8690397817721716,0.8444261497626058,-5.220418746682818,1.6949372425602682
0,2.1393112890331185,-5.620830383597945,-1.3649749762481667,-3.500660215556349,1.6999370574350756
0,-0.38052955692394386,-5.260701410698112,-11.354377176442723,-1.3309031376988327,1.704936872309883
0,-5.990371481008273,-4.970573304716215,-7.51378045860112,-9.461147513471268,1.7099366871846904
0,0.7697855117046771,6.159553929567166,2.276815170108507,-2.6413933428223495,1.7149365020595049
0,4.9399414163056825,5.529680287531667,4.127409702996774,2.2383593747489963,1.7199363169343123
0,-10.969903772047923,-13.660194235566482,-12.391996866481858,-12.621889359898589,1.7249361318091196
0,1.5202499418963895,4.18993035551438,2.828595455251194,4.5878604544129775,1.729935946683927
0,8.940402553575378,3.4500540562196744,-0.3208133379541912,4.557608819144999,1.7349357615587415
0,-6.929445941568168,-6.689823137902519,-9.510223252009045,-10.992644264159212,1.739935576433549
0,-8.53929554816753,-7.639701231239577,-2.8296342925573237,-11.802898793818036,1.7449353913083563
0,7.150853729334559,8.860419772088061,7.930953535115625,6.56684523236028,1.7499352061831637
0,1.8810018867360176,1.7205398681546669,1.4015402258597034,2.396587817063742,1.7549350210579782
0,-6.28885108018382,-8.249340947054026,-5.817874225636795,-8.683671036910342,1.7599348359327855
0,3.9912948242923805,1.3907773224080369,3.912710175205176,-1.0139313267227048,1.764934650807593
0,2.6114395959091983,1.7208946726480308,-0.18670657699939708,-1.2241930492831201,1.7699344656824003
0,-3.4884167696351964,-1.1089889001223967,-1.4261244876320525,-6.774456201196469,1.7749342805572148
0,1.3417257232798028,7.111126600245611,7.0744564378642725,2.01527922120758,1.7799340954320222
0,7.181867070237983,2.3612411697034856,4.045036193882545,1.2250132218261154,1.7849339103068296
0,-2.197992733318382,-5.258645196066052,-4.464385225478131,-3.2752541953548917,1.789933725181637
0,-4.107853692142226,0.5314674984918818,-3.4738078263001473,-1.11552302631542,1.7949335400564443
0,11.762284188939145,13.501579248928309,12.936768385361454,15.304206732976077,1.7999333549312588
0,2.8124209049547098,4.231690050533957,-3.512656596631075,3.443935086270463,1.8049331698060662
0,-8.297443549400752,-4.248200101951734,-5.272082778658595,-4.7463379632481475,1.8099329846808736
0,2.2626908203916787,1.8419087858163095,4.908489832830954,2.5533875872125504,1.814932799555681
0,-0.32717599103923356,-2.1679832918785884,-8.270938768480207,-6.036888259584144,1.8199326144304955
0,-12.747043988876847,-14.597876340601012,-18.800368588623492,-15.617165500631712,1.8249324293053029
0,-7.676913177939964,-6.777770365458575,-5.299799632925504,-6.547444132315876,1.8299322441801102
0,3.0332164375808706,-6.007665370782468,0.010768094274377346,-8.017724150112317,1.8349320590549176
0,-7.856655145938071,-6.717561360100391,-13.308665410580645,-9.73800554858611,1.8399318739297321
0,-8.526527931723502,-5.307458336270771,-10.028100150419094,-7.898288321469361,1.8449316888045395
0,5.423598077432347,4.632643698381966,5.712463872558081,6.201427538250802,1.849931503679347
0,-2.146277120897464,-5.237255258153528,-9.426973343241453,-0.8588579619837037,1.8549313185541543
0,-9.646153528971507,-9.62715520770149,-8.916411799009603,-8.269144814634606,1.8599311334289617
0,0.8039688511799014,-0.19705615173971927,5.764148504510077,-1.1194330120272729,1.8649309483037761
0,2.1440900178653974,0.7530419087051822,1.0147075669479424,4.980277453795263,1.8699307631785835
0,-6.975790030397508,-4.906861027108306,-7.924734611978115,-5.33001340905147,1.874930578053391
0,0.5543287050360091,-0.27676495976463195,3.5458219674980347,3.5696944075519683,1.8799303929281983
0,0.904446222989489,2.4933301103054233,2.986377305267656,5.969400911681898,1.8849302078030128
0,-5.055437477568201,-4.216575817238959,-4.693068598764839,0.819106111233274,1.8899300226778202
0,2.4946776024356527,2.2635172572958533,3.4674842552509397,6.2788100137705785,1.8949298375526276
0,3.854791462148826,1.893609333631826,4.718035867129337,3.038512626489558,1.899929652427435
0,-4.345095899321863,-7.646299588503821,-10.671413763395787,-7.961786043725078,1.9049294673022494
0,-8.80498448288093,-3.7462095092734633,-9.950864636498324,-7.762085990016263,1.9099292821770568
0,7.925125710782906,8.373879571420176,7.459683248098555,5.567612794806755,1.9149290970518642
0,1.4152346811832985,2.203967653768547,3.3502298910642363,2.4973103182428487,1.9199289119266716
0,-3.5646575722274654,-2.055945262246148,-6.939224706936405,-3.262993412215979,1.924928726801486
0,-7.104551050058116,-3.58585917683144,-2.2086805452994986,-2.9132983891599284,1.9299285416762935
0,6.095554247265998,4.02422590983842,4.191862376733531,5.846395394880427,1.9349283565511008
0,4.745658319479891,-1.4956900023320965,1.5624040600389344,1.9160879473912624,1.9399281714259082
0,-9.774238833765398,-5.505606913415708,-8.827055494548409,-8.674220724257871,1.9449279863007156
0,2.255862787126918,11.99447517655438,9.943483713815109,8.155469387269616,1.94992780117553
0,6.555963181863117,4.114556267440826,6.704021685948942,3.2851582893261098,1.9549276160503375
0,-5.133937649852193,-2.375363641274382,-3.2954415776283654,-4.355154010887624,1.9599274309251449
0,4.086160291550877,3.6447154495175265,6.1550939232111945,3.3245324936490253,1.9649272457999523
0,2.1262570055438554,0.9947935387440461,-1.0443718116513252,1.9542178098935508,1.9699270606747668
0,-5.02364750848704,-5.41512937475893,-6.343838782456216,-5.666098055245444,1.9749268755495741
0,1.2164467488134234,2.554946707850186,3.606693010597093,-1.256415094839193,1.9799266904243815
0,6.606539776837461,6.535021785462352,4.527223567413447,6.683266698169881,1.984926505299189
0,2.366631574866966,-0.27490414315644673,-0.7922471121786172,2.9629473308307377,1.9899263201740034
0,-6.83327785807258,-2.774831079484598,-3.6717190285234955,-0.7673731900543519,1.9949261350488108
0,8.736811476902812,8.665240974849672,16.028807817922974,9.862305142012305,1.9999259499236182
0,7.516899578570328,4.585312018047447,3.8993334264167157,6.561982333163362,2.0049257647984255
0,-1.2430135546354637,-1.3246179520410335,0.7098577956231221,2.101658388999367,2.00992557967324
0,7.767072075257258,7.445451062059766,11.730380923608465,13.061333314514927,2.0149253945480474
0,8.207156465790337,8.765519057474657,8.440902807883463,12.701007114012654,2.019925209422855
0,-0.7627603859888016,0.9055860308418573,-0.9485765547104366,2.8006797909004937,2.024925024297662
0,1.3573215164961998,3.885651978260441,4.811942832063695,5.720351347688677,2.0299248391724696
0,8.347402169518556,3.205716895423457,6.4024609640442876,6.900021786214907,2.034924654047284
0,-2.6925184309164067,-2.1042192222586555,-4.007022163265792,-0.7403088922011094,2.0399244689220914
0,-0.022440289070956798,0.9058436204530447,6.163493445351095,0.889359313364519,2.044924283796899
0,12.837636590601834,9.365905418693554,12.07400778485014,11.719026403566954,2.049924098671706
0,-1.0122877966420307,-7.524033832585781,-4.075479150249241,-3.4713076212594034,2.0549239135465207
0,-4.322213455947545,-5.863974138566032,-3.1049673658761927,-3.5316427611193615,2.059923728421328
0,5.147859607338687,0.15608449575480474,4.075543131908242,3.3580209838837978,2.0649235432961355
0,0.19793138784787256,-4.603857934256628,-1.8339476629059177,-4.332316386266335,2.069923358170943
0,-10.051998119809046,-4.003801432914278,-7.533439756286564,-5.242654871464305,2.0749231730457574
0,-0.8519289208774076,1.3262539957573987,0.757066845963917,1.8670055286095175,2.0799229879205647
0,4.9281389797192245,-0.7136916520365936,2.817572138302563,0.8566648145009232,2.084922802795372
0,-5.451794422754866,-6.293638379958464,-11.011923884648194,-7.193677013135853,2.0899226176701795
0,-8.751729132947375,-3.6635861914767025,-3.351421228052822,-8.524019953464009,2.094922432544987
0,8.59833484473905,7.7564649102214025,6.879080103292954,6.885635994749251,2.0999222474198014
0,3.578397506093061,2.326514922036918,3.42958010477843,3.195290833030908,2.1049220622946088
0,-9.73154115319234,-7.693436159294667,-9.439921228335752,-7.365055437125079,2.109921877169416
0,-0.771481137469309,3.776611662874913,4.060576099143823,3.304597185701832,2.1149216920442235
0,0.23857754914334156,-2.9333416147030458,-1.7289279174583856,-0.8757512969933868,2.119921506919038
0,-12.481365097159696,-11.49329599510059,-12.118433282641336,-9.486100883597672,2.1249213217938454
0,-2.171309079797175,0.7267485189477152,4.432059999385882,2.603548427713431,2.129921136668653
0,3.0687455983011254,4.706791925129213,4.4025519247394715,6.523196639009209,2.13492095154346
0,-4.951201065457356,-7.963165778663688,-9.74695751036847,-3.67715624763639,2.1399207664182747
0,-3.9511490735037658,-3.5731245944425507,-2.086468309670747,0.6524897696921944,2.144920581293082
0,0.6089015719426043,1.136915476032979,2.854019523355088,7.942134692806137,2.1499203961678894
0,4.8489508688643275,0.7769544312666267,-3.555494014529581,5.531778523315099,2.154920211042697
0,-5.851001184734372,-1.5630077301533216,-0.21500892646957573,-4.92857873755924,2.1599200259175113
0,0.9690454091194498,4.977028990334881,7.725474784421557,2.3410629111109924,2.1649198407923187
0,2.9790906484489104,3.9470645911789735,2.405957114904543,-1.1292965297994884,2.169919655667126
0,-6.310865468679425,-3.722900929395198,-1.8135619385627368,0.22034294061100085,2.1749194705419335
0,2.839177055840637,8.327132426622292,6.276917620208825,2.8899813232355402,2.179919285416741
0,7.549218220152221,4.74716465701924,4.587395787188161,7.259618618857662,2.1849191002915553
0,0.6792580222423309,3.6371957592081796,-2.302127441953251,1.749254827969508,2.1899189151663627
0,-1.7707035402142661,2.0672257301469323,3.7183479281801177,-3.041110049297741,2.19491873004117
0,9.369333530217343,7.237254566399775,12.368821892752077,8.2785239869524,2.1999185449159775
0,4.7393692307172035,4.207282264136109,3.449294446496546,4.688156936410595,2.204918359790792
0,-6.110596441916084,-5.592691180879897,-5.2802344164327435,-8.712211201532599,2.2099181746655994
0,0.14943650887345483,2.9073342268919067,3.0502352977781007,-3.702580427606312,2.2149179895404068
0,3.1294680796698744,-1.1826415170141817,-1.62929641708782,-3.2629507422758843,2.219917804415214
0,-4.840501732875044,-4.872618417000997,-8.178829567161753,-9.113322145552848,2.2249176192900286
0,0.909527067922099,0.6074035226500313,1.911635841629971,-1.6736946369542296,2.229917434164836
0,12.12955447874838,8.337424297781011,10.982099803567461,12.125931784404639,2.2349172490396434
0,-8.690419503886007,-4.4925560958379736,-2.4474376871824446,-8.314442880533086,2.239917063914451
0,0.7896051163002586,0.8274623373778719,3.9330233631848452,5.505181368997857,2.244916878789258
0,1.9196283355740555,1.7074795929401476,1.4234829481797824,2.984804533629082,2.2499166936640727
0,-1.7303498497249825,-1.132504333645809,-6.2860589388345,-1.5455733861433296,2.25491650853888
0,-2.2503294432378502,-0.5924894468986381,-7.685602304427879,-3.615952389956338,2.2599163234136874
0,8.879689551406887,7.207524248628318,5.46485284515471,10.883667522525299,2.264916138288495
0,-0.34029286952088283,10.637536748180253,0.045306503960064665,9.183286351467277,2.2699159531633093
0,-2.7802767099850696,1.8275480464902283,-3.3442413339199004,-3.077095903469662,2.2749157680381167
0,3.4897380259067603,0.17755813768524528,4.93620932557017,0.7325207568674289,2.279915582912924
0,13.309751333936813,11.057567015450967,13.206658476372782,14.84213633134552,2.2849153977877315
0,-6.360236790455815,-3.7124253268893863,-6.952893887947991,-1.2382491815299277,2.289915212662546
0,1.1397736477617062,-0.7024188963372507,0.6575522257550066,0.6813642162312495,2.2949150275373533
0,7.6897826434345635,9.247586299931978,10.497996810451278,9.100976522226581,2.2999148424121607
0,1.7897901912420249,0.8275902545613991,1.5084398589104027,0.280587733745268,2.304914657286968
0,-3.380203714429588,1.6175929598660432,-1.721118636481439,-6.469802152232697,2.3099144721617826
0,4.099800920603845,10.30759440780762,9.739321316329786,6.909806861152403,2.31491428703659
0,-0.9301959095347083,-1.7424054100281072,-6.670240290836245,-1.240585229226469,2.3199141019113974
0,-3.0801942107591826,-9.4424065023764,-10.159803466258577,-8.610978426510387,2.3249139167862047
0,-10.690193988888712,-12.982408877860758,-10.849368217885837,-11.641372733643163,2.329913731661012
0,4.499804750600729,0.0675874555356642,5.691065447037161,0.008231847017355673,2.3349135465358266
0,-9.240197997349028,-11.212417509388917,-9.438502478131188,-8.272164686194,2.339913361410634
0,-8.630202237403811,-5.792423779156769,-9.78807199962485,-9.1925623343493,2.3449131762854414
0,2.3797920262592003,1.5175686403286095,0.5623568768293533,2.0670389020634112,2.3499129911602488
0,-2.55021521006671,-9.392440256331835,-12.937215853877566,-7.923360976908753,2.3549128060350633
0,-12.210223949772328,-6.732450474113535,-10.376790196201085,-10.543761970762931,2.3599126209098706
0,5.179765804105152,5.90753798247745,10.093633846113022,6.735835921514844,2.364912435784678
0,2.7297540488793572,-3.4724748907222516,-0.5459437302328126,1.1854327013323767,2.3699122506594854
0,-0.46025921807605846,-3.2924890977660466,-5.4855229285267075,-2.1149716298592387,2.3749120655343
0,-0.5602739995243503,4.507495357369361,7.644896247867586,7.264622929255175,2.3799118804091073
0,0.6597097016996712,-4.342521529207222,3.935313795528378,2.8242163798038558,2.3849116952839147
0,2.2196918827466563,0.26746023865384694,-3.0142702891858177,2.6638087226092613,2.389911510158722
0,-4.220327459268762,1.8674406571531963,-1.7138560101291918,-0.586600041834873,2.3949113250335294
0,9.899651672716821,6.087419722477469,11.02655662878641,4.0329900867447925,2.399911139908344
0,5.169629275590372,2.887397430599191,-1.5330323764980218,1.4325791084539432,2.4049109547831513
0,-9.820394654099635,0.017373777151002245,-4.5326230303192245,-6.837832976744407,2.4099107696579587
0,0.6995798800259538,2.7773487574831295,9.167784662838514,5.301753831100354,2.414910584532766
0,6.379552874462969,5.787322366734908,8.028190698354539,5.6813395319651265,2.4199103994075806
0,-10.55047567420176,-7.15270540017116,-11.261404928733905,-10.089075874285731,2.424910214282388
0,0.579494230681729,0.08726545158194086,2.1689977763825445,-0.49949238783409533,2.4299100291571953
0,2.8594625859576284,1.4072349169039593,3.389398808599822,2.300089991333876,2.4349098440320027
0,-4.470570611375348,-3.822797009170587,-5.39020183708972,-8.49032873654261,2.439909658906817
0,-10.070605364202653,-5.072830331493177,-4.269804165644519,-7.8307485709804165,2.4449094737816246
0,3.389358324905043,8.457134945261595,9.11059181812662,5.60883048891717,2.449909288656432
0,-5.400679546213314,-6.462901183477657,-7.639013890493859,-11.821591555538843,2.4549091035312394
0,-13.880718979354068,-11.052938722219732,-13.008621296154264,-14.392014702624357,2.459908918406054
0,-1.9407599757876588,-0.46297767514044075,3.7117695968744333,2.087561050065149,2.4649087332808612
0,0.859197463875397,-0.16301804589369723,-4.867841215133738,-0.34286429433480164,2.4699085481556686
0,-8.430846660503185,-2.8630598377865697,-7.75745373551124,-7.873290732286284,2.474908363030476
0,-12.010892348682873,-5.303103053939608,-2.3070679672209913,-5.393718259977671,2.4799081779052834
0,1.3390604001600543,5.326852302734735,-2.6766839127740996,2.865853126799988,2.484907992780098
0,-1.1909884125372163,-3.7531937705184686,-0.8963015743082077,0.34542343257446884,2.4899078076549053
0,-1.951038785001711,-4.323241276384397,-5.27592095370584,-5.465007338026854,2.4949076225297127
0,13.368909284589703,13.27670978251588,14.20445794730449,16.994560819603414,2.49990743740452
0,7.778855797779319,2.6866594034384605,1.6448351268691281,0.21412790983100533,2.5049072522793345
0,0.07880075548595675,-3.1133924167638103,-3.42478941726967,-2.486306063457818,2.509907067154142
0,6.708744157987856,8.926554318388213,10.275584312277308,9.273258903238581,2.5149068820289493
0,8.678686005073292,3.9164996050999115,0.3259563126456052,8.28282281312797,2.5199066969037567
0,2.2886262960109582,-2.453556560770369,-4.623673419310961,-1.1676143310560338,2.524906511778571
0,-6.601434970426871,-4.543614183618358,-1.8833048868558053,-5.008052527034345,2.5299063266533786
0,5.828502204321568,3.376326732190203,4.077061906867091,4.421508227351866,2.534906141528186
0,-4.00156218116698,-9.683733817531827,-5.462573041172884,-1.7189320656749938,2.5399059564029933
0,-8.171628128234651,-5.773795836698341,-4.702209733919587,-9.62937340382427,2.544905771277808
0,1.3183043620118482,0.3661406712143021,5.408151825876435,3.6201842153925456,2.549905586152615
0,-0.2917647112041124,-5.443924296819858,-10.001488364326244,-7.250259205213282,2.5549054010274226
0,-16.921835348373794,-12.78399074343018,-16.78113030677307,-18.32070366242963,2.55990521590223
0,-1.1619075495409907,2.1159413292775144,6.7592259969202635,2.46885084762209,2.5649050307770374
0,0.7980186858911285,-1.8041280802458453,-2.320419454188794,0.47840432958104995,2.569904845651852
0,-3.2520566410239335,-2.6141989732222877,-1.5000666607544857,-3.062043211506493,2.5749046605266592
0,-13.632133528968321,-9.884271350657801,-6.579715623332156,-9.552491770427503,2.5799044754014666
0,-0.6622119761817071,-7.414345213145987,-3.889366342223078,-1.462941341642137,2.584904290276274
0,-1.0122919803092094,-7.534420560618316,-10.969018817276048,-4.793391919125414,2.5899041051510885
0,-6.582373538555263,-7.864497392247441,-6.798673047719895,-8.013843496381973,2.594903920025896
0,1.257543352164466,0.5554242934980824,-1.0183290320762095,2.8357039335302456,2.5999037349007033
0,-4.7425413047983325,-13.06465550126841,-9.397986768245461,-6.494749622057769,2.6049035497755106
0,-12.772627505778193,-5.594736773864233,-9.677646253570767,-8.425204155484877,2.609903364650325
0,3.5572847533624654,3.385180479020496,7.882692515201902,5.334340341299691,2.6149031795251325
0,1.3571954772406647,1.795096261121433,-2.9069704582591096,3.113883876646637,2.61990299439994
0,-6.532895329309845,-4.254989423751437,-7.036635170166868,-9.406573541062036,2.6249028092747473
0,4.9370123386153075,-0.8250765717934316,1.7236983833995656,5.512968096558592,2.6299026241495547
0,16.806918485881823,14.664834820822046,13.514030206516708,16.202508797896108,2.634902439024369
0,4.0468231168919715,2.0847447576745766,-1.2256396969344738,5.682048570917636,2.6399022538991765
0,8.296726235204613,8.164653241753633,7.8046886764165535,4.471587422755775,2.644902068773984
0,0.6366278435854814,-1.8354397245672762,7.365015329410592,-0.24887464019996497,2.6499018836487913
0,3.9265279442569785,3.87446586066823,-0.04465973562816575,6.32066238800729,2.654901698523606
0,-8.493573460852348,-9.635630000763676,-7.844336516778308,-8.379801486903027,2.659901513398413
0,4.936323630153408,8.514272692949485,9.49598498778956,8.809733740686973,2.6649013282732206
0,-0.43378078073668785,3.594173943659738,5.8963047798804435,6.139268076296933,2.669901143148028
0,-2.673886691504095,-1.1859262469611407,-1.9233771389880707,-0.7211984748548623,2.6749009580228424
0,-1.2039941001104626,0.7339721225030875,2.92693923233173,2.8783340920621443,2.67990077289765
0,8.515896995538188,3.5238690533332706,5.947253894748941,7.267865781587306,2.684900587772457
0,1.955786597428283,-1.4062354532868147,-5.222433151036371,-1.2426034020341743,2.6899004026472646
0,-7.594325292720606,-5.256341396246502,-3.962121904449632,-4.923073454828233,2.694900217522079
0,8.355561326673689,7.503551225608278,8.168187635158606,7.346455627105333,2.6999000323968865
0,-4.8245535428028905,-5.086557586515395,-6.101504531488294,-2.604016152330651,2.704899847271694
0,-1.7646698995682835,-3.7766678314010695,-1.8311984036772988,-3.2244887892910805,2.7098996621465012
0,-0.18478774197740186,5.223220492262934,6.179106019359668,3.3750377200733284,2.7148994770213086
0,2.0450929317380213,-0.7068926141184619,0.12940873840517336,-1.9354366203220499,2.719899291896123
0,-9.705027876565413,-8.757007149137653,-10.820290245839463,-9.425911806486402,2.7248991067709305
0,-0.16515016485317208,-1.2271231112446874,0.9100090674409804,-0.49638783418797205,2.729898921645738
0,1.1147260692123122,-0.38724049855209886,1.0203066793878255,3.203135301168383,2.7348987365205453
0,-11.485399171758694,-7.047359308857691,-1.2193974086455417,-8.547342395588922,2.7398985513953598
0,-5.7855258848185915,-6.837479539648668,-6.229103195231688,-8.627820919418006,2.744898366270167
0,3.9743459334902953,2.4323988120137825,5.401189321189792,3.591699735148349,2.7498981811449745
0,-2.6657837129706703,-6.327724250528503,-10.778519857635583,-2.2487804259926762,2.754897996019782
0,-5.905914820173588,-7.197848723615194,-3.1182307297190093,-7.119261396714615,2.7598978108945964
0,3.4439526160681,3.64202539678068,3.192056707284931,2.630256829313317,2.764897625769404
0,-1.506181399877295,-4.458101884973252,-5.5076575439790485,0.8297742586458492,2.769897440644211
0,-0.8963168635650755,-4.128230564294885,-3.957373480683044,0.5492908979051345,2.7748972555190186
0,-5.59645377048753,-1.9983606363714443,4.84290890021016,-0.0011932463510385682,2.779897070393826
0,4.413407884020923,5.431507903862643,8.093189601829824,9.508321832320986,2.7848968852686404
0,-10.396731895182908,-8.308624938408094,-14.316531372851731,-5.682163859850512,2.789896700143448
0,-5.196873102976825,-2.7787591579044437,1.5137459790877814,0.24734968314897032,2.794896515018255
0,9.842984266134343,6.07110525086689,5.814021660794758,6.91686246726181,2.7998963298930626
0,-5.24715978214586,-8.559031706425774,-9.605704324423415,-6.913625501624534,2.804896144767877
0,-7.207305242111861,-3.019170023990783,-4.405431973160697,-5.55411421764443,2.8098959596426845
0,4.432547892074013,3.9606903041946113,6.934838718254096,2.7053963252689956,2.814895774517492
0,-0.6576003735233867,-5.879450715625728,-5.684892246282692,-2.5550938665383467,2.8198955893922992
0,-5.387750032744836,-6.069593077046851,-3.0646248628051316,-3.885584786556417,2.8248954042671137
0,0.5520989206567163,1.7502632266100382,3.8356408727695515,-0.24607642811751743,2.829895219141921
0,5.501946493067165,2.8701182023044183,7.2859049645945415,6.013431215602941,2.8348950340167285
0,-3.42820730912564,-2.8000281429374176,-9.823832583325471,-6.317061848559374,2.839894848891536
0,-7.038362479589135,-4.800175802102267,-7.503571767041744,-9.077555613749336,2.8448946637663504
0,0.32148098816655957,-0.35032476803616414,-0.9633125822589025,3.2819499271746624,2.8498944786411577
0,-6.308676899030999,-10.660475033285675,-9.753055024129761,-7.038545218233762,2.854894293515965
0,-7.14883613397659,-6.280626589952757,-0.7927990872870484,-7.489041042064454,2.8598941083907725
0,0.7810032909698386,0.579220570437208,4.8874552340514406,2.58046246399183,2.86489392326558
0,3.330841383821829,3.4490664568148994,4.137707945796035,4.569965308578711,2.8698937381403944
0,-2.5593218472886283,1.4089110782151155,-3.942040946319538,1.5594675003498542,2.8748935530152018
0,-4.62948639423621,0.4587544435337033,-4.391791436704157,0.4289690477344894,2.879893367890009
0,5.110347751193672,6.018596561479701,5.77845648031855,10.728469958901783,2.8848931827648165
0,-5.489819402664277,-6.01156255941989,-7.421297189439363,-3.53202975830022,2.889892997639631
0,-2.8699878473825455,-1.1417229107243005,-3.491052440043959,-3.682530096326775,2.8948928125144384
0,5.159842425609144,4.398115516078475,6.139190734643413,6.246968952283568,2.899892627389246
0,4.989671424932421,-2.372047270440753,-1.8505676591037572,-2.083532604991974,2.904892442264053
0,-10.35050084093474,-10.692211261684564,-9.9303276150005,-10.634034760677713,2.9098922571388677
0,6.529325636407536,3.8276235511680357,7.299910873374881,8.525462492855507,2.914892072013675
0,6.319150865386755,3.277457177246422,0.9601478126308802,4.344959163403847,2.9198918868884824
0,-7.721025145693241,-2.15271037425173,-7.5096167906152145,-8.405544741330875,2.92489170176329
0,5.2887976113003905,2.677120905759561,3.3906170702637337,3.103950786237438,2.9298915166381043
0,11.54861914438977,12.04695102620324,10.76084940195326,8.803445753714987,2.9348913315129117
0,-0.8315605387227851,-0.6232200043526425,-4.398919789043205,-1.2770598314338248,2.939891146387719
0,-1.4717414308093737,0.5566078221796068,3.031309503436551,-0.28756596205771157,2.9448909612625265
0,1.4480764751018498,0.28643451358547745,1.7015372853485164,3.371927368794544,2.949890776137334
0,-6.422106814009741,-8.333739922384284,-10.928236437395345,-5.428579831987174,2.9548905910121483
0,-9.142291290964682,-9.65391547773742,-8.008011658677349,-7.519087557443132,2.9598904058869557
0,1.1575230518403516,1.0859078560408613,2.3422116281402263,-1.3895958003041597,2.964890220761763
0,3.54733622244043,1.785730087981873,-3.7375665697909084,0.8698954471138494,2.9698900356365705
0,-6.082851770959279,-1.074448772673848,-4.887346245022256,-0.140613807258676,2.974889850511385
0,-0.36304092010537165,4.505371283280081,1.5028726101327852,1.8988764445487325,2.9798896653861924
0,0.0467687833928786,6.155190264891989,3.3430900035591566,6.358366210413859,2.9848894802609998
0,-2.3134226519210683,-0.5449918190856536,-0.45669405684997527,1.0778554979818147,2.989889295135807
0,-5.513615217369664,-0.9951749602090412,-2.0264795633069244,-5.012655685375761,2.9948891100106216
0,9.356191095887523,7.994640849783773,10.383733491888236,6.656832667588918,2.999888924885429
0,-0.024003703279351418,-5.415544380994853,-3.6560548837303903,-5.383679435887933,3.0048887397602364
0,-7.234199606148886,-10.01573064450415,-6.745844682825752,-14.674191988477222,3.009888554635044
0,2.5956033959672835,1.8540820675384464,-0.18563589800236657,0.6652950175685945,3.014888369509851
0,0.03540531190196483,-4.366106236154014,-3.245428521568279,-1.9652184093806182,3.0198881843846657
0,-6.254793849393312,-2.5262955465376025,-3.3852225455385323,-5.2657322605092345,3.024887999259473
0,1.5750059211552676,4.46351414564126,4.504982038290964,3.6537534732492327,3.0298878141342804
0,1.5048046327857878,-0.3666771502830034,-4.174814761756176,-0.7067611988871823,3.034887629009088
0,-9.015397705150836,-11.176869424973924,-15.014612937225603,-11.987276267603532,3.0398874438839023
0,-12.155601083065378,-4.687062668874239,-0.45441247923117745,-6.467791723284754,3.0448872587587097
0,-3.8358054907661554,-2.8072568719054223,0.6957866217427795,-2.508307555710132,3.049887073633517
0,-4.19601091728814,-5.707452023440222,-4.294015624371202,-3.9688237540411477,3.0548868885083245
0,-1.4762173510640983,-9.677648112368736,-10.43381920739543,-9.599340306962194,3.059886703383139
0,5.963575219793543,1.5421548729506136,3.6063758832225896,3.9001427972979075,3.0648865182579463
0,1.2333668071990669,1.5919569446217272,-2.14343034155797,1.8596255708665623,3.0698863331327537
0,-0.8468425771144664,-3.448241885055168,-6.763237870536044,-3.710891974036262,3.074886148007561
0,2.7429470784086303,3.421558396246514,5.846953307672512,1.4085901747872807,3.0798859628823756
0,11.662735785150854,7.671357800801122,6.267143204548598,6.0580720295297885,3.084885777757183
0,-3.0574764458578207,-5.95884365931824,-13.762668168531551,-9.07244639768053,3.0898855926319904
0,-2.10768960398775,1.0709540277575982,3.857519199789846,-5.732965094692692,3.0948854075067977
0,9.842096321193072,6.750750873840622,3.087705321072317,3.746515950936315,3.099885222381605
0,-2.4381186600277607,-2.709453109345791,-0.46210979304088406,-2.514003248032914,3.1048850372564196
0,-1.7483345375821755,-1.069657910242161,1.4680738689728772,1.5054773212703165,3.109884852131227
0,9.621448698444077,11.200136482596907,10.388256318455431,9.454957671657871,3.1148846670060344
0,4.451231057767196,4.029930080383471,17.34843756632884,2.5844378156791836,3.1198844818808418
0,0.0910125497003722,1.8297228938537407,-5.111382377288598,-2.546082234530596,3.1248842967556563
0,8.920793183114023,6.1195149332486665,9.038796496895252,5.343397532859393,3.1298841116304637
0,12.240572966416469,7.289306208382626,11.118974197585674,9.512877129464458,3.134883926505271
0,-14.079648092551484,-12.600903271323425,-16.11084926699604,-11.12764343341298,3.1398837413800784
0,-3.9198699862472024,-0.41111349656558227,1.2293261111611233,-5.558164144627673,3.144883556254893
0,7.05990729308629,10.178675542153597,9.289500340244338,8.481315007191606,3.1498833711297003
0,1.1996837534382956,3.24846385434142,-2.670326571489416,2.410794033610799,3.1548831860045077
0,-0.45054059730505114,1.9382514491292029,-1.1201546159824907,1.0302729460243876,3.159883000879315
0,10.929234248494906,10.938038335170429,14.000016214628639,9.959751755480248,3.1648828157541224
0,8.809008298101318,8.75782452058702,6.800185927874536,6.639230472595363,3.169882630628937
0,-3.9512184418086838,0.027610012820929786,-5.409645469314753,-8.201290892528739,3.1748824455037443
0,6.888554034911127,7.647394818668813,14.350522029452707,6.338187669879413,3.1798822603785517
0,9.198325734046472,6.497178944420641,4.930688430136071,3.8876661694904744,3.184882075253359
0,-8.231903338999839,-9.063037604069983,-11.089146261791896,-10.112855384130235,3.1898818901281736
0,4.927866820865808,6.91674517880542,2.9010179588973424,-0.5033769814144212,3.194881705002981
0,5.297636218619474,1.2965272986052434,5.8811810975234255,-0.14389861254454123,3.1998815198777883
0,4.987404859042338,5.64630876075045,-3.3786568405825492,4.0755797325164345,3.2048813347525957
0,-5.282827253437121,1.996089570351713,0.6115041497710975,-6.614941936174056,3.2098811496274102
0,12.146939885323068,9.145869732135496,12.731664073646176,10.054536391398859,3.2148809645022176
0,11.866706279136109,8.955649250332687,14.121822935732592,11.604014725077693,3.219880779377025
0,-0.34352806881713693,5.645428128504661,2.601980739901142,3.0434930741731825,3.2248805942518324
0,8.136236843905937,14.805206369423157,15.372137489036058,11.062971447225701,3.229880409126647
0,10.976001019132566,11.634983974948545,10.342293185067776,13.69244985196829,3.2348802240014543
0,-10.00423554187747,-13.955239053990008,-10.487552170972128,-6.878071704706754,3.2398800388762616
0,-6.974472838175291,-13.11546271686352,-8.847398578510766,-13.138593216447578,3.244879853751069
0,-3.17471086857421,-7.375687012642472,-1.7772460367113632,-6.669114676691408,3.2498796686258764
0,-2.63494963136264,-7.855911939321785,-9.937094544117759,-8.85963607809504,3.254879483500691
0,-10.225189124355856,-1.8761374940198676,-4.886944098657793,-7.53015741244814,3.2598792983754983
0,5.2645706550638725,5.37363632670426,4.163205302294476,3.8293213291854533,3.2648791132503057
0,-2.0856702901442654,-3.6665904735122066,-4.346646338278617,-0.8511998438143298,3.269878928125113
0,-1.3059119568895545,-3.92681789102165,-5.8064990172260895,-1.0817209219432455,3.2748787429999275
0,6.493845657921194,11.062954077866324,5.773647268796443,5.747758104278334,3.279878557874735
0,5.433602557256401,4.652725436744372,6.383792523246474,6.667237244186164,3.2848783727495423
0,-6.406641256201551,-5.007503811163819,-6.166063250579434,-5.433283493191572,3.2898781876243497
0,-4.746885779934,-5.377733662895329,-4.545920049545337,-6.75380409903026,3.294878002499164
0,11.722868988684073,7.102035884602738,7.414222129584912,10.175675435598393,3.2998778173739716
0,3.0026230522702693,-0.2481951654981205,-1.3256367098476938,1.195155119705963,3.304877632248779
0,0.5023764130924034,1.3015731898737568,9.304503435350913,1.1046349620941671,3.3098774471235863
0,4.802129073010561,1.1813409536199875,-0.08535743195575263,4.354114971260784,3.3148772619983937
0,3.6718810335826766,-4.978891871441009,-3.3852193092342,5.303595155433982,3.319877076873208
0,-6.008367703892087,-6.019125282406247,-2.585082194068158,-4.07692447745559,3.3248768917480156
0,5.941382861741464,4.590640723891061,3.315053916070491,6.552556080275487,3.329876706622823
0,6.751132731553542,2.880406150822297,9.935189023746036,6.272036836106357,3.3348765214976304
0,-7.819118093595505,-4.309828998275857,-5.5346768687230155,-5.278482202777158,3.339876336372445
0,-2.1293696129966397,1.2899352798500217,-3.2245437592916444,1.0209989705696945,3.3448761512472522
0,3.6003781741741094,5.549698988447489,3.7555883540808757,8.32048036301586,3.3498759661220596
0,-0.1198747311191199,-5.810537869295381,-4.8042805264348605,-3.4900380186976596,3.354875780996867
0,-9.020128327886406,-5.820775290221451,-8.574150398524015,-10.600556167977109,3.3598755958716815
0,8.719617384958433,10.54898672897318,7.545978740394757,10.168925921886027,3.364875410746489
0,-2.3506375913860253,-3.0012518083258897,4.0061068931019985,-3.6415917422034156,3.3698752256212963
0,-9.410893255704737,-7.3514908988234025,-13.693765937673552,-6.182109153306664,3.3748750404961037
0,-5.361149606592408,-1.511730539147704,-2.64363974913144,3.4773736955946717,3.379874855370918
0,-1.4414066421565204,-6.441970725573714,-1.5335145380408393,3.2568568116668746,3.3848746702457255
0,-6.751664359988981,-0.7922114539621163,-7.0133903006851925,-3.2736597979372974,3.389874485120533
0,-6.781922757235528,-1.45245271982859,0.16673296702560508,-2.7741761261346394,3.3948742999953403
0,2.5478181694221527,2.32730548152742,0.94685526948144,2.145307834231625,3.3998741148701477
0,-8.71244157628573,-8.772936845085239,-11.263023388708248,-4.405207909545863,3.404873929744962
0,-12.112701990229858,-3.4531796946678575,-10.712903002590437,-8.445723350006519,3.4098737446197696
0,-1.6529630676783582,5.746576938099998,11.59721643336549,2.913761520623682,3.414873559494577
0,4.876775196750283,1.7963330587134845,8.03733492501864,0.6732467104461912,3.4198733743693843
0,-13.563487191190182,-3.863911327424856,-10.782547521996124,-3.707267772304938,3.424873189244199
0,0.8662497745149009,2.0458437849846223,8.047569097658883,-1.3877819193412597,3.429873004119006
0,10.285986100183186,1.1655984012470515,1.907684789241241,5.391704277727949,3.4348728189938136
0,-1.2842782078413721,-2.1746474733391565,-5.22220044208642,0.4311908272962598,3.439872633868621
0,-1.6545431434876936,-0.9948938334854355,-1.8920865912228,-0.769322262388945,3.4448724487434355
0,-1.6048087008435086,0.6548593261556047,4.7280263470459944,4.620165016771595,3.449872263618243
0,2.1949251260582843,-1.0253879889961433,-6.4318616219574505,2.8096526727323483,3.4548720784930502
0,0.8946583432326007,2.2443642265040715,-0.13175049284793505,3.049140713208062,3.4598718933678576
0,5.424390956608535,7.964115978025413,8.598359739841912,11.358629145559746,3.464871708242672
0,6.424122971867606,5.833867270646594,12.608469081425968,13.328117976582577,3.4698715231174795
0,-6.486145605658925,-7.976381890986527,-12.191422463286443,-4.362392787732433,3.474871337992287
0,4.323585229119645,1.2433684975379056,3.5886851101199455,1.1070968579230764,3.4798711528670943
0,4.39331548120943,2.543118440686761,5.948791806022656,3.4065869185755897,3.4848709677419016
0,-5.2369548444976495,-6.57713205698166,-6.8811023712146975,-6.303922600808515,3.489870782616716
0,-5.537225743174702,-4.8773829907938016,-4.630997417263184,-7.654431695187629,3.4948705974915235
0,1.4825027901889622,3.9623656441892923,5.329106672371078,5.665059640772523,3.499870412366331
0,-3.5277692391075477,-0.3678861468648347,-9.880790097587148,-3.1554485873001688,3.5048702272411383
0,2.8219581744161992,-0.1581383587646243,-1.8706877222010287,-2.0059563736711103,3.5098700421159528
0,-0.25831496370005513,2.4616090136169766,5.259413803739092,-1.316463712524638,3.51486985699076
0,6.421411352024433,1.9413559753258713,0.8495144855861589,1.4930294020932007,3.5198696718655675
0,-9.278862873067304,-9.698897468664104,-11.040385671346773,-11.817477023711643,3.524869486740375
0,-2.399137633637066,-1.4491513132639675,-3.940286661601509,-6.437982983516611,3.5298693016151894
0,5.490587075862415,0.570594446939066,3.2898115207066403,2.0915115296480566,3.534869116489997
0,-5.229688738848919,-3.1396601823596715,-4.830091118180722,-3.068993476765998,3.539868931364804
0,-5.149965071978059,-4.239915195289089,-1.4799945718523493,-4.649497995051794,3.5448687462396116
0,4.569758082437496,-3.4401705857442817,2.250101166245646,0.37999798270876806,3.549868561114419
0,-3.930519269445041,-6.350426347270045,-9.029803897181019,-8.740505535290382,3.5548683759892334
0,-3.0507971213638223,-0.9706824730025899,2.2902902447626086,-5.161008540492855,3.559868190864041
0,0.8189245330759205,1.1890610442798386,4.020383599175256,1.008488976115586,3.564868005738848
0,4.358645700401826,5.968804211944746,-1.7995238268087304,1.6879870239132564,3.5698678206136556
0,-7.0516336128533625,-5.201452962735188,-1.8794320261474229,-11.522514387550451,3.57486763548847
0,-2.7919134001287618,-2.521710472586327,-4.289340991773111,-5.283015248467907,3.5798674503632775
0,7.237806345306882,7.028031689620986,-3.2492507164058497,0.0764844514701023,3.584867265238085
0,-9.662474369685443,-8.112226468822922,-9.71916119241399,-12.184015276891508,3.5898670801128922
0,-9.562755538104662,-3.5124849405724072,-3.5790724116728305,-6.574514422175048,3.5948668949877067
0,1.1469628474698694,3.777256281921219,5.0510156344590245,8.304987027582147,3.599866709862514
0,5.74668079493642,-3.1230027935832423,-1.668897045102693,-0.4555109153206054,3.6048665247373215
0,-4.583601687668957,-3.373262159233455,-5.888810441403911,-2.5760082386259406,3.609866339612129
0,3.206115407602252,6.726478192907592,8.431275454561256,12.123495069766577,3.6148661544869434
0,5.815832088605586,4.52621827076182,1.401360651809835,10.212999021654731,3.6198659693617508
0,-2.7944516369685144,-5.994041917967136,-4.548554840801985,-3.917496371765912,3.624865784236558
0,2.2652642383620445,-2.1143023657253854,9.511528985414191,-0.047991099856745933,3.6298655991113655
0,9.724979721905903,4.605436935132174,10.931612138929252,5.53151484780895,3.634865413986173
0,-4.335305179288833,-9.414824007608543,-6.218305372259463,-6.698978518401065,3.6398652288609874
0,-1.9955904584497148,0.1549148139864749,2.2917764593796224,-0.9994711881269712,3.644865043735795
0,8.234123891101918,7.364653408047236,5.691857641190636,8.310036849075255,3.649864858610602
0,4.3038378759372495,5.154391782688601,-1.6580618196096435,4.359545603586654,3.6548646734854096
0,-8.796448497649562,-4.995870054285137,-6.167981915952374,-9.280944914499923,3.659864488360224
0,12.173264776430162,8.073867904634254,11.992097359216501,13.058565304699561,3.6648643032350314
0,-4.277022295838938,-8.196394333179615,-8.807823987056391,-3.191923729047439,3.669864118109839
0,-7.427309708579491,-8.4966567603064,-6.727745947746663,-6.012412006136433,3.674863932984646
0,4.172402544154666,-0.7369193689811856,3.002331484382847,0.12710048303766752,3.6798637478594607
0,6.50211446846986,1.6628178490295897,8.152408316833789,4.976613748264459,3.684863562734268
0,-4.448173929604343,-6.707445097756445,-1.8375154429717464,-5.073872200595557,3.6898633776090755
0,-14.848462644133557,-8.86770820059538,-6.687439787856137,-8.664357353653848,3.694863192483883
0,0.41124833115445414,0.10202854968101538,-0.8473647106234261,1.885158299241077,3.6998630073586902
0,-4.859040996837417,-6.728234837243416,-7.287290203773297,-3.6053252313736563,3.7048628222335047
0,-3.019330620695871,1.321501648724054,-0.47721625942004114,-1.395807934691459,3.709862637108312
0,5.810379467288409,5.08123801791029,5.962857130624912,4.6137102002385815,3.7148624519831195
0,4.410089274882499,2.270974280619556,-0.4570700253922589,3.6632291843600786,3.719862266857927
0,-11.110201190295417,-4.349289553049541,-7.326997719331455,-12.137250971510998,3.7248620817327414
0,0.5295080793560241,5.18044652686125,4.493074056972921,3.4722697434775216,3.7298618966075487
0,4.36921709166168,6.580182530216581,5.953145311783217,3.7117913403972604,3.734861711482356
0,-10.811074145369743,-5.920081533340233,-14.076783946680369,-8.768686169571012,3.7398615263571635
0,1.418634376420212,2.99965434562,2.273286289849083,4.060837224796042,3.744861341231978
0,6.728342665399785,8.06939017642874,1.3533560299167102,5.500361534798241,3.7498611561067854
0,3.0080507299399097,-5.2608740317524845,-2.2265747177282025,-2.2601132283422536,3.7548609709815928
0,-6.132241421838891,-1.0711382699592666,-1.7465059442905992,-5.740587053559717,3.7598607858564
0,10.387466217987605,12.858597470697985,15.923562359004693,9.278940070218876,3.7648606007312146
0,2.277173657186592,1.3683331989054917,1.0936302006481633,3.318468154051609,3.769860415606022
0,-4.513119096751114,-2.4019310770807736,-6.406302411382863,0.507997208727056,3.7748602304808294
0,8.396587963425278,5.037804650666365,6.643764530587395,8.597527244657199,3.779860045355637
0,0.6462948448042803,2.227540389913961,2.8038310341662758,7.787058271841145,3.784859860230444
0,-9.38399844569484,-6.492723851719497,-9.666102893141645,-7.593409700212155,3.7898596751052587
0,-6.964291901082533,-6.032988066610109,-10.546037243757382,-3.743876662282519,3.794859489980066
0,6.195414486038603,0.8067477531602845,5.064027990368389,4.91565739494647,3.7998593048548734
0,1.6951207233836958,-2.5235163841295187,-4.045907182210163,0.445192480943153,3.804859119729681
0,-11.835173181300897,-8.283780469931852,-10.305842752646889,-9.785271394817423,3.8098589346044953
0,6.894532779807048,3.8059555045887814,8.28422128819358,6.2542657772269035,3.8148587494793027
0,-0.05576138528453989,-5.914308451429688,-7.445715050265682,-1.2861959931898297,3.81985856435411
0,-9.286055668483732,-5.4045723285943055,-9.395651758390043,-4.2366566962690575,3.8248583792289175
0,6.353649938395013,5.60516388275915,8.864411173762957,9.102883677789697,3.829858194103732
0,6.583355443641014,9.254900192420333,11.074473756326517,9.492425138655408,3.8348580089785393
0,-5.406939144589405,-4.645363390055327,-5.805464000850122,-6.388032304416641,3.8398578238533467
0,-1.617233818337073,0.8143731445541185,0.6845979116562912,-7.188488642514611,3.844857638728154
0,8.922471430340746,7.9741098053124055,8.334659503089973,4.231056133369627,3.8498574536029615
0,-3.437823390658935,-7.276153398839592,-8.56527921740672,-6.589397967458626,3.854857268477776
0,-12.248118273534377,-3.6764164590442316,-9.405218240711374,-11.599850935403477,3.8598570833525834
0,4.131586789707372,3.2733206336923466,-0.29515755736498195,4.069697239570184,3.8648568982273908
0,2.7212918074188943,0.6930578885430116,0.5049028425969517,-1.0807534320367487,3.869856713102198
0,-1.6290032119352873,-1.177204685314806,-3.425037030560532,-1.0212029395169009,3.8748565279770126
0,2.750701740006828,4.672532921213884,6.51502283351735,0.02834872787293663,3.87985634285182
0,5.650406671473914,0.6322707171126372,0.29508244513953996,3.5179015808924508,3.8848561577266274
0,-4.019888409495858,-5.247991288764675,-9.51485818549194,-4.092544369728679,3.889855972601435
0,-3.760183495006979,-2.4782530875510007,6.935200951865873,-1.5329891132749527,3.8948557874762493
0,8.109521422870735,6.561485329788966,8.205259867537764,5.976567361033636,3.8998556023510567
0,-4.02077364790469,-2.9187760276370143,-6.904681428332671,-8.253874935983724,3.904855417225864
0,-3.831068699434172,0.5009628491994886,-1.9846229258322559,-6.914315993420858,3.9098552321006714
0,11.038636276179753,6.640701969236175,11.465435384940847,7.025244199919136,3.914855046975486
0,3.9483412867301477,7.780441341214509,-0.5045064861969719,5.854805655443656,3.9198548618502933
0,-1.2919536603636184,5.480180973416095,6.565551470214577,4.684368384351243,3.9248546767251007
0,13.43775144187773,9.199920873484121,9.745609263167825,11.083932397315838,3.929854491599908
0,12.187456599915873,12.4396610483319,10.555666901056194,12.273497704310188,3.9348543064747155
0,-3.802838180544596,1.1894015040456847,0.6157243914994738,0.24306431445223087,3.93985412134953
0,-3.313132894450854,-5.560857753995174,-4.8742182585307425,-4.197367763867273,3.9448539362243373
0,4.136572463065715,3.6988832792991793,6.275838957678759,4.722201477440716,3.9498537510991447
0,-7.383722103042627,-7.411375390927942,-5.35410395318027,-1.8482279535659683,3.954853565973952
0,-5.694016587656382,-1.251633759352025,2.1559530155869067,0.8113439511388569,3.9598533808487666
0,8.43568901462038,6.6281081795560555,7.556009870648918,8.920917199485638,3.964853195723574
0,-2.164605290646037,-10.172149568570381,-5.853933381460531,-5.339508200793633,3.9698530105983814
0,-9.364899497904121,-9.68240699795783,-11.903876734288643,-11.51993224210101,3.9748528254731887
0,7.494806398488367,7.987335897572133,9.166179818868203,7.729645083367644,3.9798526403480032
0,4.904512404304748,1.967079124552487,5.256236284989745,5.06922378369402,3.9848524552228106
0,-0.8457814748285066,-2.0731773105131026,-3.6437073290593704,-3.28119613311288,3.989852270097618
0,8.343924766380246,10.876566598655888,11.006348983264491,10.038385340671162,3.9948520849724254
0,4.533631132857648,0.8263108580492537,7.716405228139217,4.6679682124471,3.99985189984724
0,6.453337629066618,1.3660554732695878,0.20646141120824185,1.7775524891737002,4.004851714722047
0,2.3830442589347562,-3.1241995503772135,-1.1434824624107995,-3.56286182260689,4.009851529596855
0,7.362751025889875,3.585545792332762,5.946573612128921,3.206725283475046,4.014851344471662
0,4.952457932878524,-1.514708493378843,3.0266296395007393,0.05631381376907829,4.019851159346469
0,-3.7078350176170525,-2.9949624022984764,-10.093314375824882,-7.104096225374326,4.024850974221284
0,0.4318721765983664,2.9347840708295205,2.68674157060355,-1.4745048274814596,4.029850789096091
0,3.5615795176577647,6.024530931277109,9.18679748337495,11.315088014127276,4.034850603970899
0,-11.80871299227631,-2.655721815839339,-6.533146632976497,-7.405317693872503,4.039850418845706
0,-5.149005350840423,0.4640258343851107,1.586909225893293,-4.905721944929302,4.0448502337205205
0,3.3107024447760516,1.0537738867700879,1.516965064279069,1.403875267623442,4.049850048595328
0,-3.359589602222438,-1.0864776538727694,0.4270208864812555,-1.4065260492829097,4.054849863470135
0,-0.8698814884679933,0.7232712172566055,0.1670766967345682,-3.966925888545229,4.059849678344943
0,3.459826789480846,4.45302050492475,6.447132499168213,5.762675757048327,4.064849493219757
0,-3.280464764905287,-5.957229786180345,-8.182811702221551,-4.417721105233455,4.069849308094565
0,-3.9007561481368844,-5.797479651363972,-7.0327559034385,-7.818116468071782,4.074849122969372
0,1.7589526434007101,3.3222709142942826,4.81729989979636,0.811489676082755,4.079848937844179
0,13.888661613396096,9.702021915904602,9.327355712004861,12.201097335043613,4.084848752718987
0,-11.511629234679592,-12.26822664152833,-11.26258846240464,-6.099293483448283,4.089848567593801
0,-3.741919897578476,0.5115252468958453,2.1974673808219354,4.310317228052647,4.094848382468609
0,3.927789628086088,1.1112775862498665,1.8775232460286015,8.69992947675483,4.099848197343416
0,-1.3425006540542854,-5.218969618167785,-4.442420862322063,1.879543269559833,4.104848012218223
0,-1.9327907403057585,-4.0992163608849355,-1.4523649397039717,-0.38084138705941595,4.109847827093038
0,9.576919372990421,7.750537363783691,8.99769101849271,9.398775513015039,4.114847641967845
0,10.89662968927283,1.4602915615957834,6.1677470167709485,9.628393975528788,4.119847456842653
0,-3.2836597885599095,-2.299953761864016,-1.0521969407763152,-1.1519859943453314,4.12484727171746
0,7.686050941804513,9.209801398771738,9.087859149478577,11.867635607942871,4.1298470865922745
0,5.7457618822525225,2.0895570486347355,6.357915290736701,7.057258786362125,4.134846901467082
0,1.465473034254563,0.8293131925114529,-3.7120285142769696,5.256883544213171,4.139846716341889
0,0.015184398868249172,4.719069834852828,2.8780277367882587,7.5465098840828375,4.144846531216697
0,14.184895976824208,14.538826979769107,16.298084046039214,20.51613780781343,4.149846346091511
0,2.5946077684206053,4.838584630781725,0.7881404151275597,9.98576731624,4.1548461609663185
0,-8.465680226583467,-3.191657209337319,-3.571803154935289,-1.6646015910004692,4.159845975841126
0,1.74403199132632,6.608101461661931,4.168253336480469,8.115031084809544,4.164845790715933
0,1.5937444217717869,4.217860645753065,2.1183098899022896,5.464665341849775,4.169845605590741
0,-6.346542935498744,-3.9323796553622206,-4.621633494235916,-4.335698822123888,4.174845420465555
0,-4.676830080603059,-0.2326194401806025,3.1584231844359776,1.5539385903538476,4.179845235340363
0,4.112882986612294,-1.122858707185566,1.6784799262927832,4.743577576657324,4.18484505021517
0,-4.707403733455064,-7.173097454711004,-1.6614632683371409,-4.676781865910567,4.189844865089977
