labels,F4,F3,Fz,Cz,timestamps
0,12.918296667928693,9.23131944437938,10.441545689671749,11.230529557843525,-2.000027137042089
0,0.08875051143387219,-2.737849715962601,-1.657696349883634,-2.158748891951723,-1.9950270691994838
0,6.95920471402704,7.4929810020206435,6.323061182850095,2.451973465490256,-1.9900270013568786
0,11.389659276594223,9.473811599185584,14.633818288322392,12.232696630686556,-1.9850269335142734
0,0.6101141994051308,3.0046420758765002,5.754574966337369,4.103420603726001,-1.9800268656716682
0,4.890569482099164,4.905472431822601,3.7853312158570396,7.324145384059515,-1.975026797829063
0,11.001025123787281,7.446302666202439,4.646087035118189,10.4748709704332,-1.9700267299864578
0,6.841481123008121,1.2971327776952732,1.4168424218683207,6.175597360858359,-1.9650266621438526
0,-0.39806252238836914,-1.0720372354547008,-2.552402626460949,1.3963245526017387,-1.9600265943012474
0,5.342394184877278,4.988792624734159,7.948351887387557,10.627052542305824,-1.9550265264586422
0,2.572851241719607,8.859622356029865,5.839105960472798,12.58778132601272,-1.950026458616037
0,2.1033086447505864,1.2904519558131733,-1.9701404105137366,5.03851089896733,-1.9450263907734318
0,0.6837663903054068,-6.968718578962496,2.4306127707619076,2.359241255550518,-1.9400263229308266
0,-0.6357755254658563,0.5221107485290493,-0.018634499544739225,1.8799723895190195,-1.9350262550882213
0,-5.835317106453854,-3.2270600647097676,-6.147882225316047,-7.039295705659049,-1.9300261872456161
0,-6.264858356375083,-6.066231021418116,-10.11713041026985,-9.05856303644571,-1.925026119403011
0,0.8456007214256279,-0.9754021240338573,-1.7963790576566192,1.0021703911085753,-1.9200260515604057
0,-1.2239398760347435,-6.014573374637752,-2.375628170148832,-0.9970954285742379,-1.9150259837178005
0,-2.613480151536311,-0.22374477495962158,-7.0648777499687965,-4.66636050079266,-1.9100259158751953
0,8.786979892213107,3.777083673533919,2.4758722010098944,2.8943751693181015,-1.9050258480325901
0,2.4674402523970858,11.50791196937434,12.10662168110711,8.03511157669201,-1.900025780189985
0,-6.802099074069594,-1.771259889272311,-5.142629311525004,-3.4641512838977295,-1.8950257123473797
0,-0.7116380903904828,0.3595680952907326,-1.1918807790615669,0.20658658206982766,-1.8900256445047745
0,4.958823200353235,2.5103959204965527,6.658867276189173,5.107325168992732,-1.8850255766621693
0,2.299284795122023,-0.9087764163167398,-1.93038514813657,0.24806447117095262,-1.880025508819564
0,-0.4602533092992521,-2.57794891786298,-5.329638054506252,0.5588044827244836,-1.875025440976959
0,7.400208883640126,8.07287841312752,10.881108554592258,10.689545197560012,-1.8700253731343537
0,-0.239328629757379,-1.3262944261633403,-1.4281453233843582,1.4502866092576177,-1.8650253052917485
0,-1.5688658534470135,-4.645467438719121,0.6526003087955117,-1.858971289032438,-1.8600252374491433
0,1.3515972084774486,-0.2546406275415115,1.3933454481589913,2.571771495553171,-1.855025169606538
0,10.462060551843582,6.206186004488832,7.614090091597301,4.392514955755926,-1.8500251017639329
0,-3.907475827761793,-5.482987545495384,-2.8751657642244943,-2.4867409158321414,-1.8450250339213277
0,-2.467011935047096,-6.2721612803824245,-4.954422122856594,-2.1759961267569095,-1.8400249660787225
0,-0.10654777478032967,3.0186647971247726,3.2663210121620727,2.044749315444615,-1.8350248982361173
0,-4.956083351575267,-2.980509315407709,-3.662936362559556,-3.0145045966828734,-1.830024830393512
0,-0.0756186698365261,-1.9796836202527528,2.647805749678937,1.0362421294660136,-1.8250247625509068
0,4.974846266201242,2.051141880425825,2.008547345586299,3.5569894865231766,-1.8200246947083016
0,3.0153114522882216,2.93196718452282,3.7592884217714544,1.5777374670475266,-1.8150246268656964
0,-4.414223116021871,0.2327922898516579,-0.9899710253574161,-1.921513936565626,-1.8100245590230912
0,0.4562425566986712,-0.22638280592315269,-0.12923099956979273,-3.6407647320024914,-1.805024491180486
0,-3.073291534057425,-1.7755581052137273,-0.5984915046958599,1.1399850731423806,-1.8000244233378808
0,-5.162825392618451,-0.8547336103986988,-2.507752544529719,-0.8692645285777407,-1.7950243554952756
0,-1.2623590230515982,1.2160906762256403,2.272985877212294,0.9514864554645773,-1.7900242876526704
0,6.988107570825137,5.636914752375058,11.373723756796569,9.412238017842366,-1.7850242198100652
0,0.5385743852105989,-2.542261384369816,-2.045538909793417,1.7929901508681123,-1.78002415196746
0,0.5490414160941373,-9.121437736540342,-5.094802126949376,-5.62625715351709,-1.7750240841248548
0,11.049508659202365,-0.830614306493378,3.1059341008267856,5.184496096433167,-1.7700240162822496
0,5.519976109883459,1.8702089037843563,0.8766697691183907,2.915249892425495,-1.7650239484396444
0,-2.0495562370566085,-1.5489681074619877,-1.1125951264826126,1.2460042260250517,-1.7600238805970392
0,7.470911612718403,4.651854658029022,9.63813940950743,10.096759088506234,-1.755023812754434
0,12.491379653160063,7.092677198379003,11.898873372265598,5.937514470713712,-1.7500237449118288
0,-2.1681521223276614,-5.366500488574159,-4.510393243623892,-2.1617296370564762,-1.7450236770692236
0,-4.837683720884487,-6.755678405184103,-7.609660444083107,-11.690973244854572,-1.7400236092266184
0,-4.577215149774693,-4.55485655361649,-3.09892823501352,-8.510216362521566,-1.7350235413840132
0,-6.476746415958337,-5.694034935557593,-4.138196621900922,-9.319458999190909,-1.730023473541408
0,-4.536277525911888,-5.263213552159684,-4.777465609774825,-10.508701163096298,-1.7250234056988027
0,-0.5358084856204666,-1.8923924040747948,-0.046735203275470705,-2.257942861583002,-1.7200233378561975
0,-1.4653393006961912,-1.6215714915403145,2.233994593238765,-2.2171841012652616,-1.7150232700135923
0,3.595130023432385,-2.79075081450551,-0.5252762244985775,-10.146424888246118,-1.7100232021709871
0,-6.214400518619024,-0.619930372710622,-1.9345476607809489,-3.6656652281595727,-1.705023134328382
0,-3.063930932157019,3.150889834253487,6.856180280069291,0.025094873887982316,-1.7000230664857767
0,-2.8134612222480517,-3.568290193159158,-4.213092406342423,-6.224144586778071,-1.6950229986431715
0,-8.552991393596757,-2.9374704544724737,-3.0623657244892923,-3.413383614509865,-1.6900229308005663
0,0.9974785495098726,-3.066650949062719,-3.62163967874872,3.8273777866493868,-1.685022862957961
0,0.8679486031545932,-0.3158316760548493,1.4490857267531467,2.858139612821857,-1.680022795115356
0,-5.131581236380535,-3.685012634338068,-1.1801895119047479,-2.771098139941722,-1.6750227272727507
0,0.538889027304275,1.2658061773845033,0.180534601437831,4.8396645242706615,-1.6700226594301455
0,-1.3506406092359406,-2.923375239442475,-1.3487419370252205,1.870427601249822,-1.6650225915875403
0,-11.090170149245722,-8.74255688320454,-13.44801913097205,-7.72880891333826,-1.660022523744935
0,-5.609699595597863,4.358261247998004,-1.6972969836906786,2.5819549761752474,-1.6550224559023299
0,5.920771049370229,6.129079156303573,8.813424502041407,8.792719265550193,-1.6500223880597247
0,4.4312417836328795,4.10989684374818,-1.9158546763585234,-1.2365160495775391,-1.6450223202171195
0,2.901712605027003,3.280714311971056,9.344865478317887,10.094249026059513,-1.6400222523745143
0,4.272183511020773,7.211531562161384,5.855584962881385,8.94501448724373,-1.635022184531909
0,4.872654498698615,6.032348595039104,5.8963037736157595,7.23578032810359,-1.6300221166893039
0,1.463125564764099,-1.5268345891820456,-4.102978093743518,-0.9134534579680735,-1.6250220488466987
0,1.2735967055771598,7.323982009288461,4.617739356196159,6.517313121860349,-1.6200219810040934
0,4.074067917244198,4.344798389901332,6.2484561186472956,3.0880800600458493,-1.6150219131614882
0,-7.585460804293418,-5.274385448233561,-7.300827811390015,-5.881152651253931,-1.610021845318883
0,2.1250105368888477,1.086430493787716,-0.00011243905325158954,0.3996149799935935,-1.6050217774762778
0,6.585481936793642,5.607246214850693,7.110602230562702,6.110382945873762,-1.6000217096336726
0,-6.734046608613386,-5.111938286202024,-6.558683807630312,-6.408848761527636,-1.5950216417910674
0,-5.533575103414796,-2.9911230105844258,-6.137970558738183,-2.968080150148253,-1.5900215739484622
0,1.6668964485036883,-6.720307959353191,2.862741972330803,3.302688772209611,-1.585021506105857
0,-4.14263195643268,-4.5694931331737045,-5.7965462190246315,-2.4865420020944984,-1.5800214382632518
0,-9.582160321524643,-9.098678532195674,-15.155835137087834,-9.44577248059229,-1.5750213704206466
0,-0.531688649691984,-2.337864155983768,-2.5151247855783874,-0.2850026705551977,-1.5700213025780414
0,-2.2712169433869716,-5.497050003528068,-2.8844151674597356,-0.4542325788595344,-1.5650212347354362
0,-4.020745204704044,-3.5362360733281273,-7.193706285085192,-4.873462212085155,-1.560021166892831
0,6.07972656447753,1.434577636506763,1.5770018596169493,0.6773084233834951,-1.5550210990502258
0,5.930198362299761,6.275391128071537,5.177709264996334,10.32807932127356,-1.5500210312076206
0,-1.0893298133435176,3.686204403353168,3.588415929389773,5.628850475122935,-1.5450209633650154
0,-3.1488579648529575,-3.792982535970958,-4.870878149107028,-1.36037812202314,-1.5400208955224102
0,6.711613905264889,-1.812169688416028,4.309827027426663,4.030393522427738,-1.535020827679805
0,0.44208579444296847,-0.8413570524377318,1.9805314568541907,2.461165400804671,-1.5300207598371962
0,-6.287442300020242,-0.9405446263286659,-9.648764863011497,-0.19806249477046867,-1.525020691994591
0,-0.07697038083313223,6.450267591699118,10.401938065666496,7.632709827603033,-1.5200206241519858
0,3.2535015494560353,1.4910796033341456,2.4726402407346177,3.8134823595392895,-1.5150205563093806
0,-0.8560265116216247,0.9918914100144727,-2.3966583401630297,-0.37574490772688063,-1.5100204884667754
0,8.554445433354939,12.182703012874416,14.04404232030517,13.145028016644176,-1.5050204206241702
0,11.91491738147838,8.623514412586811,11.01474221902628,12.215801122972394,-1.500020352781565
0,-0.6046106707564634,3.634325609114624,6.985441352106384,2.98657440076732,-1.4950202849389598
0,5.585861272487552,4.065136601689694,5.686139714717515,4.90734783867234,-1.4900202170963546
0,13.80633320650743,3.7559473890049353,5.21683730125228,6.178121424686761,-1.4850201492537494
0,1.9868051259898607,0.3767579693699838,2.56753410551591,-0.29110485366493366,-1.4800200814111442
0,-7.382722975018456,-6.412431659133716,-4.191769879094962,-8.79033100916102,-1.475020013568539
0,4.307748897239768,2.7683785015842775,9.268925340606321,3.3604429454440234,-1.4700199457259338
0,-14.871779263355176,-10.890811550184267,-11.920380242287656,-9.098783002340223,-1.4650198778833285
0,-6.8113074625088865,-2.310001815815679,-7.749686634599092,-2.0380088646768857,-1.4600198100407233
0,4.179164294696541,-3.9191922962366856,-5.418993842693503,-1.9472346533636622,-1.4550197421981181
0,0.7196360036576311,-3.8483829919227017,-1.3783018722785738,3.563539620103004,-1.450019674355513
0,-7.949892340094294,-7.217573902945021,-3.9976107285450775,-2.7356860556672893,-1.4450196065129077
0,-2.7094207409046294,-5.976765028913541,-7.41692041631209,-8.794911692014958,-1.4400195386703025
0,5.541050797160997,-3.255956368890828,0.7737690599905608,3.1158626999395804,-1.4350194708276973
0,-6.3984777297709075,-7.425147921398021,-7.335542303665287,-4.473362890606599,-1.4300194029850921
0,-11.758006325434371,-8.074339684417765,-13.034854510872714,-10.202588474167996,-1.425019335142487
0,-0.8075349931568807,-8.213531655298816,-5.294167564580709,-3.1718140608508145,-1.4200192672998817
0,-9.707063735635622,-10.762723830628952,-8.133481466910231,-5.111039660189712,-1.4150191994572765
0,-11.836592554904563,-11.301916206123483,-12.192796219153964,-12.1802652811295,-1.4100191316146713
0,-10.066121452201989,-3.391108776559177,-6.412111821763609,-4.169490931966876,-1.405019063772066
0,-0.8156504278429034,-5.250301535873335,-3.3314282743385832,-5.748716620273226,-1.4000189959294609
0,-12.505179481331028,-10.569494477346643,-11.130745575748906,-10.8479423529339,-1.3950189280868557
0,-9.404708611461375,-13.088687593579102,-11.730063724169526,-9.307168136127663,-1.3900188602442505
0,4.215762183712513,-2.457880876303009,-1.759382716953137,0.013606024754790252,-1.3850187924016453
0,-4.953767093282564,-6.417074316383715,-10.29870255062633,-8.345619874987438,-1.38001872455904
0,-3.3532964396275178,-7.066267904014982,-11.64802322097674,-10.634845839495172,-1.3750186567164349
0,2.7971741476970156,-0.7854616288392672,2.582655276966711,-1.0740718722826186,-1.3700185888738297
0,-2.2823553281266142,-0.11465548005015425,-3.7366670511780993,2.3767020237395404,-1.3650185210312245
0,-9.581884863792158,-7.513849446552523,-4.195990199424979,-7.602524154002163,-1.3600184531886192
0,3.5785855442536216,1.5169564829885096,-1.625314161530898,-2.9917504078734836,-1.355018385346014
0,0.4590558998625406,-1.4922376798377928,3.8053610689921555,1.6090232600490122,-1.3500183175034088
0,-13.630473792925017,-9.241431923221567,-10.433964501212893,-8.24020315202029,-1.3450182496608036
0,-0.23000352978122904,3.169373764916347,-5.0032908652922705,-4.729429645577015,-1.3400181818181984
0,1.740466694081963,1.4601793969338446,2.2773819840140415,-3.3986562217010166,-1.3350181139755932
0,-7.879063116204487,-6.1890150146912095,-5.53194594564205,-10.207882880963568,-1.330018046132988
0,-2.23859295527888,1.8017905425852683,-0.4012746463691277,-4.887109623368116,-1.3250179782903828
0,7.061877182478581,0.3425960814319964,4.519395889883333,1.893663551673707,-1.3200179104477776
0,-0.5776526972176141,-0.6865983854101878,2.3700656711770347,-2.9355633548300175,-1.3150178426051724
0,-8.067182588745219,-7.4257928451571225,-5.569265294571641,-10.204790341625694,-1.3100177747625672
0,0.0832875135765464,4.785012715132576,-0.908596999499642,0.6059825928759859,-1.305017706919962
0,-0.8862423843020859,6.405818308530753,2.2620705643827357,-3.393244549296983,-1.3000176390773568
0,0.17422772378627893,-1.653376052026527,-2.177262594821975,-3.5524717657682365,-1.2950175712347516
0,-0.2753021559139491,1.9474296461200042,2.1834035310013986,-0.05169905390315903,-1.2900175033921464
0,-0.5248320171337962,2.2682354154437667,1.544068949935792,2.2990735891288407,-1.2850174355495412
0,-4.034361853555746,-4.960958731677011,-6.915266329972063,-4.590153833760616,-1.280017367706936
0,-1.8238916587280758,-2.5201527828478225,-5.17460230057147,-2.959381319591315,-1.2750172998643308
0,-1.5534214259833745,2.550653274485396,-0.7939389533796495,-1.298608865190956,-1.2700172320217256
0,5.207048851519947,0.061459453013650744,1.756723720443048,5.292163532817889,-1.2650171641791204
0,-2.312480819363558,-4.147734234550031,-7.402614270064405,-8.18706412211868,-1.2600170963365152
0,-0.3220104318622756,3.703072224536614,1.2980470842960747,-3.786291826476046,-1.25501702849391
0,2.818460020753383,-2.256121156925601,2.7087077929069037,3.0244804235225233,-1.2500169606513047
0,-0.021069454819585387,-1.6153143661062799,-2.0106321347808382,-2.4547473680997487,-1.2450168928086995
0,-3.990598851939959,0.38549260987968537,1.7500273106363644,1.8660248027605673,-1.2400168249660943
0,10.369871836001387,5.636299783965069,7.3506861384743525,8.636796940147807,-1.2350167571234891
0,6.270342615452036,5.537107168950896,8.981344357784073,4.977569047838864,-1.230016689280884
0,-3.1391865075554177,-0.6120852226986723,-0.7679980228968097,-6.811658870814921,-1.2250166214382787
0,5.601284472596625,7.328722621108966,8.79265900441724,8.259113187249735,-1.2200165535956735
0,0.6317555612844105,-3.190469287839159,-1.9866845527263852,-3.150114775010805,-1.2150164857530683
0,1.222226763694734,-0.38966093796254553,1.2739713129040044,-4.2193427547039155,-1.210016417910463
0,3.182698084825308,3.68114768224772,0.28462660836994025,-1.9285707488669444,-1.205016350067858
0,9.573169529443808,6.321956584220445,6.865281340632501,4.952201245660051,-1.2000162822252527
0,4.593641101906639,10.242765779062157,4.125935516431528,3.3129732320885013,-1.1950162143826475
0,-0.9858871939699134,2.3735752772972343,1.9965891421284492,2.0937452134283867,-1.1900161465400423
0,2.2245846452204123,3.3743850888213416,6.607242223676308,5.30451719237631,-1.185016078697437
0,-1.7149433772940272,-6.064804776889601,-5.482105233314666,-7.824710828639703,-1.1800160108548319
0,-6.704471258287416,-3.243994310435891,-5.801453223380306,-5.333938847233721,-1.1750159430122267
0,3.11600100562468,3.5768164977643,-1.5208017408788694,0.42683313925132227,-1.1700158751696215
0,3.0664734180055353,-0.012372342548265303,2.6998492201571302,4.357605133788868,-1.1650158073270163
0,-13.053054017517145,-9.001560821592888,-12.169500334066091,-7.421622860546715,-1.160015739484411
0,-2.752581297127767,-1.2807489294284427,-0.7388503970679465,-2.620850840621653,-1.1550156716418059
0,2.377891583424542,1.5300633442154516,1.1817990380312762,0.9299211969186492,-1.1500156037992006
0,-3.15163537124816,-0.9191239901568432,-7.267552021566598,-3.2793067443239554,-1.1450155359565954
0,5.29883784357047,6.37168907797322,5.133096431534903,2.37146533939259,-1.1400154681139902
0,8.279311232491228,4.012502558948262,3.883744404825106,5.64223745183162,-1.135015400271385
0,1.0697847997853858,0.10331646279296941,2.584391905664873,4.183009596580988,-1.1300153324287798
0,-6.47974145067461,-6.05586920072917,-3.844961058846991,-3.6462182230949876,-1.1250152645861746
0,-0.20926751513023112,-1.495054421839123,-1.564314481728174,3.234553995832506,-1.1200151967435694
0,-4.718793389628653,-1.4642391905179866,-0.6536683559012159,4.025326256286063,-1.1150151289009642
0,-5.998319069907157,-6.523423496469975,-1.2130226741300576,-0.13390143896399376,-1.110015061058359
0,1.8321554486494347,0.8373926708813595,3.3076225709166915,8.36687091260161,-1.1050149932157538
0,2.8626301709289086,-2.701790677608756,0.14826738655761884,1.8576433131742294,-1.1000149253731486
0,-4.516894898114792,-9.650973530823219,-9.531088219920438,-9.291584235370525,-1.0950148575305434
0,-3.586419753508898,-2.05015587727937,-1.1804442410705969,-2.3308117311871324,-1.0900147896879382
0,1.8640556098796837,-2.209337705017872,1.3201993308992797,-1.3300391721221103,-1.085014721845333
0,-6.455468802598473,-7.618519001652939,-7.5491574959306025,-4.7792665556603495,-1.0800146540027278
0,-12.894992985310308,-5.637699754389745,-12.018514713184178,-6.598493878968373,-1.0750145861601226
0,4.4954830678756945,4.393120050022118,3.7721276880347174,2.86227886115196,-1.0700145183175174
0,-2.1540406363876667,-1.7060595748590688,-2.4572302828396273,-2.7869483317886807,-1.0650144504749122
0,3.676435908770967,-0.24523861540856745,-2.466588616097182,-4.036175454101678,-1.060014382632307
0,6.356912710142708,5.035582941963377,0.8640526980980088,4.174597498046456,-1.0550143147897018
0,5.93738977421848,6.776405110706335,9.644693669628834,7.285370528541122,-1.0500142469470966
0,-6.042132892927166,-2.332772096048498,-4.464665691785722,-7.78385635889947,-1.0450141791044913
0,-2.491655285451748,-1.241948665474378,-0.8240253766712589,2.796916839272267,-1.0400141112618861
0,5.20882260255417,5.248875415143384,6.956614624347,5.257690126585157,-1.035014043419281
0,-1.9806992229132767,2.12970015843957,0.8872543205491514,-1.4415364935081203,-1.0300139755766757
0,-4.640220755874106,-1.3994744231415983,-2.282106278999006,-3.090763017713738,-1.0250139077340705
0,3.170258009706153,-0.5586483173163245,1.7885328346160843,0.01001055724484018,-1.0200138398914653
0,-2.3492629200151,-6.227821511782434,-2.9308283296983753,-2.709215765223416,-1.0150137720488601
0,-20.078783538691685,-14.4369939939563,-16.67018976287751,-14.558441981471503,-1.010013704206255
0,-1.9683038394394115,-6.986165750610676,-8.619551455320547,-5.497668087346643,-1.0050136363636497
0,-0.24782381455354308,-4.545336767638176,-3.2089133965276693,1.6931059220251603,-1.0000135685210445
0,-8.407343455696894,-8.644507030123258,-9.048275575127557,-6.8361199479099595,-0.9950135006784393
0,-9.246862754091945,-5.993676522479422,-8.767637979046325,-8.425345691327422,-0.9900134328358341
0,-3.87638170038742,0.2171547714935036,-1.8570005955242803,-4.634571301927107,-0.9850133649932289
0,-3.965900284569305,-5.172013131520923,-3.686363411173453,-6.773796772791091,-0.9800132971506237
0,-3.3954184960884777,-6.101180214485536,-4.4257264121533755,-5.843022096384705,-0.9750132293080185
0,-1.114936324010758,-2.6403464599784408,0.6149104157142189,-4.82224726458996,-0.9700131614654133
0,-0.86445375712534,-0.4895118501625134,-1.354452913136734,0.038527731234676954,-0.9650130936228081
0,-11.213970783984403,-4.018676366888393,-10.593816384066937,-5.5706970998763365,-0.9600130257802029
0,5.88651260717621,7.252160008166953,6.826820017841076,11.040078251331309,-0.9550129579375977
0,7.976996428366567,4.3529972932977845,10.107456307692571,5.5708537940413105,-0.9500128900949925
0,2.7374806914488876,3.86383550650487,3.398092500343373,1.7016295370232069,-0.9450128222523873
0,2.117965407839418,-4.605325334587903,1.0887286100889848,1.352405488558508,-0.940012754409782
0,12.198450588498574,6.885514787421667,8.429364650734643,11.173181656562907,-0.9350126865671768
0,6.748936243855901,2.4263558898016044,5.500000635663626,6.923958048512841,-0.9300126187245716
0,-1.230577616329756,2.4571979895824847,1.3506365777612597,-0.755265328730563,-0.9250125508819664
0,10.069909017112778,7.46804110346158,7.781272489419843,6.365511531140217,-0.9200124830393612
0,5.75039615288059,9.498885247705571,9.551908382549897,7.816288634021042,-0.915012415196756
0,4.060883799127285,5.669730437968036,-0.8074557315167499,-0.48293401463592567,-0.9100123473541508
0,0.25137196345795465,6.110576689183364,2.0731801580122005,3.007843590178958,-0.9050122795115456
0,-0.6981393468735423,7.901424015605388,6.493816061588575,7.668621453143965,-0.9000122116689404
0,6.732349875219336,5.452272430842645,2.234451989378391,2.0193995785927386,-0.8950121438263352
0,4.452839636626757,8.103121947850212,5.24508795117818,6.720177970418201,-0.89001207598373
0,9.063329943845005,15.05397257886511,14.775723956314708,17.380956631965148,-0.8850120081411248
0,4.183820802801612,0.914824335275428,5.406360013436578,-0.568264434182842,-0.8800119402985196
0,6.594312218801767,3.7556772276433943,4.006996130355026,-0.7774852262345197,-0.8750118724559144
0,9.464804196531569,9.446531265933496,12.917632314115625,9.593294257118583,-0.8700118046133092
0,4.935296740018909,2.8973864596108156,6.268268571043611,4.524074016860011,-0.865011736770704
0,-3.6742101473383024,2.438242817613479,1.728904906698531,-0.26514594646304607,-0.8600116689280988
0,1.5962835374871327,5.379100348428221,3.3695413260092333,5.485634367275334,-0.8550116010854936
0,8.486777797387893,2.8899590601763294,6.230177833490342,5.866414957873008,-0.8500115332428884
0,-8.932727364894237,-2.9891810393466103,-8.45918556664725,-7.862804175188794,-0.8450114654002832
0,-6.292231946688239,-2.3183199425095196,-3.0485488702880064,-2.7620230325666397,-0.840011397557678
0,4.288264054913956,6.472542358341695,3.832087926871292,3.0187583852426494,-0.8350113297150727
0,-2.7812393568715454,-5.966594129120078,-3.317275170660183,-3.7304599220519443,-0.8300112618724675
0,-3.1607421786904486,-3.905729397214793,-7.166638158262665,-5.959677954609183,-0.8250111940298623
0,2.44975559290886,0.3051365619054266,2.233998968890414,-2.308895712349387,-0.8200111261872571
0,2.740253961458941,4.056003756304564,5.98463621585467,2.6718868051373894,-0.8150110583446519
0,0.17075293042873474,1.8068721940574357,-2.4647264123324675,-2.17733040153851,-0.8100109905020467
0,7.421252503097624,9.227741883006862,5.495911089164089,7.633452668234688,-0.8050109226594415
0,11.351752682407055,11.718612830532953,8.826548724922027,14.014236014825988,-0.8000108548168363
0,2.992253470712003,1.939485043312617,2.5771864991116242,1.4250196380124769,-0.7950107869742311
0,3.5327548696766664,2.830358527294803,0.9978244153931755,2.845803536834628,-0.7900107191316259
0,-0.4067431195492628,3.0312332879284467,6.418462477020591,7.47658770977825,-0.7850106512890207
0,-4.926240496047256,-8.727890669579848,-8.370899313010293,-9.482627845019149,-0.7800105834464155
0,-13.13573725878835,-5.86701333996702,-13.40026095169242,-7.911843129492083,-0.7750105156038103
0,-7.315233406210458,-1.76613471758832,-1.9396224355374814,-1.0110581452292249,-0.7700104477612051
0,-1.094728935964996,-2.815254796330599,-1.8489837603442811,-3.210272893300636,-0.7650103799185999
0,-0.32422384505710244,-4.284373569725655,-5.878344921382655,-3.7194873743883163,-0.7600103120759947
0,6.326281869775276,6.406508968941707,7.3822940863718465,3.1012984110876842,-0.7550102442333895
0,-0.6832117882725063,5.687392826432202,6.362933267997049,6.852084462810075,-0.7500101763907843
0,-4.412704816178292,-6.631721990704607,-8.676427371646923,-6.127129219671158,-0.7450101085481791
0,3.4278027890397444,2.269164523891002,5.2442121721033885,4.083657363015381,-0.7400100407055739
0,4.88831103038929,2.6100523765724,0.48485190389764343,2.9844442101612065,-0.7350099728629687
0,-3.2211800892348688,-5.4090584262937025,-6.084508171608382,-5.274768679024086,-0.7300099050203634
0,-9.80067056703497,-2.188167878305881,-7.643868049656607,-4.843981305344398,-0.7250098371777582
0,-2.3201603999828193,2.8927240270932177,-1.7732277251135655,1.726806330599137,-0.720009769335153
0,1.4603504154040305,-3.3763827033929843,-6.302587192339845,-2.4824057715344217,-0.7150097014925478
0,-7.299138117039792,-0.6154880629948933,-0.5319464452513079,-1.6016176119286323,-0.7100096336499426
0,0.08137400676018677,-0.9745920448554115,-2.6713054774145024,0.43917080934705516,-0.7050095658073374
0,-2.0781132088656196,-2.0136946419947197,-2.140664282134386,0.3199594923194326,-0.7000094979647322
0,-4.207599759344886,-3.582795847290732,-4.840022852485625,-2.419251562940128,-0.695009430122127
0,1.4629143601070151,0.2681043465651856,-1.9093811812664683,-1.9784623563016952,-0.6900093622795218
0,-4.026570845532769,-2.1109940529260003,0.9212607390107905,2.672327112474434,-0.6850092944369166
0,-2.776055371110662,-0.8000910381174792,-5.308097083955942,-0.6268831563040741,-0.6800092265943114
0,-8.545539211216045,-8.199186601200957,-6.227454642258639,-5.276093162316775,-0.6750091587517062
0,6.004977639923602,5.261719265879121,-2.5468119276398276,4.424697094827974,-0.670009090909101
0,-2.214504811647671,-7.097373428575163,-5.916168931392088,-3.704512384371385,-0.6650090230664958
0,1.3260134401658539,-5.746464676041544,-2.785525644370308,-7.663721599308989,-0.6600089552238906
0,-0.26346759858440677,-9.94555446761629,-6.214882057007818,1.3570694508590457,-0.6550088873812854
0,3.4770520781075382,-0.45464279379968,1.6257618406652505,3.057860767268157,-0.6500088195386802
0,-4.122427523821376,-7.753729644487321,-5.3335939410582025,-3.031347648842629,-0.645008751696075
0,-3.5619063984408874,0.36718499090506473,2.3070506083403974,4.239444203715741,-0.6400086838534698
0,6.358615460295134,7.168101123264555,11.917695499443223,9.660236325998138,-0.6350086160108646
0,-3.350861941492501,-2.9109812365004863,2.508340742563096,0.5410287187213748,-0.6300085481682594
0,-6.210338597683932,-5.77006207759952,-1.5810136524979495,-5.428178617815712,-0.6250084803256541
0,4.320185497954776,1.2508586108206143,5.889632323669306,3.2926143165173656,-0.6200084124830489
0,3.38071035180163,-2.8582191601621254,6.630278680213992,-1.2765924780954976,-0.6150083446404437
0,-9.338764029777177,-7.8072953792397435,-7.149074574024738,-9.78579900137076,-0.6100082767978385
0,-2.998237640360367,-3.986370034781117,-1.668427430398974,-4.6350052527589405,-0.6050082089552333
0,-0.8177104732164923,2.934556885271152,0.8022201198382579,-1.0342112312229883,-0.6000081411126281
0,-3.0471825212590553,3.255485393236864,0.5028680856066239,0.3865830647125746,-0.5950080732700229
0,-1.6966537771575125,-1.6535844985962873,3.333516475847405,-5.922622363240132,-0.5900080054274177
0,10.303875766547108,8.697347221880376,8.65416529934096,6.608172486774397,-0.5850079375848125
0,12.784406117125775,5.628280566493207,7.3048145644727445,0.09896761666337076,-0.5800078697422073
0,3.624937281199859,6.489215546594286,-1.0745357209428814,-4.490236971740516,-0.5750078018996021
0,6.395469264555642,6.6801521729298114,8.386114450385476,6.620558723335774,-0.5700077340569969
0,9.636002072258886,12.151090455582484,10.726765085288125,6.751354703584608,-0.5650076662143917
0,14.426535708652725,14.652030403813145,8.07741618996097,4.202150970375035,-0.5600075983717865
0,16.247070177100632,17.80297202577192,11.85806776974089,6.192947524555756,-0.5550075305291813
0,26.407605479608858,26.263915328143298,26.86871982890534,16.063744366368475,-0.5500074626865761
0,23.298141616395167,23.684860315747024,21.339372370252292,6.634541495253672,-0.5450073948439709
0,22.03867858552797,30.9158069911558,25.720025394584123,7.725338909680172,-0.5400073270013657
0,42.139216382689135,41.636755354322695,43.22067890030767,28.236136607085584,-0.5350072591587605
0,31.829755000807502,42.82770540206005,32.2513328829583,16.756934583576005,-0.5300071913161553
0,22.360294429682845,35.82865712750128,27.771987334781546,10.98773283352289,-0.52500712347355
0,54.31083465591663,53.029610519817815,49.202642244660076,33.398531349479946,-0.5200070556309448
0,33.92137566273277,41.110565564034175,38.973297597978195,24.979330122054122,-0.5150069877883396
0,33.67191742960196,47.391522240814545,38.67395337626561,22.72012913951619,-0.5100069199457344
0,33.062459932275814,42.6724805263986,35.8746095571006,24.76092838764021,-0.5050068521031292
0,31.503003143122168,41.78344039267689,38.525266114292435,23.121727849814732,-0.500006784260524
0,37.01354703128229,38.63440180732421,32.60592301802376,23.862527507110254,-0.4950067164179188
0,27.634091562666733,42.425364733962276,33.80658023496142,23.753327338285793,-0.4900066485753136
0,22.574636700055187,31.55632913229878,25.87723772844334,17.87412731982734,-0.4850065807327084
0,18.275182403463884,22.117294958393664,16.447895458813903,10.984927426129294,-0.4800065128901032
0,27.105728630575967,22.75826216520838,21.858553383916945,15.945727629845145,-0.475006445047498
0,22.07627533689467,22.079230703180972,22.23921145949181,13.15652790217824,-0.4700063772048928
0,13.676822475729507,11.750200520578582,13.909869639294712,8.557328213000938,-0.4650063093622876
0,9.497369998421538,6.16117156384879,3.300527875278304,0.5381285310381976,-0.4600062415196824
0,-8.092082145072375,6.412143778145333,6.291186118094139,4.0289288242472185,-0.4550061736770772
0,-6.1415340053755845,-11.83688289210821,-3.1981556823348694,-6.800270939779676,-0.450006105834472
0,-7.97098563293195,0.10409149734355161,-0.33749757640096956,-1.6794707934867892,-0.4450060379918668
0,-2.3904370776133907,-4.19493310898223,-2.9768396145261846,0.6213292308658309,-0.44000597014926157
0,6.700111611215821,-9.67395676616191,-7.546181846962447,-5.66787089876001,-0.43500590230665637
0,-4.599339615625202,-4.522979528785915,-2.0955243236285703,2.7929287857777823,-0.43000583446405116
0,-15.278790807250072,-12.66200145080248,-10.32486709397938,-7.52627174719831,-0.42500576662144596
0,-17.42824201227482,-13.591022585342422,-11.174210206871743,-8.245472529100402,-0.42000569877884075
0,-16.8076932781596,-18.790042984460047,-16.543553710315464,-8.494673590846567,-0.41500563093623555
0,-21.607144650786992,-23.379062698776572,-25.43289765109068,-17.39387496257461,-0.41000556309363034
0,-22.366596174245643,-19.05808177713425,-22.38224207428213,-18.23307667333096,-0.40500549525102514
0,-16.606047890673853,-12.147100266442637,-9.821587022969869,-3.7322787508027444,-0.40000542740841993
0,-27.405499840193187,-27.056118211770606,-22.230932538321984,-18.04148122133511,-0.39500535956581473
0,-23.184952060833794,-14.525135656389843,-14.54027865981799,-6.58068411010751,-0.3900052917232095
0,-10.874404588453421,-16.144152641719835,-15.969625425298272,-10.729887441212826,-0.3850052238806043
0,-18.783857456914877,-22.633169207385436,-22.5289728709452,-9.959091237719717,-0.3800051560379991
0,-25.313310698341304,-22.052185391218597,-23.958321031173405,-13.568295521709523,-0.3750050881953939
0,-24.37276434299887,-19.201201229088223,-18.11766993840413,-3.7275003142453373,-0.3700050203527887
0,-14.772218419021259,-20.48021675481631,-15.167019623003313,-10.176705635434192,-0.3650049525101835
0,-23.441672952419545,-21.37923200021984,-18.836370113471066,-11.245911504539396,-0.3600048846675783
0,-21.96112796721255,-12.278246995170292,-9.715721436647963,-2.785117939988472,-0.3550048168249731
0,-15.730583485423667,-9.977261767782801,-5.675073617936302,-3.1643249594404854,-0.3500047489823679
0,-5.140039527199702,-20.356276344711805,-17.50442668158709,-14.473532579951794,-0.3450046811397627
0,0.4805038886873433,-12.85529075124438,-13.273780650785964,-6.262740817936248,-0.3400046132971575
0,-3.108953255822906,-6.56430501125265,-8.85313554750458,-1.171949689025328,-0.33500454545455227
0,6.6815890214476745,-5.49331914739004,-4.872491392523949,-0.5711592082180681,-0.33000447761194707
0,-14.537869297263867,-9.452333181441599,-10.441848205689102,-1.4703693902071537,-0.32500440976934186
0,-5.137328229506415,-11.771347134451837,-7.76120600606958,0.14041975043718674,-0.32000434192673666
0,-8.736787792263423,-12.900361026580619,-5.640564811957423,0.7312081992116245,-0.31500427408413145
0,-10.406248001740941,-15.869374876884153,-9.519924640881888,-6.628004058330407,-0.3100042062415227
0,-1.5957088733494134,-7.738388703169122,-6.859285509640162,0.8127829634996862,-0.3050041383989175
0,-2.625170421820338,-18.287402521977135,-11.138647434261994,-3.5964307493838072,-0.3000040705563123
0,-13.334632661374942,-14.176416348570296,-17.59801042988206,-9.68564521079294,-0.2950040027137071
0,-19.854095605590828,-15.40543019681877,-17.217374510470037,-10.224860434089624,-0.2900039348711019
0,-5.223559266969649,-9.914444079146973,-14.776739688530276,-7.31407643190581,-0.28500386702849667
0,-20.743023656693477,-17.58345800661134,-20.326105974958182,-17.58329321595702,-0.28000379918589147
0,-9.542488784625787,-18.482471988904134,-18.785473378973936,-16.262510796856485,-0.27500373134328626
0,-12.72195465931431,-10.431486034226475,-2.7648419081158764,-2.92172918392094,-0.27000366350068106
0,-13.80142128802754,-19.930500149240146,-14.104211568498135,-16.190948385230524,-0.26500359565807585
0,-17.36088867676898,-18.409514339071787,-21.463582365078498,-19.200168407744513,-0.26000352781547065
0,-14.780356830156615,-9.068528607249458,-15.802954301499172,-10.8493892571271,-0.25500345997286544
0,-3.77982575137868,-12.257542955784627,-4.962327379842446,-5.7586109376293555,-0.25000339213026024
0,-2.9592954424660984,-4.276557385463268,-6.781701600843317,-2.877833452382633,-0.24500332428765503
0,-18.698765904660263,-7.245571896142466,-11.071076964306746,-7.997056803807678,-0.24000325644504983
0,1.0917628615361492,-2.784586486976151,-4.270453469278058,4.963719006150503,-0.23500318860244462
0,-9.177709143571848,-5.613601156572592,-3.619831114076169,0.18449397582214974,-0.23000312075983942
0,-21.0171819188946,-7.622615903052677,-12.119209896391531,-14.134731896349866,-0.22500305291723421
0,-9.806655462348406,-5.631630724000831,-3.678589813293249,-4.603958611629507,-0.220002985074629
0,-1.146129770618935,-2.2506456164178403,-4.797970861174932,-4.66318617065844,-0.2150029172320238
0,-7.375604839393413,-7.3196605767801515,-14.307353035774462,-12.512414573377521,-0.2100028493894186
0,8.30491933617871,1.0513243988735719,2.3432636678426757,1.5783561809361555,-0.2050027815468134
0,16.345442761003397,2.952309314817368,4.3338792551898315,4.2291260935399215,-0.2000027137042082
0,-8.784034560474838,-0.6567058245886415,-1.5355062680241356,-4.520104834109128,-0.19500264586160299
0,-5.78351262431677,-3.4757210150365205,0.19510710381781293,-4.959336600529942,-0.19000257801899778
0,11.617008573359296,-2.5247362521722185,2.415719376249326,1.2514307959237503,-0.18500251017639258
0,-3.7024709634998834,-3.9637515314312437,0.7063305547449379,-5.747802642831455,-0.18000244233378737
0,-3.101951231068395,-5.252766847940157,-8.763059355268398,-5.057036914605839,-0.17500237449118217
0,1.1485677744358174,-0.13178219646873832,-0.872450348230725,3.8637279830998246,-0.17000230664857696
0,-2.6109139430845243,-5.690797571445162,-1.2518424182649577,-3.0955079469736275,-0.16500223880597176
0,-7.730396379559973,-8.079812966953506,-8.761235559169538,-8.264744701942405,-0.16000217096336655
0,-4.629879530618328,0.21117162336104844,0.3893702355888018,2.1760177213148326,-0.15500210312076135
0,7.20063660852037,-1.4878437937082254,1.889974972877814,0.1567793262194523,-0.15000203527815614
0,-14.468847957077799,-3.9268592110841234,-6.149421340236479,-2.52245988365525,-0.14500196743555094
0,-1.1883332220901484,-5.815874621460399,-7.888818696515236,-6.991699904640111,-0.14000189959294573
0,-2.077819180771533,4.0551099827649155,4.731782911619786,1.3490592671708845,-0.13500183175034053
0,-13.447305826892151,0.676094609407867,-5.647616507907864,-2.9801823640149006,-0.13000176390773532
0,-4.246793153675893,-1.512920733705372,-2.527016946964496,-2.119424793768407,-0.12500169606513012
0,-1.7162811536838813,1.068063961193927,1.1835816027765547,0.1213319825089923,-0.12000162822252491
0,-0.9157698189344253,-4.1209512981126935,-3.8158208501623516,-0.6079120304415689,-0.11500156037991971
0,-3.425259141154921,0.8200334962456999,-5.235224297081652,-3.1071568277799675,-0.1100014925373145
0,3.765250888088935,0.6610183522495419,1.025371270965978,3.003597595423517,-0.1050014246947093
0,13.095760277217916,3.2820032779073287,-1.444034136811906,4.604351244124813,-0.1000013568521041
0,-6.573730965674645,-3.5070117188502112,-6.3534405110205885,-4.10489587683729,-0.09500128900949889
0,-4.873222832854932,-3.126026630128917,-4.182847842024954,-2.5241437627314482,-0.09000122116689369
0,-3.022715316553768,-2.1950414479007114,0.11774388017121906,2.09660759124219,-0.08500115332428848
0,-1.1822084086626181,-6.86405616386313,-5.7316653340865855,-0.06264181000319147,-0.08000108548168328
0,4.928297899194728,-2.883070769350785,-1.3510754741692421,-2.2018919615297445,-0.07500101763907807
0,-8.421196384527722,2.9879147446764316,7.72951347077038,3.948857141596912,-0.07000094979647287
0,-5.160691251272143,-0.5010996125249452,-1.1098984884140903,-1.800394495705182,-0.06500088195386766
0,0.5598133078360206,-5.1401138316521795,-6.799311341014764,-6.439646868525053,-0.06000081411126246
0,4.400317301994708,4.4508720966589195,3.111274923683028,2.4811000281730573,-0.05500074626865725
0,-9.539179259490744,-3.958141818130561,-2.8781396834357165,0.3818461996170972,-0.05000067842605205
0,-0.9886763672197755,-3.857155566473333,-4.697555151328957,-0.04740834889683704,-0.04500061058344684
0,8.861825988416363,0.8238308613339942,0.6930285312268321,1.8433363878821845,-0.04000054274084164
0,4.842327817022809,3.7148174751621097,6.323611375622049,4.694080415108882,-0.03500047489823643
0,5.7528291278100205,-0.04419571512034148,0.45419339319699215,-3.5651762622231966,-0.03000040705563123
0,-3.506670070516957,7.2067913001801855,5.094774595031039,-2.0144336392372177,-0.025000339213026024
0,2.893830230432828,5.337778530455325,4.26535499187828,5.746308288962157,-0.02000027137042082
0,13.904330038853594,5.678765984647573,7.525934594107637,6.397049527223377,-0.015000203527815614
0,-8.565170637402064,0.5897536711871683,-5.533486588344035,-5.482209919866782,-0.01000013568521041
0,5.5553282091359675,-4.089258401866598,-2.2929085458014278,-2.6214700479335264,-0.005000067842605205
0,-4.7641734142116565,-2.5882702265310717,1.3076687314517619,-3.1407308525091837,0.0
0,3.056324499894002,1.802718205328647,-0.3417547467248862,-0.6799923288555517,0.005000067842605205
0,1.2668219588006644,-0.1362930980048346,-1.9311789704105315,-1.0892544719993176,0.01000013568521041
0,12.137318969721917,7.344695871731378,7.14939607031393,5.111482723145881,0.015000203527815614
0,5.107815539452851,-1.9243148773897254,-1.7800296147243757,-2.737780738366202,0.02000027137042082
0,-9.081688325773145,-0.9233253375190423,-5.349456015835093,-1.0770448515647448,0.025000339213026024
0,-5.831192619955992,3.027664499089259,6.671116876665102,4.413690388502987,0.03000040705563123
0,9.57930266312149,5.808654640107674,9.511689072434129,6.024424986720185,0.03500047489823643
0,-8.340202470102902,1.5696450929813142,-1.3777394191960202,-1.7048410522845419,0.04000054274084164
0,6.290291986820688,5.110635864805477,4.672831410634333,8.285892275787461,0.04500061058344684
0,10.380786040232866,4.951626962303572,8.26340157039935,8.496624974869924,0.05000067842605205
0,-1.1587203038568359,-3.847381608158071,-5.886028931787855,-1.182642951600747,0.05500074626865725
0,6.181772960070479,-3.646389840412375,-4.58546008804981,-2.4519115006462036,0.06000081411126246
0,4.242265837108392,0.8546022717801833,1.2051081095806782,1.7688193305464694,0.06500088195386766
0,1.1927583319791046,-5.274405265132602,-3.704324330676134,-7.050450455143179,0.07000094979647287
0,-6.67674955088213,-1.0034124444875716,-1.8837574003937043,-4.509720854634048,0.07500101763907807
0,14.853742192847712,-3.3924192593825615,-2.5831910909510447,-0.5389918645027312,0.08000108548168328
0,-2.1057664326681538,5.078574297296609,3.1173746064690993,3.7917365189898655,0.08500115332428848
0,-12.275275423527896,-4.690431767250996,-5.4620602991962945,-6.347535700298189,0.09000122116689369
0,5.765215224189908,8.240562554141343,5.708504201048939,8.053191481498523,0.09500128900949889
0,-2.794294485307132,7.321557268463073,5.089068116169756,8.88391806813824,0.1000013568521041
0,-4.823804547613039,-5.697447617657511,-4.220368545061217,-6.9353559369576185,0.1050014246947093
0,5.02668504180143,-0.8764520978874933,-0.009805774060194283,-1.8246305306698165,0.1100014925373145
0,-3.6728257124254076,-1.1754561658861187,1.5507564377425007,5.456094290120301,0.11500156037991971
0,-5.692336805580145,-1.354459815149055,-1.5386819010389168,-1.8731814714087291,0.12000162822252491
0,0.5481517672269943,0.036536960959090425,-1.968120781772579,0.2575421878529593,0.12500169606513012
0,9.45864001108152,6.2075341691188415,8.422439804189489,8.018265270907001,0.13000176390773532
0,20.849127930852738,-2.4514681840866843,5.1929998653581215,5.598987780528654,0.13500183175034053
0,6.569615530537933,-3.010470092215736,-6.706440590091957,-5.3802902808985476,0.14000189959294573
0,-11.339897186951715,-1.0294715488090411,1.404118445786124,1.3004310887311308,0.14500196743555094
0,18.360589780654028,3.7415274527269853,3.1546769809529414,8.24115189145274,0.15000203527815614
0,-13.958923564609504,-2.6274730809633633,-5.984764976590818,-5.958127870813546,0.15500210312076135
0,-0.7684372207968194,-0.8664731432596763,-6.644207418766983,-6.647408196262063,0.16000217096336655
0,-3.3979511857912663,4.684527272462037,5.636349662763382,6.963310917041451,0.16500223880597176
0,12.272534542788168,7.945528172736125,9.136906276515706,4.744029471170545,0.17000230664857696
0,-2.5469800327332006,10.276529563706982,10.477462430711352,9.31474746797033,0.17500237449118217
0,22.413505089534773,19.97753145074807,19.338018132768156,20.405464908632233,0.18000244233378737
0,3.0139899107328865,8.988533838093964,8.648573388940932,7.816181793305431,0.18500251017639258
0,4.744474431068201,5.4495367286990914,5.149128204225413,6.236898120909352,0.19000257801899778
0,-1.0650413500016338,8.27054012445742,2.7796825826243325,4.377613889345787,0.19500264586160299
0,1.6954425666134385,-3.18845597345895,0.20023652755490368,2.2483290958539537,0.2000027137042082
0,-15.254073820039903,-12.457451564213748,-10.749209957784382,-4.890956262711325,0.2050027815468134
0,5.616409489357244,-9.156446646729695,-9.888656869979624,-7.160242189559288,0.2100028493894186
0,3.67689249448741,6.144558780738543,5.391895794961925,6.070471312335579,0.2150029172320238
0,0.2473751950976505,-7.874435279508538,-6.557551958436479,-2.298815759768127,0.220002985074629
0,-2.3021424092348974,-6.623428824863717,-5.357000125350062,-3.648103408551233,0.22500305291723421
0,-8.891660318955857,-5.142421852333497,-2.556448700639513,1.2426083633664318,0.23000312075983942
0,-2.8911785342209395,-6.821414358361283,-5.855897678745002,-4.626680446484681,0.23500318860244462
0,-8.900697054681899,-6.820406338785654,-8.51534705364873,-6.465969840364759,0.24000325644504983
0,-10.210215879375404,-9.64939778880581,-6.3747968187776785,-9.56525982015716,0.24500332428765503
0,-3.5497350066184,-7.518388702893547,-2.7242469669181966,-4.014550387146736,0.25000339213026024
0,-0.7892544340289055,-8.737379074724123,-10.173697490252149,-11.393841541916087,0.25500345997286544
0,-13.278774158692823,-9.406368897152147,-8.233148380356768,-8.693133284298623,0.26000352781547065
0,-2.55829417717915,-3.835358162218095,-1.8325996281211399,0.47757438665338736,0.26500359565807585
0,-3.7978144854460596,-4.284346861241467,-7.362051223779805,-6.51171852746472,0.27000366350068106
0,-17.367335078831427,-7.083334984971465,-7.521503157012657,-6.1110120245985255,0.27500373134328626
0,-3.176855951949534,0.17767747632119846,2.029044583034541,4.099693897709476,0.28000379918589147
0,8.883622901351604,-2.3013094672381333,-0.8704079923623802,3.360399242175617,0.28500386702849667
0,-9.285898512373988,-7.750295805228898,-4.449860871725916,-0.1688959885261708,0.2900039348711019
0,1.7645798135016229,-2.0292815269068134,0.07068595655784027,-1.1781917918957323,0.2950040027137071
0,0.3750578857035294,5.3617333788281,7.161232504228858,10.852511834428755,0.3000040705563123
0,2.8155357110380606,-3.077251076759897,-4.148221217011109,-1.5767851074186734,0.3050041383989175
0,-4.163986703731846,4.833765117539984,3.2223248043848747,2.803917384350712,0.3100042062415227
0,8.736490648082338,4.614781972786797,8.15287057981244,6.314619311219086,0.3150042740841279
0,-6.783032226921229,0.3257994997912481,-3.336583879571158,2.685320674368717,0.3200043419267331
0,-8.162555322164383,4.066817709063425,1.3739614371129,1.8060214746159975,0.3250044097693383
0,3.497921369169187,6.487836610821309,5.424506540580884,3.1867217124450273,0.3300044776119435
0,0.28839785421863473,5.1188562149091785,5.1050514413672,3.837421388069045,0.3350045454545487
0,5.988874140192207,-7.15012346924792,-7.144403850285855,-10.591879498504216,0.3400046132971539
0,9.679350234047224,5.770897567544479,9.006140675656143,7.478819052716467,0.34500468113975913
0,2.5698261422426327,17.761919334328965,17.04668502900844,16.69951704171261,0.35000474898236433
0,-0.7896981293215946,10.862941839581838,5.887229218948963,4.600214467992436,0.35500481682496954
0,0.22077742490638091,6.313965090730521,7.517773253668002,1.810911330213418,0.36000488466757474
0,17.381252810274336,9.874989094123984,9.538317140429951,1.6116076263588657,0.36500495251017995
0,18.341728031590932,12.986013855188501,13.708860885661338,0.2323033540917033,0.37000502035278515
0,-3.1977969073979757,7.34703937840857,2.829404494870559,-4.237001489036085,0.37500508819539036
0,27.372677995870017,21.968065667202808,21.369947972588086,12.683693094494622,0.38000515603799556
0,11.713152742783771,27.46909272364293,21.690491322196557,13.424387101951952,0.38500522388060077
0,9.223627333357271,23.07012054793086,16.601034545516477,6.825080529873768,0.39000529172320597
0,32.68410176610551,32.67114913792461,27.07157764246945,19.41577337373994,0.3950053595658112
0,30.344576037774456,36.642178488818026,31.75212061085966,20.93646562777687,0.4000054274084164
0,44.36505014261087,31.033208592801813,27.09266344602748,16.227157284645102,0.4050054952510216
0,38.17552407158819,34.394239438825934,27.943206140563905,16.38784833523095,0.4100055630936268
0,34.23599781198335,35.365271012563746,33.03374868425027,18.448538768688636,0.415005630936232
0,36.69647134735645,35.44630329637548,31.964291063994988,16.929228572498737,0.4200056987788372
0,27.59694465775555,40.42733626919432,31.50483326368443,19.139917732441354,0.4250057666214424
0,33.907417719943716,48.368369906308544,45.775375264016624,30.240606232478793,0.4300058344640476
0,23.087890507607533,33.87940417906762,30.0759170422613,19.00129405449759,0.4350059023066528
0,32.31836299154052,33.38043905482505,24.266458572174805,13.331981178166771,0.440005970149258
0,34.93883513969929,36.4314744972384,27.036999824351845,22.682667581145214,0.4450060379918632
0,20.469306917115784,27.622510466570784,29.12754076665456,21.463353239275083,0.45000610583446843
0,8.959778286065202,18.71354691994923,16.538081364372843,9.434038126549439,0.45500617367707363
0,15.730249206713381,19.704583811825053,14.788621580434265,11.504722215244147,0.46000624151967884
0,9.45071963774702,12.885621094513596,14.809161375837677,14.55540547626079,0.46500630936228404
0,4.661189536676943,9.54665871861489,8.049700710052182,10.446087879302246,0.47000637720488925
0,-8.478341139830603,-3.662303366546508,-6.639760458610703,-1.6032306070424518,0.47500644504749445
0,-0.4378724353966521,0.17873478766046835,1.6007778275679565,4.987449985018186,0.48000651289009966
0,-5.027404393462333,-4.100226870290635,-6.068684473738675,2.888129622852321,0.48500658073270486
0,-17.59693705704486,-14.879188391710287,-17.088147404551314,-9.891191726388929,0.49000664857531007
0,-5.3564704684548,-17.518149827272815,-10.217611006189486,-5.14051409549914,0.49500671641791527
0,-16.88600466900122,-14.43711122649567,-12.077075318887623,-6.7298375168453735,0.5000067842605205
0,-31.865539698733393,-24.70607263736715,-22.476540381623415,-13.659162022136663,0.5050068521031257
0,-24.30507559592196,-18.895034106114224,-17.666006231925408,-13.068487642238386,0.5100069199457309
0,-22.214612396502694,-20.423995677018628,-13.96547290562927,-14.2978144069166,0.5150069877883361
0,-16.35415013400446,-28.772957392309973,-24.05494043681868,-20.3171423446145,0.5200070556309413
0,-24.503688839811257,-27.961919291990277,-25.454408857758697,-17.93647148224767,0.5250071234735465
0,-20.163228543300725,-22.26088141358129,-17.283878198663018,-5.665801845090347,0.5300071913161517
0,-19.4227692718135,-24.259843792069017,-21.70334848759188,-12.64513345696505,0.5350072591587569
0,-14.042311050698132,-28.218806460007475,-28.72281975050447,-19.89446634049757,0.5400073270013621
0,-16.131853903513946,-19.30776944754714,-14.222292011205127,-8.443800517068825,0.5450073948439673
0,-12.41139785224267,-20.02673278249,-14.821765291378872,-10.183136006722924,0.5500074626865725
0,-10.330942917451798,-19.51569649049054,-17.14123961089385,-15.992472828288754,0.5550075305291777
0,-12.420489118449737,-24.54466059520543,-22.080714988003997,-16.601810999405902,0.5600075983717829
0,3.9499635265115063,-13.533625118293095,-5.420191439319227,-0.09115053642575932,0.5650076662143881
0,-19.889585000014627,-16.412590079488492,-13.749668979918576,-8.440491454587953,0.5700077340569933
0,-3.3791347147483495,-8.671555496863233,-7.669147623660611,0.40016623157603537,0.5750078018995985
0,-13.42868563354021,-8.980521387144929,-2.238627383433846,0.80082250793133,0.5800078697422038
0,-11.988237771256898,-10.109487765981475,-7.128108271381608,-2.168522639471415,0.585007937584809
0,-8.477791141727378,-6.098454648099063,-14.337590299033454,-7.057869224473366,0.5900080054274142
0,-12.46734575771317,-14.657422047344605,-11.437073477139224,-8.637217260634207,0.5950080732700194
0,-23.696901630844202,-18.53638997657208,-10.336557815395967,-6.896566760955326,0.6000081411126246
0,-28.716458771263767,-19.385358447320503,-15.496043322344418,-9.995917737708826,0.6050082089552298
0,-14.366017187107726,-15.994327469488208,-10.455530005341146,-10.045270202357068,0.610008276797835
0,-2.8255768844423725,-9.253297051278986,-11.275017870531908,-8.394624165480783,0.6150083446404402
0,-6.68513786785678,-12.472267199426234,-10.684506922900198,-8.473979636752672,0.6200084124830454
0,-11.384700141079843,-11.351237919444491,-9.01399716635435,-9.21333662497051,0.6250084803256541
0,-9.104263707107098,-6.1602092157564705,-4.543488603826316,-7.362695138087931,0.6300085481682558
0,-19.003828568001154,-11.819181091788709,-14.712981237390288,-8.282055183234908,0.6350086160108646
0,-5.563394724677008,-10.398153550037918,-11.172475068243287,-13.671416766711403,0.6400086838534662
0,-3.9529621769054275,-2.267126592084152,-2.7419700965906957,-3.8607798939230986,0.645008751696075
0,-4.662530923610564,-0.976100218740688,-6.661466321736697,-4.770144569406846,0.6500088195386766
0,-7.782100963160492,-4.575074430361125,-6.58096374232093,-10.029510796997757,0.6550088873812854
0,-12.361672293357799,-6.384049226994501,-8.650462356392477,-10.06887857987374,0.660008955223887
0,7.748755088670704,1.6469753916597196,5.970037838593913,2.441752079523346,0.6650090230664958
0,-2.9908188137032474,-5.04200057375605,-0.039463154445711274,-2.5776188206508714,0.6700090909090974
0,1.829606003019546,-4.140977122329032,-6.79896533251963,-3.3769912819403833,0.6750091587517062
0,6.030029542252674,-0.7099542528576078,-1.7984686925513573,-2.3663653056965175,0.6800092265943078
0,-6.9795481927358525,-0.15893196385829061,-1.567973231197744,-2.425740893026947,0.6850092944369166
0,2.2908728012315214,-2.897910253668429,-5.267478944814157,-4.885118044766252,0.6900093622795183
0,9.78129252731398,9.84311087943341,9.363014170457973,9.055503238481789,0.695009430122127
0,-3.5282890114966823,7.5741314369968675,8.073506118441621,9.80612295608492,0.7000094979647287
0,-11.347871812423993,-4.91484857987036,-4.956003097411141,-11.403258892955527,0.7050095658073374
0,-8.907455872484249,-4.853829170410999,-5.045513473987384,-7.122642309866037,0.7100096336499391
0,4.202958811938462,0.8471896661810899,6.404974991837072,-3.042027295558538,0.7150097014925478
0,-8.416627754967893,-1.3817920690496206,-6.5645376966740425,-8.481413850341129,0.7200097693351495
0,-0.28621556867592146,-6.380774374868779,-5.234051536145754,-6.220801973923579,0.7250098371777582
0,8.824195375554023,6.4202427501334,9.746433476979059,3.7998083345402565,0.7300099050203599
0,9.884605082376623,-0.898740692522032,6.416917346293984,1.5604170762464036,0.7350099728629687
0,2.315013555927357,-10.067724701302414,-6.952599924910993,-6.288975747544171,0.7400100407055703
0,12.90542079963266,1.0232907254798684,-1.622118333606011,0.061629864470494344,0.7450101085481791
0,21.79582681609307,1.734305589827254,4.018362123292592,6.992233913716832,0.7500101763907807
0,0.2162316067890072,-1.2946801060790882,-3.191158551021251,-2.39716359839308,0.7550102442333895
0,-8.513364827877126,-1.8936663600414416,-0.5706803533369984,-3.946562670583026,0.7600103120759911
0,-1.5129624879036918,-0.12265316981675317,3.6097967195763583,1.6940366984255535,0.7650103799185999
0,-16.90256137297605,-9.381640533011636,-12.519727328987614,-6.5053654899303375,0.7700104477612015
0,-10.352161482043885,-4.910628446915897,-2.5692524955134095,-5.144769233975196,0.7750105156038103
0,1.1182371868946182,-0.949616908336577,-1.4787787760413407,-2.764174531670739,0.7800105834464119
0,-6.161365363349415,2.141394086337635,6.711693833760339,4.036418619399743,0.7850106512890207
0,-13.090969129421163,-3.317595459102314,-3.8178346617236825,-1.772989778168522,0.7900107191316224
0,5.689425892579539,-2.6065855407938563,-0.9173642582040435,4.92760027818407,0.7950107869742311
0,0.5098197070322973,1.8744238452520317,5.493105048582544,5.528188790846724,0.8000108548168328
0,-4.709787681518461,-2.8445672968405287,-4.216426737122946,-0.431224238084672,0.8050109226594415
0,3.8506037314855623,3.846441037113185,5.154040388836529,11.339361193116039,0.8100109905020432
0,7.4209939505886355,0.2674488512772446,3.0945064304996874,5.119945085718893,0.8150110583446519
0,8.701382980072395,-2.7715438502570375,-5.085028608258401,-2.849472559550968,0.8200111261872536
0,-6.108229176292733,-4.870537063386893,-1.9245647236399717,-2.248891742345624,0.8250111940298623
0,-0.7078425151048859,1.0704692161734124,8.585898088226472,4.191687537622337,0.830011261872464
0,-10.197457032917077,-4.138525007047001,-1.6636401688112692,-0.3177347193394182,0.8350113297150727
0,-7.957072725863758,-4.677519728294129,-4.9131794910707125,-2.487158512981335,0.8400113975576744
0,-2.296689589444821,0.3434850574535442,-0.18271987488538438,-1.2465838430624723,0.8450114654002832
0,-4.356307618534368,-1.7255106445155866,-1.4222613164080342,-1.1960107092313466,0.8500115332428848
0,-8.415926807509424,-0.7645068287404011,-4.591803811591812,-3.9054391109751374,0.8550116010854936
0,-3.9355471502546524,-8.923503489602878,-8.401347356141484,-5.314869047564762,0.8600116689280952
0,2.36483135985437,-5.1925006211686995,-0.8508919453477692,-3.754300517939429,0.865011736770704
0,9.885208729699285,-2.361498217007545,-2.82043757403649,-4.833733520620672,0.8700118046133056
0,-5.74441503398311,-7.81049627017251,-11.799984236629456,-7.233168053678218,0.8750118724559144
0,-0.9240399247052911,4.530505226713309,6.080468072877065,4.457395885267639,0.880011940298516
0,4.946334063967208,4.3115062812643234,5.850919360807918,1.1579582988858146,0.8850120081411248
0,-3.1432930615186665,-0.25749309896923606,-1.8486303665609536,-1.4214808101314942,0.8900120759837264
0,1.5770787052274857,4.953507093318755,8.521818896749787,4.919078560805562,0.8950121438263352
0,-1.542550629432899,3.124506865171542,5.802267156364441,0.08963641416327783,0.9000122116689369
0,7.377818940843179,3.465506223334167,-0.3672855825336219,-0.8098072477414994,0.9050122795115456
0,6.078187422219066,5.946505174198145,4.393160684812906,3.5207475772919135,0.9100123473541473
0,7.048554820425507,3.877503723753432,7.983605962826129,5.551300891342268,0.915012415196756
0,3.7589211406066525,-1.1514981224180485,-1.5859497444434019,-2.1981473037430166,0.9200124830393577
0,2.3092863873505465,0.5494996409831192,-2.365506433288908,-3.2575970063268347,0.9250125508819664
0,13.41965056476129,4.750497019124952,8.24493589984102,3.7429517852082945,0.9300126187245681
0,6.850013676355679,3.131494017025553,0.46537725837046867,3.203499072507835,0.9350126865671768
0,-5.3996242750527355,-3.407509360532833,-0.18418235452069445,-7.5259551428590585,0.9400127544097785
0,-4.6392632870816914,-0.2565131089163757,-0.46374293584870774,0.4845891406689342,0.9450128222523873
0,1.6710966427025353,4.014482776509572,1.4466955173178826,1.845131924804182,0.9500128900949889
0,0.40145551694989223,0.1754783003542415,-4.41286699207901,-1.6243267886301003,0.9550129579375977
0,1.2118133383777465,4.826473467073447,-0.002430461030686726,3.516213002174502,0.9600130257801993
0,6.1921701096093855,3.697468280880419,7.558005113554613,6.296751298913238,0.9650130936228081
0,-2.0974741669342385,4.388462745666756,0.9984397346770126,2.1272881030155295,0.9700131614654097
0,-13.49711948895716,-8.340543134986229,-11.691126594865317,-7.312176584402463,0.9750132293080185
0,0.27323414608236907,1.4504506424177943,3.439306127768599,1.0983572376944282,0.9800132971506201
0,2.2135867412119086,0.5414440815118897,2.3897379056782873,2.068889570478725,0.9850133649932289
0,-3.7760617002400325,1.7524371860284542,-1.8998312579300283,-7.600579584755846,0.9900134328358305
0,8.314288825090848,8.333429959602283,6.980598640053354,4.609949773383486,0.9950135006784393
0,-1.4253616795424617,6.1644224055414885,2.5810276025430574,2.9904776463796003,1.000013568521041
0,8.72498678886941,0.6854145266495945,-2.1885443678192384,-2.7989959643361275,1.0050136363636497
0,10.74533423293025,2.6364063252585344,0.01188273140841234,4.621528942532162,1.0100137042062514
0,10.905680654581527,8.547397803358429,5.432308902609563,9.312052368112838,1.0150137720488601
0,10.396026054839144,11.438388962510748,7.382734148027359,8.992574313133535,1.0200138398914618
0,1.136370433746219,6.299379803579455,0.813158469535124,3.093094777648526,1.0250139077340705
0,20.776713790480652,8.490370326581584,10.743581868518616,9.763613760994073,1.0300139755766722
0,8.757056123299822,4.831360530737326,6.72400434581878,2.754131261862999,1.035014043419281
0,-0.7226025705971069,11.982350414542857,6.094425901618355,0.774647278389784,1.0400141112618826
0,4.427737705146361,12.293339975706552,9.954846535378772,3.365161808312196,1.0450141791044913
0,16.37807694636623,15.594329210934678,15.415266245773525,8.245674849081249,1.050014246947093
0,7.248415148257813,15.245318115691244,11.425685030478284,0.17618639778742895,1.0550143147897018
0,11.888752305066019,22.19630668399192,16.88610288594463,2.9766964511108758,1.0600143826323034
0,28.50908840988194,38.25729490806708,30.526519807174243,21.197205005302433,1.0650144504749122
0,25.919423454234263,29.678282777758113,21.726935787303802,12.357712055858519,1.0700145183175138
0,38.37975742741154,27.439270279985607,17.337350817239688,1.8782175971150425,1.0750145861601226
0,45.81009031577559,39.520257398610184,35.33776488561107,16.0987216222787,1.0800146540027242
0,22.630422102228014,34.201244114364684,29.878177978656126,10.619224123600638,1.085014721845333
0,29.950752766171146,34.5422304046453,25.708590079884328,9.809725092304795,1.0900147896879346
0,30.351082283917403,37.69321624339946,32.33900116992366,18.09022451847473,1.0950148575305434
0,25.151410628962754,38.194201601088395,31.129411226543958,15.640722390943012,1.100014925373145
0,35.92173777199621,33.43518644461385,26.379820224606778,21.501218697066474,1.1050149932157538
0,33.282063680789165,34.22617073733124,29.01022813607378,26.041713422448055,1.1100150610583555
0,44.322388319923206,40.617154439134325,39.73063493003962,31.312206550589252,1.1150151289009642
0,17.762711650548873,20.988137506503183,20.511040572614412,12.842698062580972,1.1200151967435659
0,12.143033630661847,20.0591198927637,13.151445027011167,12.063187937219086,1.1250152645861746
0,7.413354215986379,9.530101548731025,11.481848254158892,7.363676151570526,1.1300153324287763
0,7.633673360873306,7.541082423451579,10.19225021342295,1.3641626815706038,1.135015400271385
0,1.6839910188030696,5.282062464791476,-1.8373491369325003,0.17464750247952843,1.1400154681139867
0,0.3043071426798707,2.4930416198430905,-0.11694983932981162,0.20513058924923244,1.1450155359565954
0,-1.44537831488336,-1.1459801647895937,-0.16655193643882393,0.34561191674025105,1.150015603799197
0,-26.055065401178375,-17.765002942631742,-21.48615547080742,-16.9039085401126,1.1550156716418059
0,-17.88475416271866,-17.80402676671878,-16.785760484337597,-13.493430805899168,1.1600157394844075
0,-20.624444644470877,-13.703051688907394,-14.305367017646342,-5.682954904238331,1.1650158073270163
0,-16.914136889500494,-18.582077759517485,-16.11497510976633,-11.692480857637106,1.170015875169618
0,-17.433830939007127,-18.001105027264543,-18.6045847981628,-13.502008687596412,1.1750159430122267
0,-17.013526832433378,-21.680133539172886,-17.764196118700205,-7.191538414596808,1.1800160108548283
0,-18.763224607518804,-23.77916334040063,-18.07380910554144,-10.921070058064887,1.185016078697437
0,-28.362924300224577,-23.29819447404151,-19.293423791091683,-12.410603636422895,1.1900161465400387
0,-20.152625944492378,-24.437226980966738,-15.543040205985601,-9.010139167079618,1.1950162143826475
0,-13.212329572096602,-23.3762608997485,-13.782658379142369,-9.779676666402064,1.2000162822252491
0,-17.22203521284338,-20.365296266660362,-19.72227833787785,-8.529216149769262,1.205016350067858
0,-13.931742894888703,-11.714333115818027,-8.681900107974847,-1.8287576316891596,1.2100164179104596
0,-1.6814526449658582,-8.753371479536867,-0.3715237138526284,5.711698873944648,1.2150164857530683
0,-12.34116448868306,-13.862411388768347,-10.381149178976344,-4.787846646537209,1.22001655359567
0,-15.570878450747477,-13.131452873317102,-15.610776526118253,-9.757394206740422,1.2250166214382787
0,-3.2805945548908015,-7.360495961832887,-0.8704057772241107,3.1030561799950602,1.2300166892808804
0,-8.500312823833426,-14.089540681829583,-9.510036953335506,-0.5964954993047161,1.2350167571234891
0,-12.580033279438288,-15.878587059707993,-15.62967007469177,-4.866049257415603,1.2400168249660908
0,-27.049755942611608,-14.977635120617977,-14.929305160597282,-4.645605106961413,1.2450168928086995
0,-17.36948083280904,-13.636684888292779,-7.8689422291371685,-5.01516306024887,1.2500169606513012
0,-16.709207967615086,-21.365736384984427,-19.778581297100423,-12.754723129093053,1.25501702849391
0,-5.978937362801066,-12.204789631390856,-12.238222379973948,-6.144285324634945,1.2600170963365116
0,-7.648669032748322,-10.023844646647674,-7.297865491897162,-2.3838496572352756,1.2650171641791204
0,-5.9784029908845,-12.192901448523326,-11.547510645784667,-7.823416136583426,1.270017232021722
0,-5.1281392499334775,-12.081960053622055,-14.637157853496108,-8.632984771811262,1.2750172998643308
0,-11.557877821983201,-13.68102047740685,-11.28680712579149,-9.372555571402254,1.2800173677069324
0,-13.79761871837616,-15.170082734116155,-14.546458472207524,-9.542128543033133,1.2850174355495412
0,-19.91736194941474,-25.809146836593474,-25.286111900933037,-23.191703693406602,1.2900175033921428
0,-11.667107524028182,-18.37821279598092,-15.945767418549497,-13.861281027947129,1.2950175712347516
0,-16.816855449625336,-12.277280621503092,-6.585425029862617,-6.700860550564122,1.3000176390773532
0,-16.136605732112034,-16.53635032059247,-14.045084738145725,-15.180442263782197,1.305017706919962
0,-19.756358375861144,-13.025421899146558,-12.764746545469736,-9.500026168974976,1.3100177747625636
0,-12.946113383615918,-7.824495361683101,-5.264410452791931,-0.9196122664770141,1.3150178426051724
0,-1.655870756576899,-5.05357071154512,-6.724076460052217,-2.8892005558252425,1.320017910447774
0,0.5443695051444886,1.8173520487400245,2.6962554335457165,2.871208963853443,1.3250179782903828
0,0.41460740191712164,5.048272917024282,7.6965852291368595,7.961616293499501,1.3300180461329845
0,7.484842934153516,5.469191891107772,10.226912927704083,9.82202143377099,1.3350181139755932
0,-2.7549238979177484,-6.029891031503922,-0.4327614703220042,-2.4475756152416235,1.3400181818181949
0,7.30530690566772,4.991024146477559,8.577562034869816,2.002825146029413,1.3450182496608036
0,16.19553534451369,9.471937422218042,11.487883442532144,10.163223716842872,1.3500183175034053
0,-2.3742385824013734,-0.5171512074135578,0.4782027512697119,-1.186379903855888,1.355018385346014
0,1.9759851231940488,-2.276241745952065,2.1985199590364273,3.314014282481915,1.3600184531886157
0,-2.473793540813628,0.574665802876794,-1.9411649366051107,5.004406274077531,1.3650185210312245
0,-7.523574576545046,-4.914428564598016,-6.950851938164353,-9.495203931065758,1.370018588873826
0,-4.18335798585521,-5.7935248518553735,-6.730541047926343,-7.734816334922762,1.3750186567164349
0,16.70685622972363,-0.19262306205262436,-1.4102322677156671,2.6555690609087277,1.3800187245590365
0,1.2870680685959708,-1.2717231980065253,2.6700744010881263,0.33595225524757355,1.3850187924016453
0,-1.0227224713215564,-5.260825262293118,-4.779621042672753,-5.143666752915149,1.390018860244247
0,10.92748460741781,0.6700707427222777,5.9206813999018095,3.226712035487506,1.3950189280868557
0,-6.922310698059083,-3.499035185096465,-1.5390182723042192,0.7070886196030431,1.4000189959294573
0,-10.842108390772593,-9.658143047630317,-6.568720060446121,-1.9925370014208321,1.405019063772066
0,1.278091526505919,-1.83725284636981,0.6015760344188779,6.537835171499364,1.4100191316146677
0,-7.111710948484564,-8.446364582276113,-1.4681299885312802,-8.551794862624051,1.4150191994572765
0,-12.531515817495912,-12.485478255704388,-9.667838129876387,-15.381427104671614,1.4200192672998782
0,-12.52132308160438,-7.464593866248591,-11.217548389813821,-13.331061554902893,1.425019335142487
0,7.558867258996157,-0.16371141264690256,2.0127392321056807,4.309301787451577,1.4300194029850886
0,-2.6309447952502687,-5.0928308929742965,-4.766975263034999,-1.1203370760236755,1.4350194708276973
0,-2.9407592437129253,-0.5319523049146457,-0.23669187377668527,-2.6199781434396163,1.440019538670299
0,-1.6805760856904866,-1.761075645892936,-1.7764105984501781,-0.06962141282608186,1.4450196065129077
0,4.799604679655198,2.8797990868357597,3.5338685647477353,5.5607331178516475,1.4500196743555094
0,-7.330216946761013,-4.209328103919853,-8.675854382313066,-3.2589145494139076,1.4550197421981181
0,-4.970040963931612,2.0915427846799366,-0.8955794376306225,1.5214355872541727,1.4600198100407198
0,-2.0198673705550485,-2.7875882444651956,-1.4853065989300847,-0.37821647031761846,1.4650198778833285
0,-7.439696164904188,-7.976721188330247,-4.375035863651585,-8.21787072025404,1.4700199457259302
0,-4.03952734480688,-7.095856043576663,-10.054767228938628,-6.51752716044294,1.475020013568539
0,1.5406390923493773,-3.4649928063251347,-1.124500691481324,-3.1371857882946,1.4800200814111406
0,-0.6691968505152663,-4.5441314721138095,-6.644236247419274,-4.336846600675758,1.4850201492537494
0,-12.539035170300878,-7.843272035974598,-7.073973892374679,-8.536509593972397,1.490020217096351
0,-0.8988758635850912,1.757585507534365,3.766286378511105,2.3938252358974603,1.4950202849389598
0,1.3312810735333258,1.6984411642200588,3.166544570412413,3.9541578933698567,1.5000203527815614
0,-8.9885643546799,-8.250705059946833,-5.083199311467266,-8.905511617014476,1.5050204206241702
0,-4.938412143660647,1.4401468411388454,-0.20294526196352958,-2.0551832906358793,1.5100204884667718
0,3.171737711557742,-1.3890031261945555,-1.962693275809651,-2.714857122594102,1.5150205563093806
0,-8.178114783694301,-4.818154955417737,-11.882443347506708,-9.134533107598946,1.5200206241519894
0,-11.7879696237563,-3.847308639794562,-7.862195471111078,-6.914211239892457,1.525020691994591
0,1.5321731975612183,6.613535827664988,2.168050359982136,-0.5738915131323611,1.5300207598371998
0,-3.2876863129588076,1.214378454049625,3.6482941528914834,-1.3035739204629215,1.5350208276798014
0,-9.507548148114767,-2.3947807536860974,-6.4614640851294105,-6.553258454712016,1.5400208955224102
0,3.532587699659639,4.186058211263693,5.148775653160788,4.057054891531225,1.5450209633650118
0,-0.6072787617336426,4.6568953555918355,1.2290133750045484,2.917366125835749,1.5500210312076206
0,3.32285247572428,8.407730685724584,1.8592490875504835,2.3476752557044667,1.5550210990502222
0,7.882981419917607,5.838564207590621,4.7694827977411975,1.2079822884101892,1.560021166892831
0,6.793108078368901,0.2693959265288781,5.2197145122429705,6.268287230976761,1.5650212347354326
0,0.3132324580686615,-2.5197741525595294,-3.500055762611177,-2.611409909827815,1.5700213025780414
0,-0.03664543446090168,-1.0789460249087186,1.9101719792674925,6.278890872517153,1.575021370420643
0,2.863474407061402,4.141880314298298,2.0103977438807097,6.199189584277075,1.5800214382632518
0,-5.6964080111661675,-5.827295130087855,-2.2593784628217692,2.359486231348168,1.5850215061058535
0,-0.1462926829113898,-4.916472353154381,-7.74915663488609,-4.78021918076527,1.5900215739484622
0,-0.7861796017947273,-3.7456513497273365,-2.5589367661327045,-1.5199266467086203,1.5950216417910639
0,4.063931238683911,2.295167885740754,4.671281149978307,5.000363838958865,1.6000217096336726
0,-4.8959601549773115,-2.484014640951462,-1.9585028798194855,0.6606522817094813,1.6050217774762743
0,1.8541462236993245,-2.4931989238923764,-3.038288848787233,-3.1890613130975702,1.610021845318883
0,5.354250381198278,0.9876150429419994,1.561923249851355,5.39122305980523,1.6150219131614847
0,-4.9056476760696945,-4.721572734281727,-1.7278665770242485,-0.4084945943737866,1.6200219810040934
0,-1.1855479417779557,-2.500762249227572,-3.707658322441337,-2.9382142705214678,1.625022048846695
0,0.534549590463127,0.5200465046624068,-1.1874519792858422,3.512064036428582,1.6300221166893039
0,-0.7553550728350575,-1.839146465855529,-0.28724754024526034,2.542340331525996,1.6350221845319055
0,1.2847380748887123,-0.3783411539073114,0.902955002138621,0.6126146197007043,1.6400222523745143
0,4.304829040159915,6.032462447423795,8.203155655314152,6.452886905667753,1.645022320217116
0,-3.665082170610304,2.8732643449448547,4.633354426482876,4.493157193852163,1.6500223880597247
0,-9.464995551047732,-1.145935454799035,-5.70644867755171,-1.1165745116897932,1.6550224559023263
0,2.9350889054557614,3.124863054495524,0.11374634977802023,2.353691792785916,1.660022523744935
0,-4.11482879412976,8.435659878940452,11.793939515010116,8.813956110804543,1.6650225915875367
0,13.46525135733006,-1.2135449756547192,1.8241308244917764,0.854218445585331,1.6700226594301455
0,-0.0446706332218737,-4.182751503802507,-3.065679715855078,-2.2955212000318013,1.6750227272727471
0,-3.6445947592287506,2.0880402998939775,7.084507899568895,3.7147371765660484,1.680022795115356
0,9.155478985597895,5.988830440874766,5.074693676154686,4.584993577882995,1.6850228629579576
0,8.58555060732364,-3.8503810755090666,-3.0951223810057025,-4.7647519937445475,1.6900229308005663
0,-7.744379888393386,-1.5195942440482344,-0.9549402670790696,2.115500463879,1.695022998643168
0,-7.324312496176133,3.531190940464952,8.40524002268669,3.985750952913227,1.7000230664857767
0,-6.114247210413871,-2.9380255167176217,-2.564581507066519,-4.5340005245408515,1.7050231343283784
0,17.975815974947203,6.9827563896165055,3.7255951480785425,4.476246033532654,1.7100232021709871
0,11.275877065903716,9.923536664480016,10.48576999227889,10.206490629034478,1.7150232700135888
0,-15.554063932191172,-5.715684687526414,0.1459430293108232,-9.35326673640388,1.7200233378561975
0,3.8359929855592396,-1.4149076621689776,-5.823885737475578,-6.3930260613384,1.7250234056987992
0,5.40604782410892,-6.294132255216233,-8.803716304818565,-6.482787344064034,1.730023473541408
0,-4.143899411524245,-13.473358462071095,-5.793548669060773,-5.402550582285718,1.7350235413840096
0,-5.493848716384151,-7.352586277464743,-14.223382825855271,-9.172315773071759,1.7400236092266184
0,2.2461999146014073,-3.471815695273463,-4.3632187700202865,-1.2720829128650475,1.74502367706922
0,5.086246486687976,-0.3510467086525737,0.2469435044447975,-1.6218519975615517,1.7500237449118288
0,-3.7637089948929505,0.15972068963872244,-4.132895995899286,-5.601623022680834,1.7550238127544304
0,-7.613666524978904,1.6104865069689644,2.2572627357790673,-1.6013959834503453,1.7600238805970392
0,4.576373901750029,8.471250750640547,5.387419706395283,8.788829125139731,1.7650239484396408
0,10.066412290779827,6.602013427648001,4.4175749227230705,6.639052308049717,1.7700240162822496
0,5.616448647358293,6.61277454443586,4.957728391171962,5.239273569798201,1.7750240841248512
0,1.0164829761575285,5.5435341067962,5.687880117690046,6.54949291428986,1.78002415196746
0,-0.1934847186521146,1.0942921199254834,-0.2619698922333985,2.2497103448493534,1.7850242198100617
0,4.346545566842708,0.11504858858956718,-1.401821633449305,-2.900074135643061,1.7900242876526704
0,11.11657383633002,7.555803517289898,7.858324899018291,7.840139475442322,1.795024355495272
0,0.4066000930642387,5.806556910243983,4.19846970995168,3.820351180532173,1.8000244233378808
0,1.5366243397700625,1.3973087712340155,0.1986128037784053,-0.9294390182633734,1.8050244911804825
0,-2.083353421164836,3.738059103588771,2.028754184572478,-0.04923111912437372,1.8100245590230912
0,10.876666812498172,8.708807910254366,9.328893856144187,4.880974879633723,1.8150246268656929
0,0.2866850427671722,5.969555193722324,8.029031821923402,2.501178979562787,1.8200246947083016
0,1.6467012712774947,4.540300955894112,5.559168084719594,-3.6286188179956205,1.8250247625509033
0,2.9167154993437383,-5.608954801858973,-3.140697353307437,-4.508418511794149,1.830024830393512
0,5.626727728042129,2.0817879215948887,3.189435509604284,0.0217798995662688,1.8350248982361137
0,-1.6232620418269563,-1.7574708725950299,-5.49043332489751,-10.928023582211702,1.8400249660787225
0,-2.4932538096947567,5.663268816761871,1.1396961448882714,6.622171044931843,1.845025033921324
0,-0.18324757502628897,0.5640069907627269,1.9498239207646892,7.342363783276614,1.8500251017639329
0,6.806756662772794,-0.31525634968422994,-6.09004999540252,-7.7574453650050685,1.8550251696065345
0,-12.503241095715453,0.3954787961868611,-3.599925601643367,-3.3372563978944614,1.8600252374491433
0,-9.033240849778533,-4.043787570879669,-0.5698028957285572,-2.037069313215076,1.865025305291745
0,-7.35324259814699,-6.523055450011907,-4.729681875117944,-4.646884108446362,1.8700253731343537
0,-0.8432463387743987,-3.902324840014959,-5.919562536974876,-6.766700780710451,1.8750254409769553
0,0.5167479309680235,-0.8615957392596614,2.6705551218741053,-0.7065193267206689,1.880025508819564
0,-9.993259785978054,-7.210868145725648,-4.52932889510058,-4.966339742770294,1.8850255766621657
0,-6.263269486342912,-8.050142057001699,-10.859214584176613,-13.686162024729455,1.8900256445047745
0,-1.3032811663388213,-3.6294174701507007,-5.289101941198512,-8.205986167844946,1.8950257123473762
0,-11.043294821610067,-8.458694381620441,-5.768990961355657,-7.095812166495638,1.900025780189985
0,-19.013310447155142,-5.237972787248217,-13.63888163912974,-11.615640014153636,1.9050258480325866
0,-2.693328037020322,-5.707252682262801,-4.408773968236787,-5.185469703433946,1.9100259158751953
0,15.936652415688634,2.2634659386514477,3.7713320583617786,4.174698773795957,1.915025983717797
0,-13.663369081810576,-3.0458169188383724,-6.23856355182058,-7.455134573871883,1.9200260515604057
0,-3.9833925223440767,-2.095101248890466,-2.888460791048466,-5.854969737583732,1.9250261194030074
0,5.37658210145378,3.5156129544576062,1.3816403486384594,0.2151932918572822,1.9300261872456161
0,1.6965547971885275,2.2963256972057096,0.28173987539938405,1.70535452400292,1.9350262550882178
0,2.836525572390952,-1.1729630147540542,-3.2681622025352834,-1.9544860314450463,1.9400263229308266
0,8.396494434302928,5.557746824308159,2.601934123102056,5.6956716351965895,1.9450263907734282
0,18.916461389669063,5.168455219921261,8.45202886056837,2.055827533488204,1.950026458616037
0,-11.513573555542662,-0.48083782269706127,-0.6478779820984122,-2.0840183272181463,1.9550265264586386
0,17.436389603897076,6.839867701323554,4.022213602778549,6.19613406224082,1.9600265943012474
0,5.38635087266911,6.280571796506772,10.722303622515035,8.736284710815653,1.965026662143849
0,-6.9136897451064465,-0.3287255330443771,1.5023920839737719,0.06643362705577927,1.9700267299864578
0,-11.013732245625603,3.221975716368583,-2.3975210064898826,2.906580819033893,1.9750267978290594
0,-1.2937766247926938,1.6226755481728454,1.62256435718726,4.696726294470294,1.9800268656716682
0,-2.8138228779258156,-3.4366260343705184,0.6326481810106339,2.4168700607955254,1.9850269335142698
0,-6.713870999876097,-3.8059290280295546,-1.8272695290282046,-0.1729878748607933,1.9900270013568786
0,11.006079014803394,1.064766570580397,3.3228112330379482,4.3171524943888,1.9950270691994803
0,-3.4939728283658225,3.9854607650066285,8.382890473086501,5.027291175214743,2.000027137042089
0,-13.964026523913216,-6.983846441183196,-5.227031803258947,-3.4825718259818936,2.0050272048846907
0,2.5159179338566555,2.406844955585534,3.3630444093566605,8.337563496946224,2.0100272727272994
0,8.945860551051918,4.407534958953161,1.6531191161624368,3.207697149902517,2.015027340569901
0,-7.814198666120235,-3.711776427466163,-1.236807677691417,-0.6421708615343241,2.02002740841251
0,9.695740288375577,-4.571089200117849,-0.9867359671291974,-0.7320405320643628,2.0250274762551115
0,18.67567742027718,3.829596644655129,9.70333425287414,9.808088143464857,2.0300275440977202
0,-0.5043872653475004,5.060281110615472,2.98340298714559,3.0082151699716397,2.035027611940322
0,-16.364453764189513,-0.6790357985986519,-6.076529759847032,-1.6716594480253693,2.0400276797829306
0,-6.45452207199753,5.1616459203852365,5.453536016140181,5.318464293656499,2.0450277476255323
0,2.9954078161152315,10.422326270629355,10.593600319244224,10.098586398936998,2.050027815468141
0,-2.394664094385697,2.013005254726503,-1.3263368467181642,-6.6712931286413735,2.0550278833107427
0,3.78526220214819,0.38368287471620577,-2.1162754783667026,-0.46117428585876075,2.0600279511533515
0,3.815186711303613,4.454359132242445,4.4737844274597505,5.3989429304479835,2.065028018995953
0,3.3951094384554477,1.205034028707134,-2.936157126123607,-2.3009414765574028,2.070028086838562
0,-3.4849696112997224,5.765707565263305,1.3238998639583723,1.4891724961905932,2.0750281546811635
0,0.7949495669748055,8.426379742717744,5.1439554007284345,7.289284851631873,2.0800282225237723
0,-2.9251330217645126,6.427050561365448,4.634009487051416,6.489395592458252,2.085028290366374
0,-4.015217372430451,3.617720020867595,3.144062125458165,0.06950472091458748,2.0900283582089827
0,5.774696520235755,10.418388120258443,11.674113318029118,11.959612238747575,2.0950284260515843
0,18.024608661455325,9.599054857920505,10.064163066240287,8.29971814715715,2.100028493894193
0,2.0245190559030015,7.519720231448605,4.02421137076706,-1.340177553328531,2.1050285617367948
0,-2.65557229255425,4.840384237599122,-1.1057417684779982,0.8399251372509821,2.1100286295794035
0,-4.305665380506602,7.28104687239351,9.914303647921617,6.330026218571308,2.115028697422005
0,4.124239795473438,-6.318291868702885,-5.3656523809455905,-2.629874309878338,2.120028765264614
0,4.814143238893339,-3.6576319904791537,-4.855609856190639,0.750223551206727,2.1250288331072156
0,5.404044953080643,2.4330265023743016,3.1644312211361627,7.440319801004726,2.1300289009498243
0,5.143944940950182,1.13368360534404,0.06447085015418544,4.270414438484712,2.135028968792426
0,-15.876156794951962,-0.9756606860665511,-3.7754909699601034,-3.2794925377423514,2.1400290366350347
1,-5.796260252006275,1.3849936235832658,5.68454575997697,5.350598870640068,2.1450291044776364
0,-1.8763654270189951,-1.2943534702988089,2.204581039114524,2.3706886617742686,2.150029172320245
0,0.013527683816088099,1.0062980276867326,-3.985385133543931,-1.2592231663891567,2.155029240162847
0,-6.8965809153464805,4.576948112906468,-0.2353527590924512,-0.5691366160622742,2.1600293080054556
0,3.283308779875992,2.167596780588784,1.2846781614302336,6.28094831047396,2.165029375848057
0,16.56319677394862,-3.531755974253252,-3.9452923729295146,-2.358968389162835,2.170029443690666
0,-11.176916928950918,-8.73111015666408,-7.5152643630006875,-3.0588867174868453,2.1750295115332676
0,18.01296767487463,-3.1704657714078843,1.6047621906753833,3.4211933229779925,2.1800295793758764
0,3.3228505886483934,-6.029822822742761,-5.845212712083705,-7.488728270199114,2.185029647218478
0,-9.077268184918708,-8.989181314376069,-9.255189071112675,-8.25865149925222,2.190029715061087
0,-5.56738864335259,2.2414587505411734,2.2848331141850493,2.001423633982257,2.1950297829036884
0,4.752489216068175,5.182097369266355,5.154853844789793,3.171497128063201,2.200029850746297
0,-7.887634603598374,1.6027345390945562,-5.095126878235392,-1.018431018348029,2.205029918588899
0,4.032239900890446,3.773370257069568,3.024890946091155,3.061639193301671,2.2100299864315076
0,-12.317887267039374,-3.5959954800329794,0.5849073187200986,-0.6082922385574593,2.2150300542741093
0,4.511983896326484,1.1646373244344423,-1.4250777594212194,-5.328225315554406,2.220030122116718
0,1.0418533949856437,3.605268667099043,2.754935712548644,2.3618399607510985,2.2250301899593197
0,18.21172123291037,10.715898544456511,11.284947735394521,17.28190358882737,2.2300302578019284
0,-0.558412586440199,-1.8334730473848455,0.6649583095331307,4.1119655667441455,2.23503032564453
0,-13.838548060227376,-5.872846112722857,-11.495032565035709,-8.027974108136565,2.240030393487139
0,20.651314814169716,-0.6722206559244569,0.05497511165116695,-0.08791543884214631,2.2450304613297405
0,9.011176039222144,-1.5615966811363047,5.444981339857962,7.132141571646666,2.2500305291723492
0,-9.018964383177407,-8.370974192237526,-10.69501387994483,-9.957803079590166,2.255030597014951
0,-10.6091064515998,-0.800353192789482,-2.2650105471429014,-1.7277493954292988,2.2600306648575597
0,-2.9292501643555595,7.9602663139656675,10.104991339129283,7.632302621438764,2.2650307327001613
0,2.6806044808521525,6.490884324794916,5.024991779770989,2.402352968385337,2.27003080054277
0,6.350457486636469,6.091500836049275,1.8249907752990162,-1.4375983574441373,2.2750308683853717
0,3.4703088554728514,0.4721158435032242,2.2049883257564007,4.542448640840132,2.2800309362279805
0,-0.48984141052422225,-0.8172706575046397,0.13498443088118844,-2.817506040018234,2.285031004070582
0,-11.189993309458014,-2.02665867180877,-4.715020909719008,-2.377462403337885,2.290031071913191
0,-6.920146839222312,-4.116048204187499,-2.9250276963733755,-3.397420452357896,2.2950311397557925
0,0.509698002853917,-8.72543925917544,-4.945035929154327,-10.637380190042007,2.3000312075984013
0,4.959541219927442,-7.814831840842005,-8.14504560774346,-11.197341618827679,2.305031275441003
0,-5.110617184716566,-6.974225952592113,-5.255056731311401,-6.647304740353329,2.3100313432836117
0,-4.940777207789875,-1.2836215971310145,1.4449307015261057,2.4527304445782927,2.3150314111262134
0,-4.450938845794103,-8.063018776584551,-10.765083307395878,-5.877236064279246,2.320031478968822
0,-1.2811020948398606,-5.642417492583908,-7.475098755809799,-3.527204266867361,2.3250315468114238
0,-1.851266950681165,-0.33181774625285876,0.8648843591186575,-1.4571741628373318,2.3300316146540325
0,-4.2514334088159185,2.968780461685694,-1.215133959263552,-2.26714575153399,2.335031682496634
0,-7.611601464466302,-3.1206228693461466,-3.9451537073398173,-6.347119032033452,2.340031750339243
0,6.478228887499594,0.79997226007855,1.7648251186608048,0.7829059968776628,2.3450318181818446
0,7.748057652401876,1.5605658494019783,2.204802522621039,5.022929336659115,2.3500318860244533
0,-12.83211516457581,-0.7788421019386745,-6.175221491553273,-0.45704901120913843,2.355031953867055
0,0.2677104416672106,4.411748405428907,4.524753080067001,7.162970954556425,2.3600320217096638
0,2.8375344764479524,0.5623373707510075,3.114726241442612,1.9529892349426752,2.3650320895522654
0,-4.812643054700627,-3.5870752068688523,-7.885302003521316,-2.9769941693739583,2.370032157394874
0,-7.232822146116358,-7.706489328316599,-6.475331650874781,-5.926979257851797,2.375032225237476
0,2.0869972081312786,0.35409500579788156,-0.27536269632395294,2.973033970195181,2.3800322930800846
0,-0.6831849857094843,-1.225322204770732,4.194604864816037,-0.6869544843385775,2.3850323609226862
0,-5.623368721210668,-4.6547409600133705,-6.915428962614397,-5.79694462045258,2.390032428765295
0,7.416446008165885,-0.03416125972400588,-2.485464173698147,1.2030635629764372,2.3950324966078966
0,-2.3637407909985653,3.7264168964790225,-1.045500763299657,4.343070067226216,2.4000325644505054
0,5.54607088777123,-1.70300649098082,-7.455538725978256,-2.4869251064149336,2.405032632293107
0,-6.094118949207637,-5.1624314217144835,-0.2955780559693406,-3.7269219567275984,2.410032700135716
0,-1.0243102956532744,-0.26185789523331937,1.4843812528027143,2.0630795175631906,2.4150327679783175
0,-1.7245031451466906,-3.6712859108130433,-1.885660793412196,-2.266920682133491,2.420032835820926
0,-12.244697491000206,-2.5707154674786032,-3.3857041882995533,-2.366922554308685,2.425032903663528
0,-4.914893326072971,0.5898534359760792,0.06425107457181523,0.6330739026557842,2.4300329715061366
0,-2.905090642591223,-3.6395791990502686,-1.0357949982012429,-1.2869313095004964,2.4350330393487383
0,-3.5452894322006947,-1.8890133709952004,0.3341576000925801,-8.796938188904708,2.440033107191347
0,3.5145103138181204,2.111550921870943,5.594108876179322,4.78305326654722,2.4450331750339487
0,1.9143086043177702,1.2821136813726657,5.944058836624956,1.4530430591826085,2.4500332428765574
0,-7.275894551875962,-3.3473250906857257,-2.765992512337934,-0.4669688086560724,2.455033310719159
0,22.063900853971628,13.443234607413485,9.883954835174132,7.403017665223579,2.460033378561768
0,7.503694830210063,10.293792777076217,11.943900884654077,9.953002482725765,2.4650334464043695
0,-2.4465126156193335,8.86434941898582,3.613845640952052,6.582985645204544,2.4700335142469783
0,5.693278523282393,-0.07509546707186124,-3.1762108918110186,-2.7070328466711007,2.47503358208958
0,-2.156931746638806,-0.9145418819607909,1.8837312900691225,0.20294700730460025,2.4800336499321887
0,9.44285658086385,4.716010173173277,2.903672190188027,0.7329252072062085,2.4850337177747903
0,-3.9873564882134986,-1.5934393029393543,-3.3663881879219053,-4.94709824686133,2.490033785617399
0,3.2524290518755397,-3.4528903116581144,3.163550159201289,-1.0271233546813636,2.4950338534600007
0,10.662213206662017,6.267657145652301,11.393487234914215,7.442849884103996,2.5000339213026095
0,11.781995981266617,0.5482030676075595,3.4734230422237267,1.4128214698164687,2.505033989145211
0,15.451777379984364,4.388747452648224,4.023357583554714,3.3827914025057626,2.51003405698782
0,10.07155740596306,3.499290298934675,7.4532908607651125,6.13275968187549,2.5150341248304215
0,-11.36866393874191,-1.5001683956600673,-6.4467771247300725,-0.17727369272238763,2.5200341926730303
0,-8.988886652559493,-1.6896286334545771,-3.036846371732278,-2.0473087222341757,2.525034260515632
0,2.9708892663579674,4.140909583191396,6.603083121020839,5.422654592247372,2.5300343283582407
0,-4.059336179645131,-2.148553748092728,1.9030113548412992,0.2626162495373501,2.5350343962008424
0,-4.589562987918645,-4.75801862969698,-7.137061669089119,-9.257423751646035,2.540034464043451
0,2.830208844413374,2.192514936078769,1.342864050364535,1.582534587501848,2.5450345318860528
0,15.279979320312837,1.6830469470719884,3.6627885144566985,5.242491266014027,2.5500345997286615
0,-0.20025155759582064,-1.3364225988636407,-3.837288275510688,-2.367553717023786,2.555034667571263
0,6.109516212680295,5.32410629603958,0.692633681729969,-0.8376003626367123,2.560034735413872
0,4.729282632574335,-2.7653663705690037,-0.6474456125233856,-3.497648671859108,2.5650348032564736
0,-12.220952296832396,-7.274840601100624,-7.577526156865451,-13.2876986455027,2.5700348710990824
0,-5.731188574446479,-9.31431639775278,-11.627607949605132,-12.07775028381985,2.575034938941684
0,-0.7414261987365136,3.116206237785192,0.8823090115146752,1.4021964137986174,2.5800350067842928
0,-18.481665167562166,-3.57327269569596,-8.777775270603813,-5.097858551255359,2.5850350746268944
0,-17.891905477983148,-8.612753199108575,-12.70786079247017,-12.527915177065532,2.590035142469503
0,0.6478528741006415,0.5277647269528365,-0.8479475499092108,2.692026538798602,2.595035210312105
0,0.5676098938783326,4.608281082235244,3.5519644619256217,5.301966599242979,2.6000352781547136
0,-11.962634412877525,-8.571204133361595,-11.398124751742213,-13.308094992636846,2.6050353459973152
0,-15.782880039934389,-1.8706909198472714,-8.27821518539297,-6.068158233567149,2.610035413839924
0,-3.293126980236372,0.019820723012526242,6.971693166987017,5.391776880181236,2.6150354816825256
0,3.6766247741950755,-2.74966920428374,-2.4383996881850254,-0.9682896472742739,2.6200355495251344
0,9.736375231766583,-1.339160701064168,-2.3484937444015506,-4.87835781173135,2.625035617367736
0,12.396124400614596,3.4813462334647594,5.601411004837245,1.3615723910639994,2.630035685210345
0,-0.48412771184858305,-0.9881483998657619,-3.9686854339784756,-5.068499034467676,2.6350357530529465
0,1.025618901082415,-1.807644600267221,-1.9887830543815856,-5.548572083673626,2.640035820895555
0,8.565364245692601,4.942857633021724,0.40111815016327945,0.8613532484105766,2.645035888738157
0,-4.4348916720158895,-7.21664169924471,-5.928981813646769,-6.76872303291275,2.6500359565807656
0,-4.515148846240301,-4.206142596241719,-3.629082938890247,-7.928800921993642,2.6550360244233673
0,-3.705407271098273,-6.795645056846129,-2.889185218321026,-4.118880412703861,2.660036092265976
0,2.3043330595897253,-0.3351490794681755,1.9507113556403182,-1.168961498358524,2.6650361601085777
0,6.754072152178249,-6.884654662073401,-2.049393209231644,-3.199044171839977,2.6700362279511864
0,-14.416189987021335,-6.334161802217471,-5.75949890505681,-11.689128425690567,2.675036295793788
0,5.4935466483394295,-5.863670496965739,-5.409605723736164,-1.7592142519864191,2.680036363636397
0,-1.0467179351697995,-0.41318074283652023,-4.419713656764463,-2.4393016422341978,2.6850364314789985
0,-21.576983730713682,-7.782692535880736,-12.049822695104297,-7.999390587464187,2.6900364993216073
0,2.232749269047692,1.0877941282301538,0.6500671708989787,5.800518921656272,2.695036567164209
0,-3.1275189278015394,-0.03172074587132129,-0.9100440485295349,-1.599573105309618,2.7000366350068177
0,1.352211687341474,-6.761237153358691,-5.990156342809303,-4.4896666587347,2.7050367028494193
0,6.3719411231987815,1.689244910771011,-0.06026970112320151,5.490238271050318,2.710036770692028
0,4.711669388321987,1.1697254517138245,4.66961588755675,5.270141693716348,2.7150368385346297
0,1.8613964908899279,-2.429795525245333,1.1095004342907868,3.1800436187050907,2.7200369063772385
0,-7.038877561256693,-2.309318014790242,-4.3806160499933675,-2.3300559449036875,2.72503697421984
0,0.5108472396697581,1.2211579884933532,1.5292664455754812,4.659843011720014,2.730037042062449
0,-3.209429098352935,-0.6183675098691377,-1.7008520680538324,1.8697404972570304,2.7350371099050577
0,-6.40970656708847,3.8921054956648833,2.43902842013802,4.279636520183848,2.7400371777476593
0,8.940014841948814,5.732577010515741,6.578907921122768,6.6395310886645165,2.745037245590268
0,-6.550264862624032,3.533047039807689,5.828786445619285,3.629424210449227,2.7500373134328697
0,9.009454327763835,0.22351558827714668,-4.891335996055221,-3.480684107137173,2.7550373812754785
0,5.309172421491996,5.143982660331757,3.218540606128199,3.719206142971828,2.76003744911808
0,10.648889426521905,4.7144482600957485,5.538416262083027,4.229094967724998,2.765037516960689
0,6.388605350143479,3.634912391341845,3.5582909815321306,0.7489823738900934,2.7700375848032905
0,1.138320198910851,5.855375057419695,7.388164773816123,1.8588683679817404,2.7750376526458993
0,-14.19196602108811,-3.654163738720387,2.3180376477969995,-4.201247043658352,2.780037720488501
0,-18.5222533035693,-7.723703994323409,-4.162090388084744,-7.78136385465067,2.7850377883311097
0,-3.0325416413270454,-1.3732457064685024,-4.2222193255477585,-8.791482058268794,2.7900378561737114
0,6.757168973892096,-2.4027888718517727,-1.172349156149852,-2.7016016471808872,2.79503792401632
0,10.476878550761647,6.217666513111818,8.577520128768713,6.048277386510401,2.8000379918589218
0,-0.863412902355188,-0.25187954797424217,2.8673885378123183,-0.4818449490819656,2.8050380597015305
0,4.7162946223686495,4.798572948310493,9.917256079196067,-0.41196864593246596,2.810038127544132
0,15.616001132285172,5.1290240051103515,8.667122760534522,5.827906303845856,2.815038195386741
0,6.475706634111869,6.989473625195368,5.326988588714072,0.567779907984635,2.8200382632293426
0,-4.7645888662425016,2.9199218108450875,2.2068535699026888,0.28765217399984233,2.8250383310719513
0,4.915114636571231,0.7203685638537409,4.386717709721886,6.207523109202471,2.830038398914553
0,3.3048171476839316,3.1708138856711336,0.5265810134197523,2.0673927206799894,2.8350384667571618
0,1.9145186720311802,-0.7787422224659185,-5.113556513983694,3.6872610152101357,2.8400385345997634
0,13.38421921420909,9.541700240489606,11.276305132448513,9.277127999195514,2.845038602442372
0,16.92391877820461,4.482141275271738,3.4061659575044283,12.166993678515976,2.850038670284974
0,-4.85638263293376,-1.2074191178362677,-1.1939740343936962,-2.783141941668985,2.8550387381275826
0,8.073314982956045,0.3330190610847545,-0.594114839158799,-0.30327885682340067,2.8600388059701842
0,11.943011627450325,9.723455811763847,5.175743547170906,4.886582937315651,2.865038873812793
0,3.612707301533024,-2.756108866300124,-2.0143988715260397,1.3464434448883227,2.8700389416553946
0,3.432402005475873,-0.7256749738928143,-0.1745420914890012,2.246302669834208,2.8750390094980034
0,-1.3179042609969938,-0.16524251191897216,0.27531389099711,3.2261606158522733,2.880039077340605
0,9.391788501527408,-3.1148114812266052,-1.844830920324733,0.956017286412508,2.885039145183214
0,-14.038519707738402,-5.174381882515111,-8.624976521607458,-7.7141273151722825,2.8900392130258155
0,-6.268828889534067,-2.023953716224092,1.2448770912601788,0.6757268144674443,2.895039280868424
0,-0.6891390441501476,0.90647301751719,1.4447299227087738,0.16557967892265607,2.900039348711026
0,-1.5894501713369074,-3.153101681204879,-4.255418022664607,-2.7045687180461138,2.9050394165536346
0,-1.339762270534594,1.6773221878103999,1.0744332598032171,-3.144718372568647,2.9100394843962363
0,8.409924658911102,6.167744624790721,5.424283774829631,3.9051307193687146,2.915039552238845
0,-7.050389382415707,0.5881656298198767,-0.10586647294428722,-1.0750214381294074,2.9200396200814467
0,5.049295605945288,4.09858520269584,2.2439825209130015,1.6848251590081844,2.9250396879240554
0,5.928979624356172,10.27900334287193,6.253830760605744,4.444670514747808,2.930039755766657
0,-16.34133732692994,-2.4305799506353574,-1.6163217499167946,-5.655485367077169,2.935039823609266
0,-13.501655247476057,-6.990164679187079,-7.796475006901066,-5.925642482656531,2.9400398914518675
0,7.378025863860121,6.210249155802088,6.083370993452863,4.394199172025935,2.9450399592944763
0,8.177706008846622,7.4306615529725715,5.9332162550461085,5.124039601174757,2.950040027137078
0,-14.852614810698544,0.6510725107384281,-1.5269392183773984,-6.586121191071417,2.9550400949796867
0,-3.4029365929706974,-0.9485179728765326,-0.9370954233487778,-0.2962832006700786,2.9600401628222883
0,15.086740664123685,3.6818900999092965,1.5527476434891478,0.2035535765161416,2.965040230664897
0,-3.143583037233594,-5.52770327320468,-4.8374100144802155,-11.276610855171397,2.9700402985074987
0,-4.703907695133359,-2.777298094482842,-6.297568393741561,-7.496776491031358,2.9750403663501075
0,-0.9342333077780614,-6.316894365965591,-2.417727490466795,-4.356943325744542,2.980040434192709
0,2.335440126794975,-6.536492089286154,-5.387887300398089,-8.777111353285052,2.985040502035318
0,-14.324887389253536,-3.996091265561997,-1.0180478188687991,-4.557280566974905,2.9900405698779196
0,4.444784146524976,-0.41569189540110557,1.8417909590954036,2.8225490404297577,2.9950406377205283
0,1.824454736931986,-2.085293979045368,6.251629038568675,2.2623774764973352,3.00004070556313
0,8.674124384843742,6.215102483428814,1.9314664244515702,2.2522047487882766,3.0050407734057387
0,-1.6062069071523077,-4.814502508066644,-1.908696878657127,-1.3179691353069436,3.0100408412483404
0,-6.39653913677935,-9.314108953619332,-1.1088608663404704,-1.96814416850854,3.015040909090949
0,-6.406872301729252,-7.283716853008772,-3.989025534144819,-8.158320343459604,3.020040976933551
0,-7.73720639927087,-6.593326205376947,-6.3191908774059735,-5.838497652478725,3.0250410447761595
0,4.322458573888769,7.307062990772488,6.990643108835984,7.51132391256596,3.030041112618761
0,-2.7878773785683313,2.3474507372177404,0.4604764297024899,3.491144360025886,3.03504118046137
0,-2.8882142528049584,5.327837035586492,2.160309090213487,4.880963698055603,3.0400412483039716
0,13.54144795504762,1.3882218871438339,5.230141095156253,6.400781934376636,3.0450413161465804
0,3.681109248653151,2.5886052928094987,1.2299724490500166,1.71059907623519,3.050041383989182
0,-2.6292303688058363,2.5789872532296254,1.0598031561313999,-0.18958486953696072,3.0550414518317908
0,4.070429105446064,3.1393677688075607,3.5896332204040755,3.1002301036298627,3.0600415196743924
0,7.170087673965064,7.179746839660821,9.929462645622632,11.2300440020875,3.065041587517001
0,-2.3802546609595088,-0.04987553446089364,-1.4707085648546485,-1.110143168197907,3.070041655359603
0,-1.2005978973180875,-3.2094993541414523,-7.1708804080471795,-2.480331401702527,3.0750417232022116
0,6.269057966777488,9.29087537986472,9.188947118934196,8.579479306853703,3.0800417910448132
0,-5.361287066846686,9.471248666594125,5.818774018957502,6.369288962552386,3.085041858887422
0,-4.971632996388665,2.6816205045751063,-0.7213997053994751,1.5690975700643761,3.0900419267300236
0,18.288020180013522,13.011990891638817,15.478425947972505,14.138905133509704,3.0950419945726324
0,19.997672463928875,11.152359824846714,17.258250980528707,16.26871165630025,3.100042062415234
0,10.66732385586016,7.132727300346951,4.838075392691843,3.4385171408374324,3.105042130257843
0,6.346974354865855,-2.566906686611248,-3.6521008162141215,-3.1616784114898633,3.1100421981004445
0,0.976623958856281,-2.066542141314639,2.477722352517397,1.5281250001668358,3.1150422659430532
0,6.156272665066969,-5.786179069112409,-0.22245510255544423,-4.372072623421721,3.120042333785655
0,-2.624079529655729,3.3141825248616694,2.5273668170847348,-2.9422712813601053,3.1250424016282636
0,1.145567371304404,3.5945426356485655,9.087188109808114,6.367529027421628,3.1300424694708653
0,-9.324786635467905,2.1249012582208695,-1.0829912263319832,-3.1126716959379985,3.135042537313474
0,-17.065141553072067,-5.214741612645037,-6.073171193610281,-5.762873450324135,3.1400426051560757
0,7.294502616092199,2.1356140177553793,2.8966482056310157,-1.5730762344950264,3.1450426729986845
0,5.464145870257906,0.4059681441892287,2.4164669691575176,-4.133280046898204,3.150042740841286
0,0.2637882077290801,2.386320761435279,-2.5337149052597963,-0.9534848856578902,3.155042808683895
0,-6.416570373430933,4.7366718641502645,1.8461025800783275,1.9563092513373017,3.1600428765264965
0,13.113070124730605,-3.482978553213631,2.925919422824763,2.866102366278757,3.1650429443691053
0,2.612709700025983,-3.142630496333246,1.2757356205329886,1.065894461258538,3.170043012211707
0,-7.077651650077452,-7.992283970763456,-6.604448829370988,-6.014314461767129,3.1750430800543157
0,-3.4180139282950943,-0.7319389816888863,-0.06463392942904468,1.6954755991734136,3.1800431478969173
0,-9.55837713708554,2.9184044660953345,2.4651803179961447,1.8652646461752878,3.185043215739526
0,-3.1987412783740226,-2.291253632022224,-3.7950060893401156,-3.4449473186123893,3.1900432835821277
0,-1.5991063535224934,0.35908671935997577,-0.39519315363534013,2.054839706957704,3.1950433514247365
0,8.960527636461606,-5.000574484317374,-3.8853808769752427,-3.3853742749261624,3.200043419267338
0,-10.149839309390808,-0.670237247462668,-4.945569261228721,-3.2855892619759874,3.205043487109947
0,4.95979280789918,6.380098425680578,3.1542416920112304,5.9341947482347726,3.2100435549525486
0,11.849423987279778,8.670432530805169,3.5240519813307474,6.12397775814078,3.2150436227951573
0,1.579054227412556,-3.1792349367743675,0.5838616052557926,-2.7862402300714484,3.220043690637759
0,-0.381316473568955,-0.40890398213159757,-3.0763294378588157,0.6635407854998271,3.2250437584803677
0,3.108311882082792,2.2714253895223333,0.6234788502867386,7.953320806608778,3.2300438263229694
0,-5.982060708020568,-4.988246827009282,-4.406713531919618,-1.8369001651670551,3.235043894165578
0,-14.942434246144726,-8.857920636801246,-6.9369065858917605,-7.817122128447139,3.24004396200818
0,-8.042808733997528,-3.187596044563976,-1.8771003126984456,4.0726549181837965,3.2450440298507885
0,13.55681582749961,-0.6172730544951994,2.552705286977994,3.2824309763036372,3.25004409769339
0,-7.8535605621635804,-7.166951670371517,-11.687489787270717,-9.077793952481393,3.255044165535999
0,-5.503937903480683,-3.21663189562149,-4.297685535547512,-3.4080198664948753,3.2600442333786006
0,5.05568380316371,0.263686266699687,1.1521180425179969,2.741753236232776,3.2650443012212094
0,-7.364695442383665,-2.145997186160954,-3.698079052282673,-2.29847464205598,3.270044369063811
0,-15.265075640006494,-3.245682256772191,-3.6282768189123575,-4.658703498996372,3.2750444369064198
0,15.854543210866197,-2.125368947519034,-0.5484752561092306,1.1510666679208532,3.2800445047490214
0,2.5341611111099334,1.7549427394236021,-0.4686743623794829,-2.1591641386005493,3.28504457259163
0,10.333778061313149,-4.844747197962573,-7.748874136039541,-6.8193959156772594,3.290044640434232
0,-5.916605938537228,-3.7944387615471684,-2.5290745751493673,-5.4496286601473605,3.2950447082768406
0,14.983009111062989,2.7058680470227987,3.8907243225663386,-1.5698623684124051,3.3000447761194422
0,1.8926232091907067,-7.833826773671612,-5.679477440392614,-9.740097036397685,3.305044843962051
0,5.392236354377594,2.6364767751485654,3.8203201385546395,4.049667340415239,3.3100449118046527
0,7.851848544578317,-6.723221307517879,-0.8198829379707251,1.7794307668628737,3.3150449796472614
0,-12.198540222703565,-6.372921022391637,-5.56008666731829,-5.560806752129196,3.320045047489863
0,-5.308929950065058,-1.7326223697984042,-5.150291046699588,5.218954788363995,3.325045115332472
0,9.920679360187492,6.187674650320947,9.009503926943573,10.158715393213857,3.3300451831750735
0,-3.689712294028106,-0.7020299618614423,2.909298256761646,1.6184750669681842,3.3350452510176822
0,3.7598950851138055,3.1682637936796096,5.749091945629108,2.4882338136561013,3.340045318860284
0,12.389501495197605,12.69855591670001,13.958884995901052,10.627991636843133,3.3450453867028926
0,4.189106933372501,13.438846406428285,15.728677409161282,15.207748539550995,3.3500454545454943
0,8.998711396109163,12.189135261155098,12.728469185865482,11.227504523904315,3.355045522388103
0,13.728314879097994,4.51942247802701,4.118260325184546,10.077259590863344,3.3600455902307047
0,-6.222082622773139,2.2197080532171842,8.548050825204436,8.447013740246467,3.3650456580733135
0,5.547518884755258,3.3899919822805877,0.49784068324369135,5.556766970898203,3.370045725915915
0,-1.4128806043457873,2.5002742604088244,2.777629896101574,0.446519280902993,3.375045793758524
0,1.1867189037873747,2.600554882511455,-1.2425815397338045,2.406270667849428,3.3800458616011255
0,2.4563174029288297,-6.359166156714024,-3.3727936278896355,3.2260211290450296,3.3850459294437343
0,-11.644085113178877,-7.648888862544961,-10.973006371869047,-5.694229338379391,3.390045997286336
0,-0.614488650615851,-5.888613239883182,-1.3132197747636736,-4.5944807373052825,3.3950460651289447
0,7.685106784864045,-1.6083392930586446,0.19656616085643872,0.11526692961163079,3.4000461329715463
0,-11.09529881232153,-10.988067025855418,-6.453648567208916,-11.91498633992761,3.405046200814155
0,-14.445705447591429,-9.197796441484908,-8.543863960858788,-9.36524054773253,3.4100462686567568
0,-5.656113125756555,-11.827527542386422,-4.4540800215183705,-3.8554956949007675,3.4150463364993655
0,-16.85652185063655,-6.267260330059445,-6.004296749999342,-8.495751781752519,3.420046404341967
0,-2.396931624999786,-1.8569948051170206,-7.804514146510007,-7.706008807913195,3.425046472184576
0,-4.317342450688533,-7.116730967510276,-3.894732210665194,-2.196266772345458,3.4300465400271776
0,-6.687754328866795,-11.336468816655833,-8.154950941476372,-6.776525673405635,3.4350466078697863
0,-14.548167260128409,-9.786208351291084,-9.385170337330582,-8.126785508915894,3.440046675712388
0,-7.858581244301112,-3.245949569296915,-2.925390395928466,-2.0570462761400643,3.4450467435549967
0,1.7210037196888242,2.0743075321893985,2.034388885653612,1.2626920281757044,3.4500468113975984
0,-10.289412366381956,-1.7054370435839767,-5.875832489289566,-2.517570592415945,3.455046879240207
0,1.9301704997189302,1.424816706727114,-0.7660545172613857,1.0221658657464894,3.460046947082809
0,12.899752320480182,0.10506878646301171,1.0237228054298189,3.171901406353612,3.4650470149254176
0,11.179333098177981,-2.6746808010458216,-6.616500517349624,-6.14836396692717,3.470047082768019
0,2.0989128343475967,-3.734432052408313,-6.736724481514597,-8.978630250349648,3.475047150610628
0,-5.87150847022495,-4.1841849640313775,-3.3669490825741897,-3.348897439787458,3.4800472184532296
0,-8.571930814986004,-7.723939531971406,-8.497174315502305,-7.989165530525632,3.4850472862958384
0,-11.362354199008772,-10.153695751775507,-6.167400174701525,-10.229434517213928,3.49004735413844
0,5.087221379322442,-4.563453618308613,-1.447626653981733,1.140295606168143,3.495047421981049
0,-9.093204077785211,-2.1732131257264835,-2.227853746651354,-3.2599751537783677,3.5000474898236504
0,-13.423630567678597,-1.9329742676596373,-3.0380814456910623,-7.9002467900687705,3.505047557666259
0,-2.7940580870834864,3.5272629625393677,-1.4583097438450312,1.2894807046199137,3.510047625508861
0,-5.264486631944245,-1.9825014284045295,-5.658538633612826,-0.32079266205789203,3.5150476933514696
0,-12.214916197518813,-2.8822674337689826,-9.308768107159151,-4.581066882247096,3.5200477611940713
0,-12.82534677834719,-3.8820350467396016,-7.578998156115106,-7.921341947904077,3.52504782903668
0,-7.505778368020094,-0.5618042602720886,2.100771228546948,-0.9416178506194215,3.5300478968792817
0,-5.486210959113911,-7.23157506704006,-7.689459943611826,-11.821894581486115,3.5350479647218904
0,-8.09664454336145,-9.76134745934912,-9.689691662619694,-10.432172130990313,3.540048032564492
0,-2.177079111823771,-0.3011214289641594,-2.9799239179747676,-3.5624504888394415,3.545048100407101
0,-5.907514654997948,-4.170896967080893,-4.760156698545137,-6.212729643941916,3.5500481682497025
0,-6.687951162886199,0.16932593549839903,-1.8403899926804224,-4.15300958457311,3.5550482360923112
0,7.121611374946761,9.799547288126357,4.179376211595125,2.6967097014533743,3.560048303934913
0,0.02117296916403244,8.20976709996455,7.049141926313268,7.7064282265360715,3.5650483717775217
0,3.8007336303438928,-0.6600146203586332,4.838907163226093,1.6061460029163799,3.5700484396201233
0,6.490293368798913,-3.58979786471572,-0.6813280663762917,-0.9341369575192394,3.575048507462732
0,8.309852194450487,4.87041737484263,6.448436248399996,10.845579356809088,3.5800485753053337
0,7.31941011664308,0.7106311062403285,1.74820011814489,0.6952949571614901,3.5850486431479425
0,2.7589671440415393,-2.969156662684833,1.317963553149908,-2.174990145589118,3.590048710990544
0,7.2085232846903,-0.5589459241417184,0.7677265634522727,0.04472405919917932,3.595048778833153
0,-9.421921453813875,-7.4187366702190145,-4.792510841029451,0.7544375821591056,3.6000488466757545
0,-11.31236706395104,-8.178528892686412,-6.812748650290116,-8.005849565999206,3.6050489145183633
0,-2.5328135377585306,-6.37832258277325,-2.632986853993823,1.0738626256073769,3.610048982360965
0,2.2267391333730866,4.07188226890473,-0.8732254413743548,3.043574168091147,3.6150490502035737
0,3.996290958400298,4.3620856720833805,0.8665355986416394,2.8632850726240666,3.6200491180461754
0,-4.044158053743951,-5.417712363518404,3.1562962772248233,-0.5970046497768438,3.625049185888784
0,2.1953921057735797,0.8424881717255395,7.536056605428645,9.342705011678296,3.6300492537313858
0,-1.965058554218509,4.032687287462997,3.305816593971943,7.562414067438887,3.6350493215739945
0,4.00448997512565,4.092884993293475,3.195576253115831,5.402122527393366,3.640049389416596
0,6.974037702555229,8.533081298529549,10.935335592654098,6.531830400758653,3.645049457259205
0,-2.3064153634484965,8.913276211969846,11.305094621801809,6.261537696116295,3.6500495251018066
0,1.3031307853038374,8.163469741709278,5.2848533489693885,6.4812444214393485,3.6550495929444153
0,15.082676156767977,6.72366189504544,1.914611781728106,4.280950584096467,3.660049660787017
0,6.162220758461078,8.053852678495115,8.154369927018184,6.130656190885862,3.6650497286296257
0,1.181764597174283,3.074042097862531,-1.9158722086747517,1.1103612480972298,3.6700497964722274
0,-0.8686923209249989,3.094230158350123,-0.9761146191892713,1.0500657616191187,3.675049864314836
0,7.350850010021977,6.394416864696504,5.033642701489546,9.90976973703835,3.680049932157438
0,17.220391595555423,-2.705397778735414,1.1233997592792948,0.42947317959518605,3.6850500000000466
0,-1.2400675594505963,-0.5652137678413964,-2.036843440065782,-1.8308239058639642,3.690050067842648
0,5.589472549071298,2.4949689014058496,1.1529131090936844,5.748878485253448,3.695050135685257
0,-0.7809880753618794,1.7851502330091096,1.91266941237363,5.268580357364259,3.7000502035278586
0,-2.501449429477437,-2.1646697691194916,-6.007574524619167,-2.8017182853941422,3.7050502713704674
0,2.8480884899407855,1.7755088988516001,0.292181303780802,3.567982560840801,3.710050339213069
0,-2.1323743138711486,-5.934313759233285,-3.288063096582185,-2.9923171001977615,3.715050407055678
0,-5.952837837627165,-8.224137739357596,-9.258307719603543,-5.0526172647674645,3.7200504748982794
0,5.076697922096395,0.6660369628773601,3.4814474411755416,2.607082071020809,3.725050542740888
0,0.4462329688491147,2.6162103522729683,7.911202392497081,5.396780911195416,3.73005061058349
0,3.2657673061221093,-1.3736175662128753,5.0309571409982246,1.436479259690786,3.7350506784260986
0,-6.904699062734638,-1.043446787644628,-3.029288307105175,-6.603822879783509,3.7400507462687003
0,13.204833865555699,7.616722692875617,2.050466054066188,5.565874496409471,3.745050814111309
0,-0.345633905879696,-3.573109119863109,-1.6297797697086307,-2.5244286080402896,3.7500508819539107
0,-7.476102374193772,-4.042942221204433,-4.220025772616383,-4.0847321894076645,3.7550509497965194
0,-1.2065715366169663,4.047223393533475,1.0097280512804514,1.2349637561214137,3.760051017639121
0,6.682958609810124,2.877387729104493,4.7694817080471665,1.4846592324985644,3.76505108548173
0,-1.5775119318780797,0.80755079015985,4.4192352036818265,-6.815645756249419,3.7700511533243315
0,-7.887983158729813,0.7377125811477372,-5.7410114560633,-8.3059512059387,3.7750512211669403
0,6.65154493226042,7.847873106326224,7.948741734371914,7.663742887975496,3.780051289009542
0,-7.528927655732205,0.5880323696946732,-0.001505219573300659,1.3134365303035127,3.7850513568521507
0,-0.08940091938968509,0.9181903749228926,-0.061752312636195156,-0.36687027421003926,3.7900514246947523
0,3.380125144748412,-1.5116528745494848,2.2580004602746264,4.382822478977643,3.795051492537361
0,-3.5703494597719185,-0.861497375336512,0.3977531041472262,-1.1274852057559235,3.8000515603799627
0,-3.600824729371139,0.8086568759932466,0.48750562387643415,0.4522066758325408,3.8050516282225715
0,3.948699339642535,5.718809882879307,2.9372580242576216,5.601898127877737,3.810051696065173
0,8.298222751011924,1.1389616486155698,6.007010309936883,3.861589154338735,3.815051763907782
0,-3.792254491733668,-6.900887823713019,-2.9632375146893675,-2.0787202411155254,3.8200518317503835
0,5.687267614615277,6.659261468920035,2.25651455454025,6.300969944915877,3.8250518995929923
0,8.056789072993094,6.539409529528982,7.156266521631722,13.270659715547504,3.830051967435594
0,-2.7236901140113323,-4.630443639085095,-4.443981609602145,-7.779650926585043,3.8350520352782027
0,-7.754169944105294,-3.8602980343441,-3.6242298355171227,-5.689961979247632,3.8400521031208044
0,8.935349585007048,6.489846346354089,7.475521847548214,6.4697265598158555,3.845052170963413
0,5.934868475668158,-2.240010494319008,6.585273443230349,-0.8505853069745765,3.8500522388060148
0,-7.735613269997671,-4.759868553723053,-7.3949750451076,-11.860897577156166,3.8550523066486235
0,-0.3060956500632725,-0.7197278291501571,0.9147763856716664,-5.361210248036558,3.860052374491225
0,3.3834213374691386,-0.8495883176809551,7.094527738704289,-0.5115233163752657,3.865052442333834
0,-4.197062305296264,-4.1894500161939145,-0.5557209829366754,1.198163221563187,3.8700525101764356
0,-2.1675465762087067,-4.6893129213591935,-4.595969776372702,-2.972150630275194,3.8750525780190443
0,4.651968526979759,-2.4291770295404604,-0.03621863877147517,-0.5924648678670149,3.880052645861646
0,-12.198516993361258,-7.019042336720269,-11.446467567091826,-10.10277948703075,3.8850527137042548
0,-12.519003134580398,-7.258908838438187,-6.0667165578602145,-11.303094483183035,3.8900527815468564
0,0.020510106623977675,-0.11877652971187308,-0.3169656070065528,0.5365901489329962,3.895052849389465
0,-2.1099772657080718,-5.598645405071462,-2.8872147099345913,-1.5437255847671063,3.900052917232067
0,-10.200465247044725,-11.178515458618545,-17.55746386164204,-8.934041677958447,3.9050529850746756
0,2.4690461675321624,-4.608386683902648,-4.837713056519544,-0.1643581239855544,3.9100530529172772
0,6.918556983262132,3.721740926161149,4.85203771184432,3.6153250841498212,3.915053120759886
0,-6.631932794572154,-5.0981326209269335,-5.238211549603915,-7.96499204636086,3.9200531886024876
0,-10.022423160716258,-9.718007317439122,-18.57846083362889,-10.615309508141063,3.9250532564450964
0,-3.26291410959313,-9.217883155231046,-5.95871013240449,-3.035627293333152,3.930053324287698
0,-3.9334056350367805,-10.017760125416336,-8.93895943712811,-9.015945393391448,3.935053392130307
0,-8.343897730331186,-8.747638218207356,-7.2092087380336825,-11.186263799064267,3.9400534599729085
0,1.1856096117200585,-5.377517422920732,0.5105419754019425,2.6034174996243067,3.945053527815517
0,-0.29488360129354,-0.5873977281192051,-0.9897072857869404,0.11309851323274511,3.950053595658126
0,-3.225377361571455,-6.267279121842393,-5.429956510297372,-6.4072207474119285,3.9550536635007276
0,-2.2458716611885183,-2.857161591754647,-3.310205686607056,-10.327540271263231,3.9600537313433364
0,-3.4763664920259205,-1.0170451251680015,-1.3904548028849053,0.632139953188396,3.965053799185938
0,-3.8468618456942556,0.43307029088764404,-7.1907038469627835,-3.208180062010727,3.970053867028547
0,-5.517357713475696,2.8831846694997476,-0.8509528063283321,1.1914996955239283,3.9750539348711484
0,4.842145913691504,5.193298023679845,2.6887983318525572,4.4611792382854665,3.980054002713757
0,7.751649045020274,6.933410366161227,1.8085495805514176,6.970858578646612,3.985054070556359
0,1.4811516895064665,0.663521709241705,0.648300952658369,-2.629462271346121,3.9900541383989676
0,3.280653855722778,2.643632064789882,4.118052460896554,4.250216700021499,3.9950542062415693
0,10.280155551826882,9.603741444326376,15.427804117710428,8.509895504207442,4.000054274084178
0,-2.800343214460073,4.863849858953592,2.647555934975527,3.409574152308169,4.00505434192678
0,3.149157564167939,10.913957319169663,12.727307923757806,6.489252654898927,4.010054409769388
0,16.14865789467371,12.36406383470445,15.11706009422359,14.678931021950387,4.01505447761199
0,1.908157783505791,4.554169414382777,6.126812455510562,7.158609262659824,4.020054545454599
0,8.747657236363528,7.724274066125025,3.3765650157082194,13.238287385254885,4.0250546132972005
0,11.08715625818348,11.604377797058655,9.176317782098973,8.237965396932081,4.030054681139809
0,8.416654853116778,11.164480613492431,12.0460707613032,12.797643303862328,4.035054748982411
0,-0.23384697551868044,-1.2854174791688338,-0.40417604080393676,3.077321111218973,4.04005481682502
0,6.9456507749276595,4.064683523748948,3.5655773809568525,9.716998823292805,4.045054884667621
0,2.3551481066590036,0.9747836265192542,2.245331031329577,-3.983323556312166,4.05005495251023
0,-10.785354978412357,-6.1951171667558125,-7.77491508514247,-6.2436460243644705,4.055055020352832
0,-6.835858478323689,-3.785018851926666,-6.275160963854823,-2.223968577577141,4.0600550881954405
0,3.8236376093252065,-2.224921424560339,6.424593400118007,0.7457087876523776,4.065055156038042
0,-10.57686671259599,-4.65482487985797,-7.585651988003797,-5.314613924801553,4.070055223880651
0,-18.67737144075416,-9.654729212637786,-13.205897122769473,-9.784936710810662,4.0750552917232525
0,1.812123428963202,-7.554634417189132,-2.716141998231053,2.664740434164758,4.080055359565861
0,2.531617901524521,1.1354595128547629,-1.8663866077354134,-1.1455824849109861,4.085055427408463
0,3.1611119822712,-5.194447415595633,-3.4666309440952885,-2.6859054628562067,4.090055495251072
0,-3.3993943235348,0.665644804693859,5.023125000144129,0.633771505609008,4.095055563093673
0,-0.28990101073514035,2.955736181131292,5.832881232469591,1.183448425851585,4.100055630936282
0,-0.4704080741298233,-3.4441732788312183,-1.387362239854258,2.203125303245542,4.105055698778884
0,-0.08091550843269438,0.4159164322473867,-0.0176054098427752,1.5328021430594503,4.1100557666214925
0,2.9585766916711607,2.866005321830553,2.8221517293497933,4.292478950385507,4.115055834464094
0,-2.4619314685439937,-0.6739066026337157,-0.24809081549913758,1.4321557300857668,4.120055902306703
0,6.187560016115019,7.816180666178131,3.0816669622811697,7.061832486736608,4.125055970149305
0,11.827051150637015,11.366267135281799,12.58142506914997,9.541509224518572,4.130056037991913
0,3.6565419395166217,2.9763528111119317,-1.818816488852207,-1.5788140529299688,4.135056105834515
0,5.756032386556507,6.296437699390575,4.820942293796696,-2.5191373424455974,4.140056173677124
0,3.8955224949361495,8.436521805202297,9.840701422182914,-1.0894606410149499,4.145056241519725
0,-4.034987732606452,1.196605133047245,2.420460900929888,-4.729783945496857,4.150056309362334
0,0.014501706460140956,-2.173312313070247,-1.969779265851974,-7.750107252477107,4.155056377204936
0,4.163990814659071,3.136769470600926,-2.0800190743487637,-3.2704305581178454,4.160056445047545
0,1.4734795944771502,4.176850487708436,3.2497414792374744,3.019246141884431,4.165056512890146
0,-3.327031951742385,-7.163069258226717,-3.3204976012450915,-8.891077147848833,4.170056580732755
0,-4.527543821702864,-1.4129897637163327,-5.110736311892727,-5.6314004224289675,4.175056648575357
