labels,F4,F3,Fz,Cz,timestamps
0,-27.298232260212657,-27.806597027777247,-16.84977370337212,-25.63065501968715,-2.000019135093776
0,-10.579127013194446,-26.73755041736236,-21.899384350097137,-17.1308791829156,-1.9950190872560398
0,-19.050025870088206,-16.728506469846653,-11.488998922066331,-10.411108335938177,-1.990019039418307
0,6.439071203871935,-14.149465159569749,-12.198617397205485,-3.1113424720174163,-1.9850189915805707
0,4.3181642443895605,-3.880426459071211,8.53176024786179,9.338418416556097,-1.980018943742838
0,-11.692746712573776,2.108609660277667,-2.057865962825941,6.208174337698606,-1.9750188959051052
0,2.4363383690152838,3.7076432276197693,11.702503994805285,4.4879252989455,-1.9700188480673688
0,1.795419525402492,-6.48332572784853,-4.047129855490307,1.0676713072816921,-1.965018800229636
0,-6.28550320700233,-2.5142971769215556,-2.04676749027642,-4.592587630678273,-1.9600187523918997
0,-8.686429791637046,-2.215271090185205,4.423591113781769,-10.412851508331123,-1.955018704554167
0,-27.807360191387833,-5.746247437908585,-17.176054019881906,-17.383120318598728,-1.9500186567164306
0,2.1517056319826064,1.06277380995328,0.9742971324906495,-6.103394053458112,-1.9450186088786978
0,-4.309232282048399,0.3717926836974943,-10.285355404769922,-5.123672703788797,-1.9400185610409615
0,-10.290173893184924,2.290809213711693,-6.965011606685485,-2.143956259623713,-1.9350185132032287
0,4.008880839368764,-2.400176569661427,-2.614671447635565,-6.764244710459521,-1.9300184653654924
0,-6.452068043181058,-9.041164636065286,-2.8843349014190247,-5.8945380453536655,-1.9250184175277596
0,-9.623020499282767,-10.752154954827681,-9.52400194137969,-14.614836252799254,-1.9200183696900233
0,-2.393976486934496,-7.173147494596443,-8.83367254036305,-10.24513932047851,-1.9150183218522905
0,21.085064036278894,12.655857776705927,9.646653329374812,3.1545527648750395,-1.9100182740145542
0,-0.10589888737867348,2.524860891412195,1.0669756959094314,0.9042400172118543,-1.9050182261768214
0,-16.7468652161918,0.11386188157077681,-0.32270541278806775,2.4739224506682573,-1.9000181783390886
0,-17.147834908428678,-7.737139221082239,-6.63238996891732,2.2636000792598217,-1.8950181305013523
0,-5.058807921422014,4.731857615206049,5.537922055376865,6.403272916775597,-1.8900180826636195
0,-7.8297842113003755,1.9508524223258137,-5.741769311907763,2.002940976688473,-1.8850180348258831
0,-0.34076373329354626,2.7398452321184923,15.258535957236194,11.122604272050413,-1.8800179869881504
0,0.38825355788714333,3.2588360761986803,1.2588378905504296,9.352262815342566,-1.875017939150414
0,3.3272677077351016,-0.9521750140681349,1.9491365152845574,3.6619166183032403,-1.8700178913126813
0,9.246278761647858,8.766811992455075,8.279431858206905,10.561565691890952,-1.865017843474945
0,12.345286764593453,4.555797126603073,14.279723945602647,3.011210046360632,-1.8600177956372121
0,5.9642917607826735,1.344780418774931,-2.7099871969322002,2.210849691348079,-1.8550177477994758
0,3.003293793565816,0.27376189896047953,-0.18970154446928933,-1.9395153639426257,-1.850017699961743
0,19.012292905529403,8.402741596878988,2.3705809276108254,3.720114889498917,-1.8450176521240067
0,15.19128913837438,13.011719541895037,3.2508602438360246,3.6297404605691064,-1.840017604286274
0,3.7302825326059432,10.660695762669489,8.871136428535563,0.8293613579685644,-1.8350175564485376
0,-8.590726872346764,-1.250329713069787,-9.798590494293538,-4.701022409804131,-1.8300175086108048
0,11.698260962462498,0.2186431416760537,2.2316794991536835,4.79858916569233,-1.825017460773072
0,-20.182753924052395,-8.712385646339172,-8.18805356719992,-2.031803907074635,-1.8200174129353357
0,-15.393771492632588,-3.663416050169563,-0.7977896691250221,2.767798380327973,-1.815017365097603
0,-12.194791703065258,-2.5544480424442426,0.05247121793204035,0.8173960362475527,-1.8100173172598666
0,-10.055814513797534,-4.605481595357377,-5.677270881227594,-7.923010931021056,-1.8050172694221338
0,5.583160117877678,0.8034833192401309,10.602984058338995,2.736577486908268,-1.8000172215843975
0,12.052132235217076,0.7724467297256052,7.683236061480386,7.196161298563572,-1.7950171737466647
0,-0.22889811870076082,-3.08859133542576,-2.2365148473777787,13.925740512301056,-1.7900171259089284
0,9.920069098633377,5.010369152286907,8.513731355688732,17.565315135749668,-1.7850170780711956
0,1.4990339291594954,10.819328221265474,15.803974694130076,18.09488517529986,-1.7800170302334593
0,-3.21200358563069,-1.3517141004564206,10.044215190648005,11.21445063580833,-1.7750169823957265
0,4.686956595510534,-0.8627577853045408,-6.425547133033067,5.004011520655325,-1.7700169345579901
0,-3.5640854862420666,-0.8638028059236719,-12.50531225575949,3.1935678321218273,-1.7650168867202574
0,-9.62512978967007,-4.094849134913668,-5.735080156143604,-9.506880428096768,-1.760016838882521
0,-5.016176273254427,-16.455896744614023,-14.114850812021077,-7.147333258336644,-1.7550167910447882
0,-18.84722489482985,-13.256945606706472,-3.1146242003114355,-5.1777906564897584,-1.7500167432070555
0,9.521724388610064,-3.307995691824288,6.245599702835716,10.641747380086796,-1.7450166953693191
0,13.040671620628965,1.7009530303798994,4.23582092158454,11.73128085412544,-1.7400166475315864
0,16.109616844516957,0.9899005907497758,8.54603947987809,4.6608097678269305,-1.73501659969385
0,14.718560102488695,-2.2611529797824725,4.116255401137767,5.150334122589871,-1.7300165518561172
0,3.6775014354138857,2.5677923496979282,1.526468708223082,1.3698539191587435,-1.725016504018381
0,1.4764408830541669,4.4767366100634565,-1.0733205764223008,-2.2406308421149093,-1.7200164561806481
0,4.685378484516256,3.3756798320124703,2.096887569451408,-6.601120160988044,-1.7150164083429118
0,5.174314278528123,-2.7753779540341594,-1.8529068319695976,2.1483859629462274,-1.710016360505179
0,-14.996751696446758,-7.996436717787441,-1.35270375850512,-16.702112469567886,-1.7050163126674427
0,-1.7078194018809296,-6.457496428732191,-6.102503187881318,-13.412615457201522,-1.70001626482971
0,-32.168888798616976,-21.818557055723968,-25.492305097439402,-21.643122997569947,-1.6950162169919736
0,-23.059959846176092,-12.289618566565146,-25.102109463479643,-21.643635086746407,-1.6900161691542408
0,-26.73103250204991,-28.360680927582585,-26.001916260444766,-30.12415171887427,-1.6850161213165045
0,-16.55210672133913,-27.41174410322651,-21.85172546043596,-26.4746728858025,-1.6800160734787717
0,-8.273182456959361,-7.542808055765374,-2.1715370332929864,-12.815198576898707,-1.675016025641039
0,9.655740339713548,-2.41387274550243,-0.901350947213406,-4.795728779356024,-1.6700159778033026
0,19.074661717819684,-0.594938131562986,-0.25116716960094276,-3.636263478933093,-1.6650159299655698
0,11.413581725916133,14.233995827294443,16.16901433226696,3.9431973393247297,-1.6600158821278335
0,11.002500411331742,10.502929172027061,12.119193590689994,8.192653690553655,-1.6550158342901007
0,-6.198582179774058,4.581861942817621,15.029370637001643,10.262105589601854,-1.6500157864523644
0,9.120333998057674,8.420794178959554,4.299545501308792,9.231553050637839,-1.6450157386146316
0,8.4692489899014,12.989725918951907,12.949718212591497,22.000996086873354,-1.6400156907768952
0,39.57816284013387,27.408657200328115,29.529888798739034,29.650434710166557,-1.6350156429391625
0,0.927075591670032,2.1075880592330503,9.020057286196177,6.539868930522996,-1.6300155951014261
0,-3.8540127142822596,2.4565185303773527,-4.399776300205129,1.1292987561073045,-1.6250155472636933
0,-16.915102037368072,-7.99455135236392,-12.729611936574893,-5.401275806005899,-1.620015499425957
0,-2.69619233692588,9.144378444716311,11.440550400977607,7.498145250963002,-1.6150154515882242
0,-0.1972835715217811,-3.306692044658818,-10.33928926335474,-3.8424380662355264,-1.610015403750488
0,3.121624300797884,7.512237213114531,12.830869094712908,2.676974249076697,-1.6050153559127551
0,6.620531322046096,4.211166251378694,8.561025499277726,1.876382203492442,-1.6000153080750223
0,12.459437533906145,4.280095103097443,8.911179973887528,4.095785803483691,-1.595015260237286
0,8.768342977387988,-0.4509761991832395,9.821332541251447,1.3851850553036686,-1.5900152123995532
0,16.077247692554387,11.767952376716968,7.1514832231828525,1.4745799649517242,-1.585015164561817
0,5.646151718379049,5.856880862543278,14.02163204060868,-1.3160294617625838,-1.5800151167240841
0,3.87505509279692,0.26580928945122095,-1.698220986430258,0.013356780889820064,-1.5750150688863478
0,5.123957852966607,4.174737688066958,8.771924161348585,12.562738698564786,-1.570015021048615
0,18.102860035434826,11.093666088623138,13.702067502607537,25.6421162964788,-1.5650149732108787
0,11.101761675924413,8.872594520834028,19.93220905519004,18.141489578662195,-1.560014925373146
0,16.460662808977037,9.201523013633112,16.052348835652065,14.300858547372957,-1.5550148775354096
0,12.119563467783093,2.9704515950917303,-1.8275131409452927,4.430223203132129,-1.5500148296976768
0,5.908463684219232,12.009380292516592,4.832623139319514,-1.5504164547599408,-1.5450147818599405
0,-6.382636510853425,0.6283091325310781,-2.5872423101798914,-0.9510604275790776,-1.5400147340222077
0,-7.313737086985262,6.437238141137314,5.312890523731399,-0.2617087167139073,-1.535014686184475
0,-1.0048380135273292,2.9761673438288687,-2.6869783458973875,-0.0023613235025002344,-1.5300146383467386
0,-13.315939259337803,2.415096765688784,1.40315109387923,-6.763018249198644,-1.5250145905090058
0,3.7629592072795113,-7.095973568485201,-4.626721144013485,-10.813679494813321,-1.5200145426712695
0,-3.2481425814949874,-5.367043633889272,-10.776595046491432,-11.554345060776212,-1.5150144948335367
0,-25.649244593053126,-23.968113405261107,-17.68647059994846,-16.385014946574717,-1.5100144469958003
0,-16.16034679395549,-21.67918285626827,-21.70634778971831,-6.975689150529208,-1.5050143991580676
0,-16.841449149273707,-16.750251958899266,-9.016226599614255,-8.356367669792952,-1.5000143513203312
0,5.9274483775296805,-4.701320683297391,-5.426107011907254,-4.607050500563846,-1.4950143034825985
0,-10.613654175922829,-2.9223889981884312,-5.95598900773543,-1.9477376383412857,-1.4900142556448621
0,-5.6747567714240095,-5.003456871484621,-6.895872567499136,-3.588429078139738,-1.4850142078071293
0,6.164140629680445,-6.124524270615928,-2.055757671013827,-1.2291248146459437,-1.480014159969393
0,5.433038066290468,4.32440883739287,7.284355702340851,1.1201751576835912,-1.4750141121316602
0,6.62193557711249,7.9433424857271255,3.5944675732646623,2.5594708444935734,-1.470014064293924
0,16.060833200278125,15.622276707304756,11.724577962125396,4.7787622513482555,-1.4650140164561911
0,-8.190269026832336,-9.808788465634782,-4.535313111263893,-11.881950616345527,-1.4600139686184583
0,12.078628932504854,-1.759853001393159,-0.5852056275362231,-9.352667753078736,-1.455013920780722
0,6.467527114548801,-5.780916868264328,-2.485099567437082,-4.523389152784379,-1.4500138729429892
0,-5.293574444907241,-16.411980034093496,-12.834994911512318,-6.994114808640983,-1.445013825105253
0,-1.9146757104095222,-17.973042465903074,-14.964891639772244,-5.064844713160743,-1.4400137772675201
0,1.614223353495646,-0.48410412952396853,-3.264789731309861,2.9144211416719505,-1.4350137294297838
0,3.80312278235726,-2.525164989668482,0.25531083573525026,9.123682764130185,-1.430013681592051
0,8.272022611602955,5.873774989532519,6.145410083740391,6.942940162281067,-1.4250136337543147
0,-5.569077123674729,-2.3472841559678748,2.785508035078372,-0.00780665635033595,-1.4200135859165819
0,-1.5101763886433472,5.02165760966038,7.2756047117981435,-4.408557684705427,-1.4150135380788456
0,3.2987248515261953,15.630600321987917,15.255700135426391,0.2606870841551848,-1.4100134902411128
0,11.697626631651246,21.079544015914195,8.095794326698105,-0.7300723427107083,-1.4050134424033764
0,25.166528986061028,15.728488725050894,17.405887305293295,3.7891640418456456,-1.4000133945656437
0,13.255431947893234,12.277434481370497,15.925979089659528,9.48839624487163,-1.3950133467279073
0,5.924335548701889,15.24638131527048,13.846069696846959,5.7576242730252005,-1.3900132988901746
0,1.0532398187225591,3.145329255798446,3.896159142489031,6.5068481323502585,-1.3850132510524418
0,-4.9978552124968285,0.7642783309688299,5.486247441092292,2.476067828253183,-1.3800132032147054
0,8.571050484397194,-1.97677143177133,-0.10366539354655124,-0.30471663435375496,-1.3750131553769727
0,6.139956938633697,-3.757820005101474,1.5864206519822357,-0.9155052508300425,-1.3700131075392363
0,8.87886417903968,-10.888867361508721,-9.21349440904749,-14.396298016513233,-1.3650130597015036
0,-19.922227766055247,-7.499913472988293,-11.203410563157782,-24.5570949262154,-1.3600130118637672
0,-4.063318868337182,-3.680958310829563,-4.963327796269273,-20.9978959734724,-1.3550129640260344
0,26.34559090091996,6.517998154290333,8.786753906388354,-8.698701150002794,-1.350012916188298
0,6.434501570340838,11.89695595184647,9.236834559825816,1.640489554128754,-1.3450128683505653
0,15.793413167555862,13.36591511084019,6.746914178655954,0.4796761497946782,-1.340012820512829
0,9.122325718903117,14.914875659285073,10.086992776744465,1.4288586481261283,-1.3350127726750962
0,-8.88876075034157,13.163837623934429,7.227070367142595,4.408037060187744,-1.3300127248373599
0,-4.289846215416508,8.33280103022706,0.03714696213654267,-3.56278860311501,-1.325012676999627
0,-1.2809306514416359,3.1317659024544824,-3.7627774265166223,-17.033618330884657,-1.3200126291618908
0,-22.562014033050716,-11.839267735811724,-15.802702787110164,-17.294452111690184,-1.315012581324158
0,-25.00309633397002,-16.180299861010564,-19.792629107339813,-16.475289932896292,-1.3100125334864252
0,-2.4341775264212098,-2.961330448863655,-1.652556373741001,-0.40613178039633724,-1.3050124856486889
0,-15.955257580998824,-15.792359474063929,-17.382484571571666,-6.716977638906547,-1.300012437810956
0,-13.316336466992015,-11.073386910278183,-10.372413684964878,4.032172507518775,-1.2950123899732198
0,-5.677414152537469,-13.764412730071893,-5.292343696973295,4.871318675051501,-1.290012342135487
0,24.031509395109524,-1.395436904860429,2.1177254102791583,9.90046087970353,-1.2850122942977507
0,-8.299565791210869,1.6235405948341204,5.417793655134448,2.1595991369981222,-1.2800122464600179
0,-0.24063967911480733,5.152519798872221,7.5178610558727215,9.318733461843852,-1.2750121986222815
0,0.16828776354001507,10.621500736982634,8.927927630319335,5.727863868537672,-1.2700121507845488
0,6.667216568915247,5.310483438383688,8.227993395611888,0.9769903707785501,-1.2650121029468124
0,18.53614676894705,11.64946793157059,13.21805836806536,-0.803887018203488,-1.2600120551090797
0,5.365078394843015,6.828454244228823,1.188122563102561,-1.994768285378519,-1.2550120072713433
0,-7.355988523117597,4.917442403228222,6.188185995340917,2.714346582286921,-1.2500119594336105
0,1.5529460448273364,14.536432434665091,6.8282486787916685,9.733457597786144,-1.2450119115958742
0,10.801882128361305,1.615424363854978,3.878310626939171,7.222564773786674,-1.2400118637581414
0,3.030819756975668,-0.30558178461659924,1.4483718527577776,8.811668122317126,-1.2350118159204087
0,3.439758959680166,-3.6765859865769017,-5.981567631121914,0.42076765467060984,-1.2300117680826723
0,-7.8413002349351695,-9.587588217822296,-1.3915078121048858,-3.750136618403481,-1.2250117202449395
0,6.937642201603163,-13.138588453703228,-10.551448677338925,0.9189553136563631,-1.2200116724072032
0,-20.163413702092956,-0.5695866688060105,-9.461390213468025,-0.6319565385349322,-1.2150116245694704
0,-2.7144679169881982,-0.5905828369626915,1.6486675935385398,-0.3128721642888127,-1.210011576731734
0,-3.9055204133405765,2.258423068393859,5.88872475824716,8.14620844706417,-1.2050115288940013
0,7.91342883918491,6.88743107384938,4.828781295285823,2.2452853060032147,-1.200011481056265
0,-28.367620128764084,2.7564412057405607,2.838837218949964,-0.8556415773286312,-1.1950114332185322
0,11.671332713901876,6.4554534899946185,-0.4011074568618545,0.2834278069527103,-1.1900113853807959
0,-2.2897126011300797,3.934467952075309,4.4089472814752195,1.362493468642867,-1.185011337543063
0,13.709243958015206,5.483484616972585,4.789001447365543,-4.1584445824736935,-1.1800112897053268
0,-4.16179757712301,-2.9774964907571086,-5.690944946037426,-23.379386336419863,-1.175011241867594
0,3.997162824554656,-6.218475346781872,-4.90089188569135,-16.61033178243146,-1.1700111940298576
0,-8.303874806066435,-2.1994519266541084,-8.710839358317532,-15.551280908298175,-1.1650111461921249
0,-14.974910437936096,-11.480426205536318,-21.760787350003767,-16.582233700127972,-1.160011098354392
0,-12.735944039329882,-4.811398158032184,-11.700735845764168,-8.883190142457273,-1.1550110505166558
0,-9.446975577431498,-3.6323677580956795,-5.510684829258599,-0.4841502185165584,-1.150011002678923
0,-11.838005018241823,-0.1933349791218092,1.4093657169902256,2.7448860892810414,-1.1450109548411866
0,-6.889032326685055,-4.8542997941520225,-10.370584188893506,-5.0860812011776915,-1.1400109070034539
0,6.449942533183274,6.51473782397567,7.839465471573341,7.182947928038644,-1.1350108591657175
0,9.188919597691763,1.7737779024579443,8.729514717007326,7.901973494761682,-1.1300108113279848
0,31.727898902756277,14.562820468241478,9.45956356571396,6.890995516432077,-1.1250107634902484
0,1.126880483062886,9.271865547667065,9.479612035262287,8.260014009840836,-1.1200107156525156
0,8.31586437179726,15.070913166144114,20.61966014226008,7.899028991041018,-1.1150106678147793
0,9.54485060101421,9.519963347952112,4.739707902154189,0.0580404753761008,-1.1100106199770465
0,14.973839201920942,0.04901611627422109,2.869755329216734,-5.232951522312466,-1.1050105721393102
0,-0.5571697951938852,5.698071493485765,3.7598024368942315,-3.5539469872786533,-1.1000105243015774
0,-18.948176360743695,-8.472870498450074,-8.530150761752067,-12.974945904468518,-1.095010476463841
0,-14.909180464991863,-8.263809837580716,-1.7901042536788925,-10.3959482581928,-1.0900104286261083
0,-3.8501820772008184,-6.784746501540807,-3.040058025577573,-12.076954031843364,-1.0850103807883755
0,-3.631181165507053,-1.9856804673139417,-2.480012063800504,-9.607963207740758,-1.0800103329506392
0,5.98782230262295,-4.19661171130939,2.0500336455544486,-9.658975767140944,-1.0750102851129064
0,10.67682835982982,-0.547540209542796,-2.9799208834677264,-2.139991690342491,-1.07001023727517
0,-20.404162961488524,-3.158465937754029,-6.559875636703619,-7.821010956884322,-1.0650101894374373
0,-8.775151628897941,-5.349388871439434,-6.119830599720091,-1.8920335457310145,-1.060010141599701
0,2.773862390681967,5.609691014155275,3.040214242346368,3.286940564575332,-1.0550100937619682
0,8.732879130962617,8.718773743869937,4.910258904656808,2.785911395667971,-1.0500100459242319
0,12.81189862560192,5.877859342241055,12.730303402253455,4.944878969056045,-1.045009998086499
0,2.9509209075944733,14.576947833150891,8.90034774959809,-0.01615669404236053,-1.0400099502487627
0,3.819946009142549,11.716039239594133,10.17039196027031,6.132804427286497,-1.03500990241103
0,11.838973961809845,2.5251335835360362,1.9304360469256903,5.281762353637032,-1.0300098545732936
0,-6.351995203379053,-7.365769113893453,-5.679519978458704,7.150717105177931,-1.0250098067355609
0,8.30703854416197,-7.216668831807434,-4.559476104111792,8.329668701511267,-1.0200097588978245
0,2.6360752347201415,-8.887565548953212,-6.139432318015927,7.4286171615634125,-1.0150097110600917
0,-8.894885101647574,-12.188459243359361,-19.309388607592563,-3.4024374964093145,-1.010009663222359
0,3.614157565050192,-11.379349892143441,-13.499344959342034,2.416504745398583,-1.0050096153846226
0,-7.436796735027453,-4.860237471410334,-5.359301358519254,4.115443904602747,-1.0000095675468899
0,-4.307747971446788,6.15887804358209,2.0107422107382296,8.694379998614266,-0.9950095197091535
0,-2.38869611341462,-3.3320033220246654,-10.919214235045953,-8.626686955503033,-0.9900094718714207
0,12.040358870161814,-2.462881543030344,-5.94917067890754,-2.0177569408962626,-0.9850094240336844
0,5.429417010286745,-0.44375659417081226,-0.7791271033506584,-3.0888299405653794,-0.9800093761959516
0,-1.241521662514679,-8.384628449985982,-9.169083490332547,-9.529905937146625,-0.9750093283582153
0,-18.832457118050677,-4.255497084689814,-7.299039821303889,-10.570984912765296,-0.9700092805204825
0,-7.8133893257830636,-4.096362472035143,-3.478996077125833,-17.312066848748348,-0.9650092326827462
0,-3.1543182542781567,-2.87722458529564,-5.008952238049235,-15.413151725270122,-0.9600091848450134
0,4.484756128696872,-0.9980833973642305,-1.688908283832971,-12.254239521107475,-0.9550091370072771
0,-6.7061661442712905,-2.338938880864405,-0.7488641938778451,-10.885330213623421,-0.9500090891695443
0,-4.08708504044891,-4.619791008203583,-4.9188199473309275,-8.576423778935329,-0.945009041331808
0,7.041999473110774,1.169360248444276,-3.678775523099134,-11.777520192089213,-0.9400089934940752
0,-17.168912570428304,-8.07148508284342,-9.618730899732325,-24.79861942704246,-0.9350089456563424
0,-0.3398211375982567,-9.0823269736525,-8.068686055238137,-24.409721456292022,-0.9300088978186061
0,-1.8707261944307678,-2.0131653950413755,-4.02864096693289,-27.94082625032769,-0.9250088499808733
0,6.698372293433987,1.4959996824930863,8.70140438846392,-24.531933777240862,-0.920008802143137
0,18.527474360262286,11.14516828869325,12.611450034346191,-10.993044002693047,-0.9150087543054042
0,28.32658003949852,10.934340453013311,16.831495993527625,-2.254156890338911,-0.9100087064676678
0,19.35568936295127,13.843516204125626,22.98154228762418,0.9047275973849089,-0.9050086586299351
0,26.064802360273212,15.192695569592885,20.10158893659505,9.17360949846371,-0.9000086107921987
0,28.873919058795572,9.871878575707836,16.531635958482287,4.252488850722201,-0.895008562954466
0,20.46303948342645,14.081065247478843,18.041683369419886,2.011365691525649,-0.8900085151167296
0,7.662163656721968,5.4602556087227905,1.2317311838618386,-3.2097599421741103,-0.8850084672789968
0,2.0712915994297303,-1.7105503177129333,0.2717794150458386,-4.210888013554452,-0.8800084194412605
0,-1.299576668699808,2.7586474904412195,-2.348171924367246,2.4479815143371466,-0.8750083716035277
0,15.169558871636912,9.727849055172106,13.061877178111105,9.326848678556873,-0.870008323765795
0,7.578698239277846,10.66705439807294,7.661926734676043,10.255713515903809,-0.8650082759280586
0,20.86784145221462,7.4262635400190975,-0.008023243084948894,6.524576062512864,-0.8600082280903258
0,31.976988527097433,13.855476500978032,18.122027255722248,24.63343635359335,-0.8550081802525895
0,28.876139478582274,21.664693299857255,20.232078241159826,26.532294423048942,-0.8500081324148567
0,5.055294318869881,11.263913954216408,10.322129722027938,20.291150302891356,-0.8450080845771204
0,10.324453058013741,12.623138480089764,16.232181705594403,23.190004022889173,-0.8400080367393876
0,8.13361570468386,-3.4076331077980515,2.8222341977363485,3.4188556106879116,-0.8350079889016513
0,17.01278226657298,7.641599204446339,12.372287203218006,18.14770509223623,-0.8300079410639185
0,-11.808047249548629,-8.149164569671683,-7.067659274015217,-5.243447507739637,-0.8250078932261822
0,12.401127162419996,-0.08992441672022092,-1.567605230456253,-0.3146021652727634,-0.8200078453884494
0,18.510305508132316,13.049319676786869,7.032449337337561,2.9442411433247866,-0.8150077975507131
0,0.8994877925157858,8.108567724124367,7.072504432748232,-8.996917558249871,-0.8100077497129803
0,0.14867401956937176,1.3278197379368921,3.982560058785679,-2.118078246133862,-0.805007701875244
0,-1.212135807263044,-1.8729242697658013,-9.877383781996432,-11.60924089608415,-0.8000076540375112
0,-8.792941684595165,-6.963664287211592,-4.537327087137984,-11.270405483226929,-0.7950076061997784
0,-10.373743608727874,-13.87440030238684,-10.597269853782313,-12.781571981806412,-0.7900075583620421
0,-5.044541575329079,-10.255132302586444,-5.31721207840056,-11.382740364979007,-0.7850075105243093
0,-1.2653355793356127,-11.1558602740993,-8.567153756724343,-13.673910604728244,-0.780007462686573
0,6.803874384795407,-3.596584202165835,0.5029051162003677,-10.225082671846867,-0.7750074148488402
0,-3.7169116773038295,0.8026959287973816,-0.16703545417673218,-16.306256535924728,-0.7700073670111038
0,1.2923062398944563,5.201980134788364,-1.3869754621713422,-12.65743216530233,-0.7650073191733711
0,-6.588471858095731,0.5512684318015716,-2.766914902002278,-9.36860952702638,-0.7600072713356347
0,-0.7592459655930291,-3.44943916434923,-10.1868537677064,-5.129788586962267,-0.755007223497902
0,18.839983923219247,0.23985736208111563,-6.666792052897428,1.8990306898870641,-0.7500071756601656
0,-6.79078218607919,-7.340841973042847,-14.516729750489732,-3.042151661015663,-0.7450071278224328
0,-13.391544288291499,-9.981537153544958,-15.906666852438596,-7.36333560397768,-0.7400070799846965
0,-14.952302378009296,-16.682228162621346,-14.796603349468102,-9.584521102971145,-0.7350070321469637
0,-14.333056448834153,-17.702914982411688,-14.496539230877332,-14.735708121313866,-0.7300069843092274
0,-15.613806493008253,-16.893597593625255,-13.886474484512553,-5.986896621380461,-0.7250069364714946
0,-15.414552501331542,-10.484275975381678,-13.806409096810842,-7.68808656453641,-0.7200068886337618
0,8.934705536727224,1.7150498945932293,-2.1663430529094203,2.110722088662859,-0.7150068407960255
0,-11.746032367415335,3.7743800394119047,-8.516276336910257,1.77952937811621,-0.7100067929582927
0,-4.58676620188547,8.713714482336608,8.363791067741204,5.73833534379045,-0.7050067451205564
0,7.5525040455623085,7.123053246258991,6.723859177802505,2.7371400254266405,-0.7000066972828236
0,26.841778387225006,1.8423963534643462,-1.886071990205278,-3.7940565375431134,-0.6950066494450873
0,-7.668943165299915,-1.9082561742896698,-4.526002420086128,-4.615254305817476,-0.6900066016073545
0,2.8903393986176855,8.561095684454795,15.094067904229549,11.033546759987699,-0.6850065537696182
0,11.989626089045007,8.640451950875931,10.484138998549252,8.682346699179341,-0.6800065059318854
0,26.628916915512796,6.399812645624849,8.854210877942977,3.921145550560704,-0.675006458094149
0,9.31821188638513,7.979177788636187,15.35428355644699,15.249943352189497,-0.6700064102564163
0,19.537511008398038,12.878547399075206,11.094357046986932,14.07874014124471,-0.6650063624186799
0,19.616814286630174,15.887921495197304,15.40443136128303,14.75753595376725,-0.6600063145809472
0,4.596121724551943,14.547300094078084,7.834506509800606,5.976330824492156,-0.6550062667432108
0,20.63543332414703,6.496683211457304,12.84458250180849,0.5851247870307659,-0.650006218905478
0,6.074749086095466,7.0660708618765655,2.254659345521159,-2.9360821256645098,-0.6450061710677453
0,4.294069009917488,10.205463058955088,5.49473704831085,-4.407289880800609,-0.6400061232300089
0,-0.5166069057200748,3.95485981553429,-4.935184382997316,-12.408498445344872,-0.6350060753922762
0,-1.7772786625579302,14.704261143685734,0.5548950582046857,3.1102922142480707,-0.6300060275545398
0,10.512053737520006,14.35366705459934,-0.7550246214508088,-2.400917867959844,-0.625005979716807
0,11.451390292356288,21.833077558286526,13.315056584672481,1.467871342359135,-0.6200059318790707
0,17.23073099907117,43.68249266305571,30.335138682745125,12.226659879509215,-0.6150058840413379
0,31.720075853509083,48.61191237461783,34.4752216775185,21.055447777354914,-0.6100058362036016
0,26.99942484960522,32.891336695085684,27.395305571309834,19.40423506866219,-0.6050057883658688
0,25.56877797883348,29.650765622618085,24.85539036353847,24.613021784498926,-0.6000057405281325
0,13.598135230098944,19.53019915188141,23.17547605085208,14.431807953950205,-0.5950056926903997
0,29.34749659001229,21.699637274754593,27.285562627384177,20.360593604124233,-0.5900056448526634
0,21.65686204305379,21.669079980820303,19.52565008486457,6.3493787603520575,-0.5850055970149306
0,22.36623157148116,21.888527257551416,24.24573841268901,14.928163446472976,-0.5800055491771943
0,6.925605155377335,10.227979090386741,8.835827598089585,8.196947685097037,-0.5750055013394615
0,8.454982773081255,24.117435462909846,21.185917626426722,24.125731497664788,-0.5700054535017287
0,23.614364401653027,17.216896356973447,16.856008481410818,18.054514904217,-0.5650054056639924
0,16.753750016862103,16.39636175264802,14.616100145115622,13.34329792310219,-0.5600053578262596
0,1.6031395929495145,17.91583162821718,14.826192597983718,20.522080570922153,-0.5550053099885233
0,-0.20746689712003663,1.265305960355533,3.1162858190035734,14.930862862613392,-0.5500052621507905
0,-5.828069480951807,-17.105215275347675,-8.913620213857126,-5.030355188404142,-0.5450052143130542
0,-30.508668185956473,-30.475732103283427,-33.78352552277295,-25.281573569561125,-0.5400051664753214
0,-45.06926303831993,-33.64624454641062,-44.52343012866438,-24.942792267825066,-0.535005118637585
0,-32.47985406167426,-26.54675262518553,-35.99333404971647,-22.664011268463632,-0.5300050707998523
0,-35.32044127622135,-28.197256357170186,-33.82323730052871,-26.915230554470515,-0.5250050229621159
0,-29.10102469865577,-22.917755757126447,-31.133139892082514,-25.236450106441758,-0.5200049751243832
0,-3.5516043425856942,-11.978250837303491,-19.21304183210147,-12.447669902595695,-0.5150049272866468
0,4.0378197805617475,2.3312583920120185,-16.972943125557336,-13.228889919051912,-0.510004879448914
0,17.247247660211496,12.980771921565747,-0.9428437753365,-6.920110130332722,-0.5050048316111777
0,24.126679285336248,6.050289742095442,4.097256216948425,-6.821330509809588,-0.5000047837734449
0,-3.203885356364742,-6.3901881562265395,0.14735685015043296,-6.322551029999841,-0.49500473593571215
0,-3.2044462784217753,-27.010661783459902,-16.442541876804967,-24.253771662620178,-0.4900046880979758
0,-43.57500349459678,-10.53113114893488,-11.362439964622272,-21.48499237822671,-0.48500464026024304
0,-46.47555701725922,-30.011596260437607,-30.372337412971422,-22.776213145632294,-0.4800045924225067
0,-49.906106855654336,-24.342057123793477,-8.472234219917429,-13.957433931596658,-0.4750045445847739
0,-33.15665301483151,-15.982513742620508,-11.502130381762147,-12.888654700957265,-0.4700044967470376
0,6.812804504147023,-1.9329661184518807,-8.412025893358022,-5.209875417012183,-0.4650044489093048
0,-2.557734297223402,-3.233414251394431,11.848079251386068,2.0889039580056257,-0.4600044010715685
0,-16.768269416419987,-15.66385814077301,-6.281814941049055,-3.522316537578161,-0.4550043532338357
0,4.001199149593001,-10.974297785201925,-4.001708464163821,1.4364631347683603,-0.45000430539609937
0,16.820671404285577,5.485266817601721,20.32839868850734,13.80524301356819,-0.4450042575583666
0,-1.4898526489955524,3.2548356705685815,2.258506523147787,6.374023136989521,-0.44000420972063026
0,3.369626992501971,8.314408776662269,4.938615045250074,13.662803542443813,-0.4350041618828975
0,1.9191103310579805,15.413986138364356,10.178724259570282,15.251584266340206,-0.43000411404516115
0,4.938597368685541,10.553567757300035,18.858834170142963,10.2803653439145,-0.42500406620742837
0,40.03808810689116,25.293153633898655,17.968944779927924,16.20914680912536,-0.4200040183696956
0,36.347582545737,31.82274376696798,23.659056090337277,14.467928694618436,-0.41500397053195925
0,41.0570806825563,36.5823381530437,29.899168100846683,15.666711031656533,-0.4100039226942265
0,31.676582511155782,37.27193678570064,32.739280808587935,14.225493850047869,-0.40500387485649014
0,43.33608802167886,53.921539655012836,46.209394207836276,26.654277178069666,-0.40000382701875736
0,46.415597200553414,61.251146746922,50.19950828936839,31.03306104217091,-0.39500377918102103
0,68.67511003005332,68.66075804236034,56.339623039728124,35.26184546641527,-0.39000373134328825
0,56.374626487493316,52.09037351649356,42.289738440671194,24.100630471991767,-0.3850036835055519
0,59.54414654455083,50.82999313858099,50.119854469056634,27.629416077127956,-0.38000363566781914
0,34.803670167226926,49.859616872392984,37.34997109707354,18.818202297336143,-0.3750035878300828
0,44.643197316436506,47.8392446766515,44.72008829252499,25.756989145702757,-0.37000353999235003
0,41.99272794868837,34.528876505326295,25.160206019130168,12.075776633106381,-0.3650034921546137
0,32.99226201642534,33.45851230807234,30.210324236962233,17.614564768457274,-0.3600034443168809
0,27.43179946828841,27.68815203083063,27.370442902957855,24.383353558904627,-0.3550033964791446
0,28.921340249573884,23.657795616370024,18.66056197128398,19.10214300979371,-0.3500033486414118
0,22.560884302675998,20.147443004724042,18.700681393651045,19.75093312449084,-0.345003300803679
0,15.850431567416894,13.077094133613784,14.270801119695175,18.33972390437215,-0.3400032529659427
0,7.969981981489694,0.42674893895848065,-1.2090789025917408,6.208515348992032,-0.3350032051282099
0,2.7295354810713692,-2.4835926444298364,-0.8089587262741822,4.707307456460046,-0.3300031572904736
0,-2.2709079985272407,-4.803930682106293,3.751161595163441,6.546100223936323,-0.3250031094527408
0,-11.141348522263542,0.4457347604886732,-2.248717991869121,3.014893647968903,-0.32000306161500447
0,13.888213845061024,1.9954036181251982,2.371402458968243,6.173687724603011,-0.3150030137772717
0,3.4777790387302767,3.705075825618261,12.391522893878456,14.092482449350051,-0.31000296593953536
0,2.2273469937081973,-3.385248682341623,0.7016432587036052,9.371277816981639,-0.3050029181018026
0,-3.423082355472487,9.574430028774094,8.46176349872046,10.460073821294591,-0.30000287026406625
0,5.236490925522336,1.9841118932694082,2.4718835586429684,10.908870455041198,-0.29500282242633347
0,1.5960667709388727,-10.896203154823136,-5.707996617242193,0.3676677100099011,-0.29000277458859713
0,-7.324354885092635,-8.466515181439362,-4.157877084784659,-2.353534422715802,-0.28500272675086435
0,-7.6147741083821625,-2.746824252000482,-2.4777578996212375,2.015264047649935,-0.280002678913128
0,-8.135190964307304,-7.63713043125227,3.912360882924462,0.9640631118485472,-0.27500263107539524
0,-9.505605517543358,-5.657433783346738,9.232479207603056,-4.977137239390243,-0.27000258323766246
0,-7.696017831960143,-21.757734371768645,-18.487402981003868,-12.828337015207552,-0.26500253539992613
0,-17.44642797054203,-16.41803225896297,-23.347285738140307,-12.139536224212064,-0.26000248756219335
0,-28.27683599511414,-22.268327505861055,-19.917169117933458,-9.480734874075038,-0.255002439724457
0,-24.72724196577991,-11.528620171617266,-14.46705317269063,-6.701932971409518,-0.25000239188672424
0,-14.967645940445028,-0.46891031375677583,-14.086937952871704,-4.0931305219209095,-0.2450023440489879
0,-10.868047974886718,-6.089197988692629,-17.576823507332417,-4.87432753063565,-0.24000229621125513
0,-10.238448123232988,-19.03948325214066,-17.046709883407576,-10.325524002028361,-0.2350022483735188
0,-37.158846438226036,-41.42976615879658,-32.196597126746845,-20.166719939880377,-0.23000220053578602
0,-40.819242970723444,-30.05004676131754,-31.086485280892006,-19.24791534684439,-0.22500215269804968
0,-33.93963776870976,-30.290325109430476,-28.25637438675582,-14.179110223999295,-0.2200021048603169
0,-40.16003087664035,-33.09060124970073,-26.386264482379712,-14.340304570735995,-0.21500205702258057
0,-31.730422335339377,-34.40087522558785,-31.666155602984624,-11.4714983849154,-0.2100020091848478
0,-8.590812182263226,-26.331147077424212,-23.426047781036363,-7.52269166308766,-0.205001961347115
0,-35.70120045209912,-31.49141684246188,-30.035941046276086,-19.053884400649206,-0.20000191350937868
0,-35.87158717711495,-20.751684555059256,-27.305835425759238,-17.085076591786603,-0.1950018656716459
0,-14.91197238690712,-5.351950247035521,-14.755730943926977,-0.6862682293169939,-0.19000181783390957
0,-9.442356108420093,-20.142213948271444,-14.105627622902773,-7.057459304864745,-0.1850017699961768
0,-11.762738366661468,-14.042475687179683,-13.135525483001157,-12.698649809247243,-0.18000172215844046
0,-4.723119185396683,-9.482735490780557,-9.03542454311954,-0.8898397325889515,-0.17500167432070768
0,-16.333498587426032,-12.112993384753468,-8.46532482097116,-0.9810290643465119,-0.17000162648297135
0,-4.413876594609998,-21.283249393542434,-21.075226333199073,-2.0522177935558688,-0.16500157864523857
0,-9.444253227858844,-25.0435035401619,-22.045129095189875,-1.9734059090560132,-0.16000153080750223
0,2.40537149271875,-0.7037558458819515,6.1549668792007415,10.345406600403695,-0.15500148296976946
0,14.204997547420916,6.465993669512104,-2.474938422647863,2.454219745934178,-0.15000143513203312
0,-5.325375083597661,-1.4942550131485737,-0.1048450128549191,-4.8369664617003405,-0.14500138729430034
0,10.044253579365206,7.565498086891123,0.8652470965316466,3.421847988031735,-0.140001339456564
0,33.06388351540107,12.265252950028799,10.665337893405491,8.810663105578106,-0.13500129161883123
0,2.5835147024552407,-4.404990443889161,-5.96457263457789,-1.07052109884271,-0.13000124378109845
0,9.693147116932442,-1.1252321155254879,-10.264484499964663,-7.25170461531842,-0.12500119594336212
0,-11.487219265890126,-0.795472085694293,-4.844397715069029,-6.712887433914825,-0.12000114810562934
0,-7.7375844710264055,4.414289624855966,4.285687708341547,2.845930455684446,-0.11500110026789301
0,5.912051476830068,9.924052995292975,2.155771758846609,-0.3152509358419834,-0.11000105243016023
0,-4.578311446627522,-9.646181995534047,-3.964145574980531,-3.2564315976845983,-0.1050010045924239
0,-37.50867326532348,-19.80641536888559,-16.844064304518735,-0.28761151897015724,-0.10000095675469112
0,-10.449034002134589,-10.946647145389242,-8.393984440621555,10.501209311227141,-0.09500090891695478
0,-12.909393678158457,-11.356877344438667,-8.133905993189176,4.350030903642908,-0.090000861079222
0,16.670247687042405,12.392894015714019,8.916171028763424,17.448853268443163,-0.08500081324148567
0,14.159890074367908,9.132666917261785,21.62624661647637,17.76767641484887,-0.0800007654037529
0,-10.920466535791487,5.9224413420294555,3.4563207605650286,8.796500350786138,-0.07500071756601656
0,-22.44082216348659,-19.31778272875104,-6.213606549358797,-0.524674917128888,-0.07000066972828378
0,-17.37117682816475,-5.368005313858886,-10.543535324174702,1.2241506168640957,-0.06500062189054745
0,-12.921530547770748,-5.848226431400804,-4.523465574467415,-0.7670230418027056,-0.06000057405281467
0,-11.391883338618815,1.0215539012827013,-5.753397310160534,1.081804112229934,-0.05500052621508189
0,-18.222235215602318,-9.038664332656394,-15.513330540483734,-4.119367915679524,-0.05000047837734556
0,-23.292586192193315,-27.228881149542822,-15.653265273808506,-11.810539120028078,-0.04500043053961278
0,-13.542936280192688,-21.989096564563052,-20.30320151726783,-13.201709494815479,-0.04000038270187645
0,-2.113285489693352,9.000689408785474,-12.703139276438028,-2.6328790331797878,-0.03500033486414367
0,-36.89363382934045,-20.809523241566012,-27.453078555201756,-14.144047727313398,-0.030000287026407335
0,-43.26398130606775,-34.26973452659831,-28.493019355545623,-16.26521556847649,-0.025000239188674556
0,-30.754327924086628,-25.399944455627825,-27.842961677157223,-15.476382546775712,-0.020000191350938223
0,-15.974673684271407,-13.980153035564054,-10.24290551719714,-1.4275486509801096,-0.015000143513205444
0,-17.65501858459769,-8.790360271033109,-11.33285087062937,-2.5187138687595843,-0.010000095675469112
0,-8.065362620966116,-11.00056616504247,-11.372797730847111,-7.8698781871464405,-0.005000047837736332
0,-2.885705787843009,-10.210770719453018,1.1572539098593593,-0.4810415927581101,0.0
0,3.5839519211767414,-11.600973935105738,-0.8726959400698644,-6.282204071804764,0.0050000478377327795
0,-18.526389487067227,-3.9211758118405027,0.8773527281259106,-0.2933656101166474,0.010000095675469112
0,-0.03673000529630843,0.5386236513339508,3.08739992323949,2.855473806754695,0.015000143513201891
0,5.972930374340996,11.398424455815032,8.867445653916672,10.694314193289221,0.02000019135093467
0,4.112591659955167,1.3282266028602485,4.167489928433508,4.303155563621906,0.025000239188671003
0,18.232253859342382,-1.1919699067034333,4.017532754534983,3.1719979313051074,0.030000287026403782
0,-6.658083020401778,5.647834927616427,3.547574139460784,7.270841309334957,0.035000334864140115
0,-14.698418972731188,-1.6223588938736313,-4.622385909911204,1.6696857102333116,0.040000382701872894
0,-8.148753990918742,-5.272551370980938,4.917652613127577,8.918531146059966,0.045000430539609226
0,-6.519088067410969,1.4072574965358906,8.667689715171223,13.50737762831646,0.050000478377342006
0,17.45057880609455,9.957067709021201,10.76772540244772,14.946225167674248,0.05500052621507834
0,11.640246637929655,4.826879266634554,8.277759680465262,8.505073773668604,0.06000057405281112
0,20.57991543558881,10.936692168985022,21.437792553764538,18.653923454583985,0.06500062189054745
0,5.419585205222786,3.5565064149667314,0.4578240257449847,8.88277421744031,0.07000066972828023
0,-5.19074404826145,2.7363220027925124,5.257854098711969,2.781626068044675,0.07500071756601656
0,-4.571072320570654,1.7861389301725394,-4.7021172257172195,6.110479011268423,0.08000076540374934
0,3.938600392606314,5.80595719448465,4.50791005382703,10.529333051339076,0.08500081324148567
0,13.398274095664734,14.905776792720983,14.367935938559608,15.17818819178973,0.09000086107921845
0,-4.062051207303334,8.24559772118851,-8.012039570689183,4.247044435207997,0.09500090891695123
0,-6.192375512626448,-1.8645800246922155,-4.6520164734706,-5.714098216735818,0.10000095675468756
0,-26.062698816524787,-5.134756450123329,-12.451994769232414,-12.545239762743817,0.10500100459242034
0,5.786978885622631,0.2550684395929388,-10.091974456779958,-6.646380201159978,0.11000105243015668
0,-8.103342400525339,5.584894639296865,-0.011955534055179629,1.9124804703938998,0.11500110026788946
0,-10.253662668590302,1.304722143812067,-8.131937998250317,-5.448657745134534,0.12000114810562579
0,2.856018088352619,5.624550947716693,5.818078153926389,1.9602051554912934,0.12500119594335857
0,-5.964300122268061,2.9843810452492376,4.158092925959238,4.549069175626176,0.1300012437810949
0,8.13538270726646,9.394212430246679,8.16810632116696,10.057934318501264,0.13500129161882768
0,2.0650665846741436,1.654045096053271,1.798118342414032,-0.2831994130750152,0.140001339456564
0,8.554751517402604,6.283879035484799,5.438128992053125,-0.42433201677618365,0.1450013872942968
0,10.214437512391036,7.543714240850473,8.008138271965938,3.024536509455139,0.15000143513203312
0,2.13412457590453,9.97355070388846,6.988146183504593,4.253406167537209,0.1550014829697659
0,-14.636187286348498,1.163388415647859,-4.291847272558771,-9.78772304075359,0.16000153080750223
0,-0.736498068677239,1.47322736655439,0.9981579041624953,1.0211488863639164,0.16500157864523501
0,-13.026807764873702,-4.9969324533028505,-15.881838285933918,-3.6099780490957785,0.1700016264829678
0,-10.267116367979467,-10.797091053790478,-17.681835841931147,-4.541103844826962,0.17500167432070413
0,21.73257612966423,-5.067248444341478,-1.7118347618891365,7.257771501707564,0.1800017221584369
0,4.542269735856111,-17.86740463364989,-18.5918350426858,-4.1833520068573735,0.18500176999617324
0,3.0219644578016136,-20.91755962936863,-17.031836680054024,-8.804474367864835,0.19000181783390602
0,-4.7383396979714965,-7.277713437754926,-1.0118396684758468,2.634404421545085,0.19500186567164235
0,-1.8286427251621622,-3.687866063636598,-4.10184400129944,3.1932843645269755,0.20000191350937513
0,5.981055382610337,-4.088017510842806,6.718150328751219,13.472165464219996,0.20500196134711146
0,10.920754631678925,12.56183221726017,11.9981433289941,18.01104772319819,0.21000200918484424
0,11.440455027895625,8.121683117233516,4.238135006289499,8.619931142958187,0.21500205702258057
0,13.670156576216991,13.791535185020276,12.638125366740612,12.088815723708924,0.22000210486031335
0,17.139859280442064,10.231388415587537,10.61811441559006,10.007701464466797,0.22500215269804968
0,13.139563143028278,6.501242802835449,11.438102157114768,6.506588363205016,0.23000220053578246
0,-20.61073183479001,-5.8389016602174335,-6.271911405370053,-8.384523582923897,0.2350022483735188
0,-21.81102565212447,-15.059044980889412,-19.101926269034013,-14.97563437702624,0.24000229621125158
0,-38.03131830699578,-16.729187166037747,-18.371942430583434,-20.046744021635213,0.24500234404898436
0,-6.14160979524224,-7.3793282214141245,-1.771959885485638,-11.667852518013474,0.2500023918867207
0,-20.52190011038103,-18.13946815146735,-18.771978627875907,-15.908959865894122,0.25500243972445347
0,-0.45218924414486217,-14.08960695934973,-12.011998650730975,-5.210066063585212,0.2600024875621898
0,-25.882477186966163,-26.049744646767543,-15.772019945798519,-10.501171108217651,0.2650025353999226
0,21.777236071773125,1.7501187861973595,-4.852042503505104,-0.22227499601578177,0.2700025832376589
0,7.936950543194593,4.139983340800947,10.787933686756562,2.146622277395358,0.2750026310753917
0,-15.683333761840636,-6.460150981106225,-2.8720913640150756,-9.044479283310146,0.280002678913128
0,3.5163831672267176,-0.5302841775480542,-9.932117644872351,-8.335579673198067,0.2850027267508608
0,-18.1038986587729,-2.1004162463987854,-7.7821451447062735,-5.7866788868140775,0.29000277458859713
0,-2.6341792283472962,-5.88054718529357,-1.5721738518413408,-4.517776918025642,0.2950028224263299
0,3.5055414707104093,5.439323008370827,-4.022203753996193,-3.5988737600982525,0.30000287026406625
0,-14.814736548872265,-6.76080566262407,-6.822234838442398,-2.2799694058387048,0.305002918101799
0,-3.8250132739381426,-16.460933195274563,-15.262267091959853,-9.12106384766699,0.31000296593953536
0,-19.165288690648147,-5.081059585994795,-6.802300500558247,-1.2621570775739643,0.31500301377726814
0,11.334437215713972,-10.461184830279162,-11.162335049266241,-3.6132490870882212,0.3200030616150009
0,-25.37583553937375,-26.45130892257797,-25.482370722023752,-18.154339867256112,0.32500310945273725
0,-8.786106939686569,-9.951431856031347,-10.86240750141718,-7.285429408420789,0.33000315729047003
0,-14.276376967930084,-9.781553622224948,-9.9524453684638,-4.666517699960316,0.33500320512820636
0,-17.9866456054838,-13.061674211355806,-13.142484302773727,-2.17760473039523,0.34000325296593914
0,3.9230871675775623,-9.921793612481862,-13.922524282768233,3.7413095122426094,0.3450033008036755
0,-14.237178627771925,5.078088186326067,-2.0125652857297736,3.1902250400475505,0.35000334864140825
0,-4.837442969800327,-5.512028802353596,-4.8926072879717495,-4.0708581349937205,0.3550033964791446
0,-4.757705836094407,-1.8721445656605096,-1.732650265186674,-6.851940000947576,0.36000344431687736
0,-7.707967203578908,0.7977409094443364,4.397305807262761,-4.783020545636413,0.3650034921546137
0,7.921772951338797,-3.762372363825246,1.8072609540890126,-0.06409975643655486,0.3700035399923465
0,-7.728485347467115,2.977515627868504,5.027215199841444,-0.605177620352003,0.3750035878300828
0,-0.3487420760050206,1.0974048979134723,-2.1628314312015973,-1.0162541242047087,0.3800036356678156
0,8.771002789807849,-0.032704540351239875,5.277121085003376,7.732670745212637,0.3850036835055519
0,-19.439250725887753,-4.132812673649992,-8.512927227630282,0.7215970009672876,0.3900037313432847
0,2.6804974012405642,-9.532919488592187,-13.712976345070006,-1.5994753441351266,0.3950037791810175
0,3.310247195938815,7.076975028547099,8.156973757197292,9.889453722480967,0.4000038270187538
0,4.189998683168989,9.916870891708664,7.686923104114879,12.22838421307047,0.4050038748564866
0,5.609751887688731,7.306768114546527,11.426871720457443,10.087316139201015,0.4100039226942229
0,38.72950683363321,13.516666709977605,13.456819630243654,6.986249511475426,0.4150039705319557
0,-6.540736456092154,11.836566689966627,17.706766856401543,8.565184339547123,0.42000401836969203
0,17.119022039895913,8.596468065405048,9.356713420555398,4.624120632257835,0.4250040662074248
0,18.31878234171318,15.776370846073274,14.7766593429668,13.693058397708922,0.43000411404516115
0,21.018544468200897,17.51627504057644,17.616604642575897,11.761997643176109,0.4350041618828939
0,43.06830843637891,7.066180656192214,17.776549336909735,13.360938374903403,0.44000420972063026
0,15.748074260804431,10.176087698887725,16.166493441904546,12.829880597939033,0.44500425755836304
0,10.847841953389079,5.205996173570134,11.916436971860765,6.328824316123068,0.45000430539609937
0,1.767611524016807,0.935906084363634,6.986379939616322,1.8077695322643201,0.45500435323383215
0,-4.582617018484844,-3.6541825650894113,-1.0036776430922387,-6.46328375145728,0.4600044010715685
0,-2.1328436655892498,-4.774269771251202,2.256264234837819,-4.734335532974508,0.46500444890930126
0,1.6969315913308332,0.9556444696054848,4.696205584220941,-3.5253858099295474,0.47000449674703404
0,-4.683291238931118,-7.534439838511978,-0.7938535843398692,-1.37643457955136,0.47500454458477037
0,10.786487852484122,-2.5245226912934324,1.956086739546829,6.392518161209608,0.48000459242250315
0,11.366268874246337,4.405395915886575,6.6160265660844315,2.9914724153932895,0.4850046402602395
0,-3.123948165522439,-1.0046840121777834,-1.034034094758888,-1.5495718142014738,0.49000468809797226
0,3.7858367407035587,0.6752375292748946,3.965904766701789,2.1993854749908817,0.4950047359357086
0,-5.704376399835905,-0.874839455061102,1.7858431599084965,0.32834428542610217,0.5000047837734414
0,13.335412420025815,2.7750850394866995,1.805781094089046,-3.3626953804880175,0.5050048316111777
0,6.0252032072284525,3.1250110175254115,6.655718578230563,-3.853733520295877,0.5100048794489105
0,8.484995968142158,2.2849384834877573,3.355655621005145,-6.524770131305971,0.5150049272866468
0,10.864790708354386,7.6848674415282865,3.1055922306850547,-1.5958052104372815,0.5200049751243796
0,-3.915412567326087,1.214797895429696,-4.034471584803086,-8.406838754167026,0.5250050229621159
0,0.8043861453602769,16.294729848491304,18.04546418221941,1.3721292414657122,0.5300050707998487
0,16.264186850380575,13.004663303290412,8.885399538989192,7.271098780729029,0.5350051186375815
0,12.123989551232137,11.304598261347742,14.285334491859567,8.480069867827236,0.5400051664753178
0,11.87379425045404,10.384534722965594,12.355269046021697,8.09904250646017,0.5450052143130506
0,15.75360094935769,0.9944726873590964,8.555203205465334,6.988016699593677,0.5500052621507869
0,2.753409648025836,5.794412152949858,8.465136973066734,8.54699244942404,0.5550053099885197
0,-0.08677965446419067,6.034353117623358,3.3250703507768957,1.075969757429597,0.560005357826256
0,3.0130330403924437,1.5542955788102597,-1.9449966601167514,-4.925051375440749,0.5650054056639888
0,-0.5771522691286656,5.624239533500534,1.8949359413300029,5.413929051560655,0.5700054535017252
0,9.602664415077628,3.2841849782890407,7.684868155907056,8.752911039096233,0.5750055013394579
0,-1.4275169091588595,0.5841319094066719,-1.385200015816602,7.501894587486887,0.5800055491771943
0,-0.14769624432823225,6.184080322766154,-6.155268573516199,3.430879696427341,0.585005597014927
0,-2.0378735930836607,2.504030213978562,-6.155337516826763,2.739866364992347,0.5900056448526634
0,3.9419510419303636,-0.4060184216629531,3.534593154955971,1.3288545918202506,0.5950056926903962
0,-3.0882223419219086,5.593934410864183,3.9345234428101064,-0.22215562471067202,0.6000057405281325
0,-7.688393747247694,4.33388870633666,-7.375546652279354,-1.2631642863451618,0.6050057883658653
0,5.551436823529068,4.703844459187033,1.0943828706533054,-10.214171394776422,0.610005836203598
0,-27.89873063164964,-7.606198336512284,-9.645687987242445,-5.155176951373482,0.6150058840413344
0,-12.208896114084355,-8.54623968676319,-8.88575922441148,-1.766180956964055,0.6200059318790672
0,-25.26905962369367,-13.416279597140832,-12.565830838636316,-4.627183411859961,0.6250059797168035
0,-19.789221158569706,-5.146318072393584,-2.2959028268255697,3.491815683970096,0.6300060275545363
0,6.500619285029178,-5.096355116368811,-6.565975185058777,8.110816330667536,0.6350060753922726
0,8.430461712047018,0.43360926777435393,3.923952091165325,14.819818528081207,0.6400061232300054
0,4.020306127596011,-11.12642492267331,4.163879006599038,9.988822275285562,0.6450061710677417
0,9.070152536290427,-5.956457689973678,-7.1061944340335375,6.137827570313702,0.6500062189054745
0,6.520000942091187,-4.256489035791141,-3.2862682260224685,2.266834410260369,0.6550062667432108
0,-9.6601486516206,1.9134810387884353,3.8436576355336207,5.315842791575633,0.6600063145809436
0,6.789703758246638,-3.576547466978264,-10.056416844229872,2.0048527102745206,0.6650063624186799
0,-9.580441825184474,-6.7865745536355,-8.746491659894856,-3.7061358379410514,0.6700064102564127
0,-17.180585398505414,-14.516600221364154,-12.316566805462296,-6.137122857457875,0.675006458094149
0,-5.780726957610521,-7.236624469623934,-8.026642274044086,-3.678108352437635,0.6800065059318818
0,-0.05086649743351254,0.4133527030162825,-3.686718057808718,3.910907673328074,0.6850065537696146
0,19.9489959876596,-1.8766687013521264,6.243205851772322,5.329925216223977,0.690006601607351
0,13.998860502978221,1.9833113196460288,-2.846870536500881,5.978944272454358,0.6950066494450837
0,10.938727052733384,1.6732927684292533,7.043052786107536,8.287964837759157,0.7000066972828201
0,10.45859563980803,2.013275647334247,4.762975828108389,0.6169869073008684,0.7050067451205528
0,0.01846626596880574,8.093259958501378,16.072898597572294,8.866010475691702,0.7100067929582892
0,7.728338932201585,14.823245703657227,15.882821101753061,14.495035536979927,0.715006840796022
0,9.918213638920745,4.053232883787847,6.222743346734625,12.09406208439755,0.7200068886337583
0,1.2280903859456647,2.0732214990171567,7.382665337403963,5.153090110100992,0.7250069364714911
0,-6.012030827447353,7.0432115488176015,8.392587077703876,13.192119605192584,0.7300069843092274
0,0.7778499978250557,0.673203032220856,-4.2274914291180234,6.011150559845584,0.7350070321469602
0,4.567732860929217,5.723195947875312,14.112429819678521,-1.2898170365858703,0.7400070799846965
0,29.63761776085094,7.993190294032527,9.782350826335007,8.559216804658664,0.7450071278224293
0,9.1875046956475,4.57318606845332,6.822271592350251,4.268252071926666,0.7500071756601656
0,3.5273936619342123,3.0631832683326734,14.672192118291509,6.077288753105789,0.7550072234978984
0,0.4072846551519478,8.273181890344278,6.642112403755792,6.106326835542895,0.7600072713356312
0,2.7571776701817794,17.953181930579383,0.8020324474116027,8.755366306003651,0.7650073191733675
0,-19.762927298198388,0.013183384286719058,-6.808047752693019,-8.685592849302381,0.7700073670111003
0,3.926969745114612,-6.886813754118775,1.9818718013648915,-11.056550644392992,0.7750074148488366
0,-16.173131204121475,-7.786809490495131,-12.798208892274522,-10.947507092883171,0.7800074626865694
0,-16.64323014933205,-7.086803830325837,-4.348289835044079,-5.968462207522711,0.7850075105243057
0,-30.993327092733566,-11.736796778398453,-11.38837102774059,-9.429416000136987,0.7900075583620385
0,4.086577965165748,-1.5067883387145227,-5.978452470388748,-5.060368481738019,0.7950076061997748
0,-5.753514974571237,-15.046778514499213,-7.5385341622219375,-21.08131966253085,0.8000076540375076
0,1.0663940899589641,-16.446767308126997,-16.32861610166882,-20.152269551633324,0.805007701875244
0,-12.06369483899337,-15.326754720820508,-8.738698286216739,-13.973218156637078,0.8100077497129767
0,0.38621824118930886,-10.256740752390511,-8.118780712273415,-13.954165483427445,0.8150077975507131
0,-11.193866666366215,-12.626725401268958,-15.628863375192473,-14.325111536333441,0.8200078453884458
0,4.0060504419879095,-2.7067086647158836,-4.25894626931099,-2.1960563183499593,0.8250078932261822
0,-5.2640304296932205,-5.126690539089985,-5.519029388007204,-0.9769998314632802,0.830007941063915
0,7.955890722849481,6.0733289798070444,9.7608872760007,16.902057922774965,0.8350079889016477
0,17.79581390373551,10.62334989629042,9.77080373009826,15.911116942480902,0.8400080367393841
0,-2.4642608835206126,-0.4766277856603394,-0.029280018763095328,-5.68982277516283,0.8450080845771168
0,-3.3943336361351273,-4.626604062531047,-0.7193639641877921,-3.9507612337969054,0.8500081324148532
0,2.615595648349827,8.133421068977448,7.330551899896642,3.4883015627298755,0.855008180252586
0,-8.80447302754159,5.933447612046081,-4.769532420620711,-5.822634389294965,0.8600082280903223
0,0.605460338927476,4.083475569504717,-0.46961691997953925,3.9464309065375036,0.8650082759280551
0,-7.794604249195148,7.463504943652046,0.580298407586635,-1.6345025532980517,0.8700083237657914
0,-5.754666788459954,-4.7664642637094525,-9.839786432020652,-3.7654347722882875,0.8750083716035242
0,-7.354727274908798,-7.426432051024039,-11.859871432568521,-5.966365753791782,0.8800084194412605
0,11.53521429592072,4.53360158338446,-8.749956587134651,-3.3972955008482044,0.8850084672789933
0,2.8951579286497813,4.133636641399102,-2.960041887894763,-0.9682240160902786,0.8900085151167296
0,-7.994896372330508,7.803673124798572,2.1498726737010423,5.380848698134768,0.8950085629544624
0,10.335051397161614,9.19371103489952,-4.52021289342802,7.4399226394554585,0.9000086107921987
0,-3.7149987587698483,-0.23624962761717122,-0.9202985801997952,0.7989978051632558,0.9050086586299315
0,-0.9950468361249465,5.29379113735212,2.7296156226032093,4.178074192107878,0.9100087064676643
0,10.01490716899161,-1.9461666704694371,-8.120470275686145,2.3471517967793405,0.9150087543054006
0,-2.2051367396903174,2.4938769484303553,9.11944373435588,1.2362306153856488,0.9200088021431334
0,0.8748214412877152,0.48392199344394166,-3.490642337811813,-6.174689356049493,0.9250088499808697
0,9.984781715144605,4.943968463845157,4.689271517175355,-0.2456081214793594,0.9300088978186025
0,9.24474408476136,4.5240163586938875,3.569185308499462,4.183474315305912,0.9350089456563389
0,8.404708552369591,8.62406567667977,3.1390990450953993,3.5425579505435074,0.9400089934940716
0,-5.035324880559192,-1.7958835839953378,9.619012735539567,1.7116427802651375,0.945009041331808
0,2.6646437869600215,0.5741685744551742,-3.5810736120339075,7.34072880018617,0.9500090891695407
0,-11.155385444161485,1.8942221496207758,-2.111159989841055,1.3698160056605844,0.9550091370072771
0,-12.355412572692437,-3.3257228609647274,-13.481246390086184,-7.281095608278414,0.9600091848450099
0,-1.855437596714364,-3.825666459735853,-8.811332804485708,-2.602006046642612,0.9650092326827462
0,8.534539486389042,4.244391351012383,2.928580776005172,1.477084685796961,0.970009280520479
0,-5.765481320500533,-1.32554943090087,-9.331505638919316,-2.95382341548271,0.9750093283582153
0,-3.385500014531647,-1.595488807656941,8.688407960798799,-3.424730354860258,0.9800093761959481
0,3.7444834072195032,-0.18542678142774016,2.4283215853143547,1.3243638634501027,0.9850094240336809
0,-8.185531052151509,-1.2653633543093912,-1.9017647553731813,2.2034592353760845,0.9900094718714172
0,5.244456610599051,3.014701471668922,6.928148948496055,0.20255575684375593,0.99500951970915
0,13.914446398731007,13.73476769438149,5.728062706435777,10.201653423620582,1.0000095675468863
0,12.464438315073494,8.124835311240021,14.007976527513854,6.400752231116327,1.005009615384619
0,4.8344323615372735,4.504904318863675,2.24789042007646,6.659852174154811,1.0100096632223554
0,-15.3155714608171,-12.305025286812453,-17.47219560817196,-11.131046753019248,1.0150097110600882
0,-17.6155731510142,-13.894953509915654,-9.24228154950286,-4.291944556324347,1.0200097588978245
0,-11.72557270721293,-5.30488035391174,-3.5823673954431094,0.7371587586258621,1.0250098067355573
0,-2.3955701262835665,-4.5848058213298435,-5.922453136646519,-5.043736813381777,1.0300098545732936
0,-14.785565403999264,-9.384729913923316,-14.432538763072904,-9.364631277235425,1.0350099024110264
0,-8.30555853524097,-5.164652632804032,-1.352624263961959,-10.285524637340346,1.0400099502487627
0,5.174450485950578,-3.004573978453097,0.6772903721681838,-5.516416897357025,1.0450099980864955
0,-6.775538333872188,-1.3544939508253948,-8.622794842727393,-10.12730806011546,1.0500100459242283
0,-3.1855249878691505,-4.0644125495249686,1.9371201036004404,-3.498198127669249,1.055010093761961
0,-9.205509468894654,0.2856702260951074,-7.832964776291809,-0.8790871014135186,1.060010141599701
0,3.9945082306471336,7.665754376828033,4.9769505304481365,4.280025017658966,1.0650101894374338
0,0.1545281187083148,-0.9041600966175383,0.3168660368404994,4.049138228606026,1.0700102372751665
0,6.304550203296514,0.4059268062246884,2.5167817558790837,4.4682525302454374,1.0750102851128993
0,12.354574492144778,7.7260150856086725,10.736697700347332,10.037367920979356,1.0800103329506392
0,3.2346009924059302,-0.19389525843861877,4.676613882607889,-4.863515601293857,1.085010380788372
0,-0.7753702894461797,0.7361957738240449,4.776530314424969,2.7656019609261295,1.0900104286261048
0,11.1246606525558,11.16628818186824,18.57644700688609,9.114720604923457,1.0950104764638375
0,5.974693823945941,0.77638196481937,6.716363970231474,4.183840327689469,1.1000105243015774
0,7.704729229659061,2.926477121342233,6.896281213673225,5.142961125713343,1.1050105721393102
0,2.5747668739418854,3.786573649701549,6.426198745488447,3.0520829949479276,1.110010619977043
0,1.9548067604732178,-1.1733284521160248,-3.5138834267088668,1.7412059309156855,1.1150106678147758
0,0.7448488925596647,-4.8232291862805114,-3.4339652956412845,-2.4696700711496415,1.1200107156525156
0,-4.835106726660883,-8.583128554859382,-6.374046853980185,-5.300545016091808,1.1250107634902484
0,-9.395060093965721,-3.6530265595071207,-4.644128094040675,-3.0914189085771855,1.1300108113279812
0,2.4549887942272965,-11.772923201279546,-9.084209007632051,-2.972291752935423,1.135010859165714
0,0.6450399418939761,-8.24281848052354,-0.08428958599577768,-2.853163553150358,1.1400109070034468
0,-0.1649066468365885,-8.75271239676086,-3.924369819864213,-0.8040343129136551,1.1450109548411866
0,1.8751490321315631,-10.362604948627006,-0.8644496996156565,-4.094904035678589,1.1500110026789194
0,1.7552069828127714,2.29750386607324,9.175470784537104,1.884227275307561,1.1550110505166522
0,-3.404732790868038,-8.072385949830085,-5.394608357681211,-6.726640383020848,1.160011098354385
0,-1.2446702850056448,-13.122274393008892,-17.8446871165973,-11.937507013457822,1.1650111461921249
0,0.9853945044009375,-7.102161459469946,-4.654765482094506,3.6116273816966205,1.1700111940298576
0,-1.6245384185441196,-2.742047144368545,1.4351565567747862,3.0407628006249006,1.1750112418675904
0,11.615530950247102,5.028068557804182,11.135079011493644,8.539899241581749,1.1800112897053232
0,16.575602614521184,8.278185652737367,7.8350018933952015,6.719036702447742,1.185011337543063
0,3.715676577209427,1.1983041458376804,10.824925213142272,-0.7518248194637228,1.1900113853807959
0,5.095752840241213,11.428424042004785,10.46484898050508,0.2473146727054384,1.1950114332185287
0,9.805831404752801,2.0185453455716043,5.934773204308457,-1.2735448243730554,1.2000114810562614
0,9.78591227120498,10.898668060258892,13.114697892459153,6.56559668593203,1.2050115288939942
0,7.285995439270584,7.598792189116269,12.934623051928535,3.9047392001127577,1.210011576731734
0,9.03608090776238,2.188917734478024,-0.6654513113104532,0.2938827143549242,1.2150116245694669
0,-2.3638313252763328,0.509044698066679,1.9544748078910983,-0.6169727754544571,1.2200116724071997
0,0.22625873768664032,3.6791730812389947,-3.785598585712125,-8.107827273509411,1.2250117202449324
0,4.666351093972125,2.9693028851254746,7.074328512549445,-9.548680783757007,1.2300117680826723
0,0.6964457407765401,2.949434110606485,-0.01574389273285476,-8.93953330954817,1.235011815920405
0,0.9465426751124844,5.169566758257892,0.6141842028523911,-6.570384853425803,1.2400118637581379
0,1.6366418938193104,0.7597008283222643,1.2641128035437976,-4.4112354171376875,1.2450119115958707
0,1.8867433936042992,-3.2301636792347326,-0.27595808651362674,-4.952085001778021,1.2500119594336105
0,3.5868471710204317,7.979973235410362,8.653971536718254,3.7070663920323765,1.2550120072713433
0,-7.463046777535562,7.240111571911235,-0.15609832295725873,-3.7037812360661135,1.260012055109076
0,7.617061544281217,3.3602513295068523,0.14383233794954395,1.095372113661381,1.2650121029468089
0,0.2771721328018554,-2.5196074930694166,0.39376352271912024,-7.695473558953938,1.2700121507845488
0,15.07728498414122,-7.139464897326505,-7.7463047653852986,-7.906318253818117,1.2750121986222815
0,4.967400093866391,-3.2893208846139275,-2.4863725229124056,-5.867161970332193,1.2800122464600143
0,14.117517456733422,3.480824544079742,3.3235602539010167,0.3019952927139965,1.285012294297747
0,22.197637066469078,15.97097138789316,16.723493568912026,4.551153536948609,1.2900123421354799
0,10.587758915466905,17.301119645467143,16.8634274254556,6.3803127640306005,1.2950123899732198
0,25.17788299452487,28.91126931419694,28.533361825604114,11.309472975256558,1.3000124378109525
0,20.978009292685634,34.84142038951992,29.613296769512356,16.698634171199938,1.3050124856486853
0,32.5481377969714,48.17157286415657,39.553232254817864,25.227796351278425,1.310012533486418
0,38.298268491933904,54.14172672724275,47.65316827602574,28.476959513197745,1.315012581324158
0,41.3884013590876,41.12188196356146,35.30310482392582,15.486123652478113,1.3200126291618908
0,38.14853637638674,32.27203855333494,34.7930418853523,17.105288762402733,1.3250126769996236
0,45.86867351793595,37.242196472658684,33.672979443396564,22.664454834287046,1.3300127248373563
0,20.808812753959995,25.942355694053635,16.092917477810833,10.74362185765473,1.3350127726750962
0,15.398954051228165,27.142516186846983,17.012855965559595,8.38278982037722,1.340012820512829
0,14.049097373938448,16.322677917554483,14.08279488148821,9.071958709018414,1.3450128683505618
0,4.469242684572343,20.59284085031912,8.74273419882659,9.151128509159673,1.3500129161882946
0,11.71938994441538,29.68300494718637,25.922673889408355,11.840299205486827,1.3550129640260273
0,7.019539113825736,17.72317016805621,17.052613923564973,7.239470781746375,1.3600130118637672
0,6.169690152331627,16.19333647061326,14.532554269879146,7.228643220754646,1.3650130597015
0,26.569843018579252,14.763503810562083,14.722494895182662,7.557816504496934,1.3700131075392328
0,9.859997670040592,5.463672142011085,9.162435764788825,-3.073009385718793,1.3750131553769656
0,19.52015406266437,17.38384141778769,24.512376842643526,13.586165530910915,1.3800132032147054
0,15.200312150787866,2.284011589624492,4.072318091288965,2.8553412347252562,1.3850132510524382
0,0.10047188726147116,-6.15581739162147,-6.337740528001951,-3.0854822944541906,1.390013298890171
0,-18.199366776046183,-10.245645575421612,-2.9677990545844715,-2.36630507713318,1.3950133467279038
0,-2.9592038872973863,-3.865473010910468,-6.997857527716521,-0.7871271337944752,1.4000133945656437
0,-15.60903949391821,-8.625299746565865,-9.597915986188216,2.8820515152255775,1.4050134424033764
0,-11.608873642333226,-13.805125830143009,-13.927974468105841,-3.2987691503556595,1.4100134902411092
0,-17.12870637782694,-13.894951308505446,-15.838033010600672,-8.219589150760807,1.415013538078842
0,-22.76853774430568,-23.84477622729453,-15.308091649539879,-17.670408505850176,1.4200135859165819
0,-8.968367784063206,-27.654600630506764,-24.498150419292397,-13.921227234606084,1.4250136337543147
0,-45.02819653758169,-33.43442455996803,-27.798209352431723,-25.082045354653044,1.4300136815920474
0,-17.8280240431514,-20.574248054889573,-20.928268479363084,-11.082862881948943,1.4350137294297802
0,-22.507850336490048,-24.844071151790338,-17.54832782817013,-9.223679830762215,1.440013777267513
0,-6.087675450927797,-19.063893884733506,-10.248387424855661,-2.5244962140215854,1.445013825105253
0,-10.217499418053384,-16.603716285605675,-9.818447293793797,-4.285312043808124,1.4500138729429857
0,-13.537322268245783,-8.383538384410764,-9.328507458133203,-0.6261273317105422,1.4550139207807185
0,-7.597144030849009,-14.753360209637085,-11.918567940007922,-2.7169420890115257,1.4600139686184512
0,-22.066964734108126,-22.273181788451115,-18.8886287605047,-11.497756326715562,1.4650140164561911
0,-9.966784405000336,-20.0230031465113,-30.918689939339526,-9.188570055349988,1.470014064293924
0,-26.736603069023328,-26.642824307601845,-28.578751494264374,-21.579383284597206,1.4750141121316567
0,-36.62642074985322,-41.26264529324386,-41.66881344041969,-33.120196022780256,1.4800141599693895
0,-24.636237468771288,-37.45246612212865,-34.36887578981043,-26.891008276169945,1.4850142078071293
0,-42.126053244151905,-30.4222868095724,-28.228938551025806,-21.411820048460434,1.4900142556448621
0,-27.10586809122462,-11.582107367545166,-21.509001729392647,-10.482631340840923,1.495014303482595
0,7.274317977759313,-3.551927805438243,-10.569065327528364,2.726557847377209,1.5000143513203277
0,-26.625495047300657,-1.1117481311582367,-5.01912934607957,0.5257475178810921,1.5050143991580605
0,8.414692824742655,-11.361568351918024,-16.429193784388602,-6.015062327332465,1.5100144469958003
0,-33.615118414003085,-11.631388474385606,-15.859258640730147,-6.045871686105305,1.5150144948335331
0,-27.73492877014635,-6.121208504444577,-5.459323912172332,-7.166680555897907,1.520014542671266
0,-11.07473824836746,-5.751028447086368,-11.88938959456815,0.3125110663659156,1.5250145905089987
0,-5.394546851263502,-10.770848306520625,-11.209455682727121,6.831703184158987,1.5300146383467386
0,8.225645419934125,-7.190668086220845,-2.619522170505981,7.350895800942658,1.5350146861844713
0,0.9858385644233725,-12.440487788839334,-8.81958905091162,4.830088919756682,1.5400147340222041
0,-18.983967418607687,-7.0503074161221795,1.8703436836928033,-0.8107174569092569,1.545014781859937
0,1.936227470275718,-0.020126968948529902,-5.239723958614743,-1.8215233269307909,1.5500148296976768
0,8.796423231026845,3.730053552384392,-1.6997919694554504,3.327671311706945,1.5550148775354096
0,-15.063380136136976,-7.729765852216305,-6.609860340170369,-5.053133538974159,1.5600149253731423
0,13.466817369032103,13.900414817167396,17.870070938131114,9.996062123037376,1.5650149732108751
0,-5.412984253188229,8.520595560254817,-0.019998125782497544,2.085258299611812,1.570015021048608
0,-3.2927850025465464,-3.079223623765922,0.41993247637604203,-1.4355450076846734,1.5750150688863478
0,12.887415121171152,7.540957263719807,5.6998627524530265,2.4836522024446333,1.5800151167240806
0,-1.252383881957227,-3.268861779016804,3.1397927100140834,-1.3271500688153224,1.5850151645618134
0,-11.932182012107543,-3.2586807538574223,-8.44027764361872,-3.9479518202909114,1.5900152123995461
0,-10.361979269350789,1.061500337343825,-0.0003483011746606701,-0.5587530507131253,1.595015260237286
0,-7.521775653072087,0.9916814928533498,4.8495807447864765,-3.35955375861735,1.6000153080750188
0,-4.891571161765682,0.2618627109727875,-2.3004904982144057,-1.5303539423219963,1.6050153559127516
0,8.468634206740235,1.392043989946123,5.419437977241475,2.8688464000329685,1.6100154037504844
0,-4.771159545134372,0.19222532794232772,13.929366178322196,-4.431952729593037,1.6150154515882242
0,0.659047584998631,7.26240672301821,7.549294111638957,3.287248670799575,1.620015499425957
0,-13.490744400409833,-8.1774118269389,-6.960778216965285,-11.853549396695705,1.6250155472636898
0,0.32946450145945105,2.6627696758627057,8.409149197822655,-1.8443469297153052,1.6300155951014226
0,1.1196742939161843,4.702951229242,4.859076361067674,-4.095143925445895,1.6350156429391625
0,5.169884980523835,3.2131328309414675,0.6890032775282616,-0.9359403806323944,1.6400156907768952
0,0.7100965647487475,-8.336685521510791,-0.9910700483878573,-6.056736291693941,1.645015738614628
0,5.980309049785525,6.293496169330078,6.198856387518626,6.232468345205623,1.6500157864523608
0,8.150522438474995,8.743677900900023,5.178782589254965,2.851673534001978,1.6550158342900936
0,7.480736733146234,7.433859670330165,0.8687085604895255,6.89087927844494,1.6600158821278335
0,-0.7790480644957953,1.6540414741386842,7.58863430449052,0.9400855818917078,1.6650159299655662
0,1.191168046756692,2.874223308263608,-5.071440175824575,1.7292924473069455,1.670015977803299
0,22.37138506774253,7.214405168233863,9.068485122201121,6.108499877356223,1.6750160256410318
0,13.231602998606126,8.954587049157794,4.37841020097098,14.877707874338638,1.6800160734787717
0,0.6818218383236583,2.0847689455693947,13.88833506244471,14.986916439827972,1.6850161213165045
0,20.812041584692256,11.454950851362193,14.198259707805928,19.87612557420953,1.6900161691542372
0,6.892262234477622,4.325132759785689,-2.1318158627624544,5.1253352764067,1.69501621699197
0,14.452483783330896,13.895314663376247,16.46810834999013,17.744545543927906,1.70001626482971
0,14.842706225699775,6.685496553841177,3.7180323445380226,16.49375637298679,1.7050163126674427
0,0.9929295548415275,2.2156784220290597,10.377956118566228,9.322967758444472,1.7100163605051755
0,5.3231537630199135,1.755860258114736,-1.29212033100996,2.1821796938568854,1.7150164083429082
0,-1.476621158106358,0.756042051897623,6.6278029921475605,0.521392171871357,1.720016456180641
0,1.7536047828363739,-4.803776206971216,-7.052273915971148,-9.26939481522599,1.725016504018381
0,3.4138315770778185,-3.0635945287887494,-3.0223510594595315,-6.100181275016958,1.7300165518561137
0,7.564059215656522,3.8465870763454966,-2.472428442217134,1.4890327853705054,1.7350165996938465
0,-3.2157123107102157,5.466768598429692,-0.7925060678385848,-2.6717526407677856,1.7400166475315793
0,-12.225483011524028,-12.423049972632516,-12.752583939612817,-12.042537559846235,1.7450166953693191
0,1.8647471039132624,-2.632868646893575,-9.582662060353686,-3.043321977868891,1.750016743207052
0,-6.795021973226115,-8.862687433990388,-3.7527404321178417,-5.884105900234092,1.7550167910447847
0,-2.3247902513405294,-2.5625063429630917,-13.942819056120733,-5.574889331742249,1.7600168388825175
0,-2.504557738479695,-5.362325382293732,-8.642897932737604,-8.145672276646424,1.7650168867202574
0,6.205675557569681,-4.352144559980897,0.017022938525917145,-7.526454738589288,1.7700169345579901
0,5.875909629022871,2.2980361163799987,5.96694355880615,5.792763279402589,1.775016982395723
0,-8.893855532145746,-4.451783360529301,0.936863929382022,0.4519817746670685,1.7800170302334557
0,-2.6436199340788864,-4.361602997837776,-4.063215948630436,-0.4487992554452056,1.7850170780711956
0,-6.603383584670468,-5.721422802400322,-5.293296074164787,-7.1995798136410185,1.7900171259089284
0,6.516853508582751,0.31875721931971707,-4.46337644590743,0.11964009751782434,1.7950171737466611
0,-6.792908661571967,-2.2210629387936764,6.176542937810601,-0.1911395242607858,1.800017221584394
0,5.327329897682935,-5.020883282616646,-2.563537921157497,-0.6119186810874317,1.8050172694221267
0,-7.7024308207865175,-4.290703817769505,-0.9636190209762278,0.8873026249851954,1.8100173172598666
0,4.527809175975588,3.0794754504490585,3.086299640164638,-1.6234756080812118,1.8150173650975994
0,4.668049880979946,3.7896545169347986,5.286218064029207,2.835746617680745,1.8200174129353321
0,6.558291287072758,-0.11016662348569412,5.516136252144331,-1.7850306997778418,1.825017460773065
0,9.378533386651055,0.35001202382768354,-8.233945794308916,-1.9158075625212265,1.8300175086108048
0,-7.201223828455255,3.970190453375035,7.2159719256581205,6.2534160274023955,1.8350175564485376
0,-4.900980366740542,-5.289631340441236,-9.03411058695281,-4.567359932084398,1.8400176042862704
0,19.0792637632981,1.3605466367492474,4.155806668958497,1.841864556869913,1.8450176521240031
0,-1.1404914469967287,12.410724379302225,16.965723694491853,3.1510894920801293,1.850017699961743
0,15.349753993118416,-1.4290981186646015,0.7856404903539609,2.9503148712708596,1.8550177477994758
0,-6.2499999263415855,-3.558920863432236,-0.15444294343371742,3.7095406919408713,1.8600177956372086
0,6.710246784099409,-4.958743861422221,1.0754733926815658,2.708766951286475,1.8650178434749414
0,3.6104941135941973,5.961432881117227,10.45538949804514,7.377993646166439,1.8700178913126742
0,0.6007420510180734,-7.388390641885971,0.87530537170237,-3.7727792269246363,1.875017939150414
0,-7.4490094149812816,-7.388214436353993,2.8852210122527286,-7.893551671709995,1.8800179869881468
0,-16.358760295624812,-7.268038507830323,-6.044863582031648,-10.234323691716808,1.8850180348258796
0,14.171489398413083,-9.777862861207986,-2.1849484129074144,-7.635095289841211,1.8900180826636124
0,-16.638260343009847,-14.577687500563137,-10.645033481868666,-3.54586646818254,1.8950181305013523
0,4.621990470267978,3.5924875709407567,3.124881210039887,1.0433627718149574,1.900018178339085
0,1.0222418286497066,5.832662350831574,2.534795662161964,4.742592429032218,1.9050182261768178
0,-8.527506277282706,3.0128368367605916,-3.9852901260394393,-4.678177497643666,1.9100182740145506
0,-9.467253856731748,-9.746988973846832,-10.585376155041452,-10.688947009322504,1.9150183218522905
0,-3.6570009183877694,-3.78681508357925,-0.33546242499890394,1.4902838931855604,1.9200183696900233
0,-7.28674747026104,-9.75664149462595,-2.4655489355732185,-4.370484790463894,1.925018417527756
0,0.9835064802257537,-4.826468208552246,-13.035635685993713,-7.001253060231069,1.9300184653654888
0,-19.9162390738395,5.723704773667723,-4.415722674981488,-0.5720209157147095,1.9350185132032287
0,-6.365984138681443,1.8738774513450651,-4.195809900586948,-2.602788356130747,1.9400185610409615
0,-13.925728719537732,-2.045950176273476,-2.6258973602486666,-7.443555380367545,1.9450186088786943
0,-29.93547282041172,-14.345778109983174,-22.255985050865032,-17.254321986875762,1.950018656716427
0,-20.7652164436674,-7.965606350186893,-9.046072968512654,-3.1050881733286197,1.9550187045541598
0,-6.504959589652047,-3.2054348965113237,-3.3861611081250524,3.78414606348033,1.9600187523918997
0,10.595297742953527,4.404736252120445,0.8837505363299658,8.27338072719517,1.9650188002296325
0,-3.024444443845676,1.684907097066426,1.4636619713337433,-2.4773841786852104,1.9700188480673653
0,-4.004186148048829,0.1950776396082075,-6.326426796524518,-6.758148650934891,1.975018895905098
0,-8.653927367612637,-4.514752119099613,-10.61651576049112,-8.288912686247903,1.980018943742838
0,-11.753668100056101,-17.144582177762857,-6.546604913324251,-15.68967628076329,1.9850189915805707
0,23.67659165767557,1.965587465468377,-2.5566942470733305,-1.7704394297451924,1.9900190394183035
0,-17.713148091166822,-7.204243186825445,-7.056783753146923,-11.611202127527685,1.9950190872560363
0,16.71711265647091,-0.16407413151371256,3.1831265775162003,-0.04196436766487138,2.000019135093776
0,8.70737390332501,-4.233905365117174,-0.4669632457368956,-5.012726143116417,2.005019182931509
0,-18.372364348291637,-1.873736883871606,-11.727053213405952,-0.7934874464197139,2.0100192307692417
0,-1.422102096227877,-5.473568683732219,-7.567143315676281,-4.514248269810533,2.0150192786069745
0,-18.141839337829996,-6.493400760308139,-5.437233542095453,-3.785008605241165,2.0200193264447073
0,-26.191576069396582,-0.5632331087760754,-2.52732388149858,-0.32576844435395663,2.025019374282447
0,17.81868771411257,6.376934276044472,8.162585677746213,9.773472221409524,2.03001942212018
0,2.93895201869234,9.877101399330305,9.75249514728219,14.752713400411894,2.0350194699579127
0,11.469216850293503,12.327268265763038,12.01240453823942,17.831955100221244,2.0400195177956455
0,-5.510517785759758,-2.7325651207721826,6.302313860877057,4.13119732717219,2.0450195656333854
0,9.869748115330873,-2.282398757039092,-2.1277768754124993,-0.8195599135672305,2.050019613471118
0,5.180014557996907,-7.152232639962712,-8.437867661715012,-2.0003166174711424,2.055019661308851
0,3.3802815462258495,-5.732066766184584,-8.097958489011454,1.6489272198454932,2.0600197091465837
0,7.230549083483441,0.8380988681222294,4.961950652206908,11.208171602726978,2.0650197569843236
0,26.140817172590953,7.158264267117608,13.961859771756924,12.297416535163542,2.0700198048220564
0,-3.798914184623002,6.558429434900242,3.5717688791604227,4.756662020380252,2.075019852659789
0,-7.958644987339163,1.1385943751549097,-3.6883220167059183,-5.544091939213614,2.080019900497522
0,3.551624764891019,13.158759091039332,11.121587092555208,4.965154658355769,2.085019948335262
0,-15.898104927248456,3.94892358512233,0.46149621503070326,-4.935598185017301,2.0900199961729946
0,9.042165937344938,-3.430912140651386,5.241405358426163,-8.866350467339437,2.0950200440107274
0,0.9024373600910589,-3.5407480847031794,4.541314530026591,-3.1171021862896775,2.10002009184846
0,2.112709342410198,4.369415754553926,7.9012237366870615,5.832146660907179,2.105020139686193
0,11.182981885446528,-5.520420621176804,6.1611329847378045,-2.1686039227416707,2.110020187523933
0,4.143254989892222,-6.790257210068939,0.2010422799257658,-1.5993539342504266,2.1150202353616656
0,16.023528655776033,-0.07009401001352013,8.480951627496383,7.239896629317405,2.1200202831993984
0,-6.756197117658858,-1.2699310185358899,9.220861032227194,3.7791477707753294,2.125020331037131
0,8.6340776681884,7.310231767025927,2.190770498305287,6.0283994925957405,2.130020378874871
0,1.5643530115294937,-2.3096056507401,-6.3293199706413175,-3.2923482031805342,2.135020426712604
0,18.62462891017746,-10.629443269360916,-5.849410371151445,-6.633095314748299,2.1400204745503366
0,3.504905361243213,-3.849281086167293,-5.719500699464689,-1.7938418401799405,2.1450205223880694
0,0.7451823609770802,5.970880901967856,2.030409048660854,8.145412222733489,2.1500205702258093
0,4.725459904991124,6.591042698399159,12.17031887773313,9.894666876187582,2.155020618063542
0,4.735737988527715,2.9412043062432565,2.0202287920524795,1.0339221219180226,2.160020665901275
0,-3.9439833934741806,5.9913657281462855,-0.4598612045867122,0.9731779610808832,2.1650207137390076
0,-7.213704246227638,5.701526966269023,6.550048891199425,2.802434394462725,2.1700207615767404
0,6.936575425186797,10.15168802224131,7.509959082482237,12.011691422587868,2.1750208094144803
0,1.156855615843277,-1.618151102916564,-0.010130628089542515,7.3809490455109685,2.180020857252213
0,-7.0528636792224875,1.972009591297091,8.019779761653036,6.020207262556758,2.185020905089946
0,-8.572582464917685,5.79217010507753,7.549690253414489,11.289466072256332,2.1900209529276786
0,6.877699254203619,4.112330438359716,11.619600848307336,6.178725472354608,2.1950210007654185
0,9.747981473839063,9.672490590669854,3.6595115466675074,-1.742014540146938,2.2000210486031513
0,-0.3017358105489868,0.7626505609906555,-8.660577651862479,-7.572753968694926,2.205021096440884
0,-0.9414526039566322,4.702810347768707,7.239333252063709,3.7365071832687025,2.210021144278617
0,-4.431168911598016,-6.647030050911865,1.0492442577670424,-1.7842310874955742,2.2150211921163567
0,20.259115261279295,0.5931293629425032,6.479155364426704,5.535031215840937,2.2200212399540895
0,0.49939990911842114,1.1832885874268453,-0.5409334290937268,1.2242940899844537,2.2250212877918223
0,15.969685025626456,10.013447620658246,12.098977875702067,11.01355753136311,2.230021335629555
0,5.899970603600941,12.493606460416725,17.04888927676746,11.062821535901236,2.235021383467288
0,8.270256634926302,1.633765103769616,-2.3311992288128653,-5.477913901179285,2.2400214313050277
0,-7.219456889276983,-8.606076452910473,-6.651287644771356,-9.838648785142952,2.2450214791427605
0,9.970830021683055,2.784081786517217,6.088624024880399,1.8106168788377865,2.2500215269804933
0,10.08111735821999,-0.7757601816713812,1.4985357761702527,2.609883085956754,2.255021574818226
0,14.491405110176409,-5.305602361051717,0.4384476050397557,-6.360850168411278,2.260021622655966
0,19.62169326635413,10.494555244880038,12.488359507182047,9.558417111125895,2.2650216704936987
0,23.29198181410012,20.934712632439442,20.07827147777376,14.977684919794852,2.2700217183314315
0,8.272270739013049,16.62486979708241,23.158183510885024,8.2469532521968,2.2750217661691643
0,6.572560025033081,14.605026732782411,10.068095598922204,11.606222101920086,2.280021814006904
0,-0.19715034504717566,7.605183431930381,2.3280077326199073,2.2854914615322333,2.285021861844637
0,-8.496860388962606,2.535339885650656,1.2079199015952056,-3.5652386771484443,2.2900219096823697
0,-2.9065701244263216,1.9854960842594134,-2.4821679050201975,-6.9259683225918405,2.2950219575201025
0,-11.946279568732235,-17.464347982236728,-13.3022556981159,-15.516697483000138,2.3000220053578424
0,-9.47598873851211,-3.444192323564708,-2.1023434881967358,-5.717426165837824,2.305022053195575
0,2.024302350380376,2.245963051192639,-1.2324312851702646,-1.668154377661485,2.310022101033308
0,0.7245936826919072,7.496118133391155,-0.8625190984934303,6.991117875597668,2.3150221488710407
0,-0.9851147566126168,8.066272914263063,6.657393062535334,3.040390588115677,2.3200221967087735
0,4.85517701740779,8.056427384487952,11.637305188458388,3.749663753791376,2.3250222445465134
0,1.5354689895734,-0.6834184659377991,2.6572172693037115,-1.0310626338332691,2.330022292384246
0,-4.784238855462822,-9.743264647478144,-9.552870705488447,-7.051788581401334,2.335022340221979
0,-9.003946533044036,-19.463111170461854,-18.392958746554836,-7.532514095409875,2.3400223880597117
0,-21.93365405805313,-16.542958044318926,-15.673046863775225,-9.523239181855677,2.3450224358974516
0,-9.333361444344972,-12.552805277048593,-11.713135065688206,-6.803963846008248,2.3500224837351844
0,-6.993068704457155,-12.182652875131476,-12.453223359392682,-6.75468809235673,2.355022531572917
0,-1.7627758498141715,1.7874991562165294,-3.0733117507445167,-6.555411924659194,2.36002257941065
0,-4.2824828911564055,1.667650812577576,0.8665997553065381,-4.71613534601483,2.36502262724839
0,0.8678101611662522,-6.9121979101565945,-2.563488845708875,-11.386858358893319,2.3700226750861226
0,-5.641896702940133,-6.27204701591865,-0.18357755807686404,-6.157580965076843,2.3750227229238554
0,-4.871603493319835,1.8381034917018273,-2.053666385976372,-6.178303165588906,2.380022770761588
0,10.02868978045143,11.568253609386987,5.936244666493024,1.1509750392211335,2.385022818599321
0,3.2589831088442676,0.41840333366295607,-4.793844404790042,-2.949746350561537,2.390022866437061
0,4.149276482011572,4.638552660587706,2.5560663959898804,1.0595326653605377,2.3950229142747936
0,10.159569889609019,4.018701585773719,1.6759770646172674,5.018812087344959,2.4000229621125264
0,-5.95013667921034,1.5388501044762752,0.9758875968181709,5.858091915617946,2.405023009950259
0,-4.71984323561205,2.968998211632994,3.9157979881766463,4.127372150046368,2.410023057787999
0,4.27045020927214,8.549145901874281,3.1657082340700344,0.7166527900500363,2.415023105625732
0,3.1007436444425545,3.689293169430078,0.055618329621181795,-8.624066165240356,2.4200231534634646
0,-2.8189629411625665,-0.4205599919512474,-9.334471730208726,-9.02478471659179,2.4250232013011974
0,-0.4986695587232195,9.309586411071301,3.4154380496451773,6.294497135683085,2.4300232491389373
0,-2.4383762193900953,-2.870267628497159,3.2753476644652615,4.653779391625528,2.43502329697667
0,-5.088082934155336,4.069877882041465,2.365257109541444,7.663062051158291,2.440023344814403
0,6.282210286191953,-7.20997706478902,-4.884833620009621,4.55234511372196,2.4450233926521356
0,-8.89749656898677,-5.019832476394624,-4.114924529115125,1.081628578208397,2.4500234404898755
0,-19.31720351008686,-14.819688359787017,-17.415015622394023,-5.519087556865411,2.4550234883276083
0,-7.396910546785983,-14.31954472119544,-13.865106903702532,-5.259803293012213,2.460023536165341
0,0.7733823122994045,1.8805984341957658,1.0348016242008373,1.2194813685234138,2.465023584003074
0,-6.176324940635415,0.430741102067891,1.7847099594766649,-2.9012335731952974,2.4700236318408066
0,0.38396768702326217,0.2708832784606962,1.9346181006367056,-1.7619481189075281,2.4750236796785465
0,4.734260188103013,7.831024959385021,4.604526046111357,3.2673377307804774,2.4800237275162793
0,-4.735447444524441,12.371166140554449,8.534433794046471,8.726623975256057,2.485023775354012
0,5.974844781948284,16.24130681698631,10.56434134208936,7.235910613592326,2.490023823191745
0,4.955136860206928,14.87144698256807,9.464248687137257,10.125197644235834,2.4950238710294848
0,-1.7445712173037067,-0.898413370111697,-0.8758441747597832,0.4044850648877758,2.5000239188672175
0,9.625720541547118,6.781725750501954,2.4840627517998364,0.22377287263949525,2.5050239667049503
0,-7.793987871389737,-2.7181356646125336,-5.486030538072515,-7.9569389356810625,2.510024014542683
0,12.956303535507626,1.2220023752653142,0.903875950735432,2.8023496368522287,2.515024062380423
0,3.546594753584974,4.062139860741052,7.4637822134143255,0.17163858737726856,2.5200241102181558
0,-0.7031142262354586,-3.647723217675696,-4.666311754913242,-14.269072086793738,2.5250241580558885
0,6.3771765865485035,7.6124131304049705,6.1635940406894925,-1.7597823880171286,2.5300242058936213
0,4.707467182116132,13.552548895132421,9.033499594938554,2.309507681880331,2.535024253731354
0,3.427757550273133,3.1226840660929214,-0.696595097824122,-1.4412018785659522,2.540024301569094
0,1.5280476804095957,4.912818632108209,3.613309956287821,6.148088929222579,2.5450243494068268
0,-3.9216624383758996,1.3829525813818624,3.9232147508163355,8.057380103633879,2.5500243972445595
0,-13.91137281697285,-7.986914098205817,-8.106880720912482,-2.9833283573274274,2.5550244450822923
0,-10.581083465782264,-6.036781418732353,-10.186976465540571,1.6759635439721938,2.560024492920032
0,-2.790794394336855,-6.846649391858617,-1.947072489271529,6.505255804960182,2.565024540757765
0,5.209494388617044,2.9934819713101586,7.2028312022409215,13.864548422784093,2.5700245885954978
0,13.7497828745662,4.213612660015584,5.882734603500191,9.89384139393253,2.5750246364332305
0,3.8900710545815733,-3.186257336490151,1.6626377087025999,7.453134713933404,2.5800246842709704
0,1.3203589190186464,-2.3561280290474036,-1.8074594883640565,3.672428377372197,2.585024732108703
0,-3.4593535422863106,1.9840005715439573,5.362443005852931,8.351722378095936,2.590024779946436
0,-11.589066339569374,-1.5058715454170497,-3.5176548152149665,3.801016709349752,2.5950248277841688
0,-2.9187794826963924,-0.7457443905858043,5.4222470417560755,6.920311363803633,2.6000248756219086
0,9.231507018982224,11.074382025353954,5.002148569935023,0.7196063335913547,2.6050249234596414
0,13.251793156219717,14.444507691412896,3.4520497622035107,2.7289016104144292,2.610024971297374
0,-2.9579210807308662,-0.5053674041243263,-0.16804938893271876,-3.4218028142877284,2.615025019135107
0,-1.8376357022240666,0.004756726246508913,9.231851108697462,9.007493050792752,2.6200250669728398
0,12.732649281081038,0.314880069626692,2.8817512469164903,8.706789196745826,2.6250251148105797
0,7.172933858231648,-1.0849973869591878,6.361651017082035,11.446085614117749,2.6300251626483124
0,-21.61678198217193,-3.4448756564476786,-10.168449589869219,-6.124617707303995,2.635025210486045
0,-9.826498251502816,-8.144754751610009,-12.828550583034463,-12.915320778188526,2.640025258323778
0,-7.466214960313204,-14.114634684782828,-8.798651970945471,-8.196023608949341,2.645025306161518
0,6.7040678818288475,1.1654845324218825,2.501246238742957,11.433273790682229,2.6500253539992507
0,-10.145649734103959,-14.274397110814192,-6.1288559609528335,-6.007428588616164,2.6550254018369834
0,-10.215367816832037,-24.114279624464533,-17.558958576558833,-19.64813075604038,2.660025449674716
0,-15.63508637447952,-12.29416301726143,-12.16906161388234,-13.968832720231944,2.665025497512456
0,-12.834805414131633,-8.544047296364244,-17.589165077552796,-8.359534488647071,2.670025545350189
0,-24.954524941528547,-11.133932467533384,-17.81926897075293,-13.930236067427611,2.6750255931879217
0,-8.394244960837888,-9.233818535443875,-12.109373295111453,-11.06093746154466,2.6800256410256544
0,-14.98396547461448,-6.8537055038140755,-15.109478050717657,-8.281638674850926,2.685025688863387
0,-27.04368648389046,-4.04359337551041,-6.239583236270927,-7.072339710161369,2.690025736701127
0,-2.743407988118082,4.19651784721632,0.4003111506330804,5.636959430504339,2.69502578453886
0,8.826870014665895,7.976628162335693,4.170205113034706,5.106258745485429,2.7000258323765927
0,8.417147527010039,0.646737567605432,-0.7799013458946162,8.665558232960429,2.7050258802143254
0,5.537424551131713,-5.1131539395694965,-0.9700082230812622,-0.1751421093818098,2.7100259280520653
0,2.347701088594365,1.9869536380844366,9.849884484434975,5.874157715639347,2.715025975889798
0,9.42797714038606,11.437060297845084,15.7697767793086,18.83345770471206,2.720026023727531
0,-2.32174729299335,7.657166036713422,-0.4903313365185628,11.012757853735552,2.7250260715652637
0,2.75852778856087,7.647270851022216,15.899560138000233,15.542058157416713,2.7300261194030035
0,0.3088023849259581,5.467374736314478,-0.6705487968973802,8.521358609134522,2.7350261672407363
0,-11.110923504063226,-9.142522312479814,-6.120658141585492,-0.7393407988852101,2.740026215078469
0,-11.150649878296962,-9.252420300584184,-8.080767896598541,-5.39004007512219,2.745026262916202
0,-16.070376736915186,-9.202319232786504,-13.560878062049635,-6.200739228162881,2.7500263107539418
0,7.139895921966054,2.387780886862194,1.6790113627175278,-3.2114382662599152,2.7550263585916746
0,-8.449831898964685,-10.912119945063894,-6.381099620914793,-6.202137197188216,2.7600264064294073
0,-0.09956019661523313,0.177978268467679,2.718788988893726,-3.1028360282507133,2.76502645426714
0,2.690711032326223,7.418075524836092,2.7586771941752204,4.826465233638061,2.770026502104873
0,8.640981791218909,7.44817182143925,10.728564996874326,3.4357665817081826,2.7750265499426128
0,23.331252083025074,10.658267155219969,9.808452398487693,8.29506800899399,2.7800265977803456
0,-0.38847809023905683,7.668361522360944,0.9783393997902246,7.134369508058985,2.7850266456180783
0,8.51179127232117,10.028454918181113,4.4282260008708025,-0.39632892912002793,2.790026693455811
0,-21.337939829084156,-9.681452662770639,-11.711887798558582,-19.297027310922815,2.795026741293551
0,-6.267671394129683,-1.4413612263187956,-2.8120019987294107,-9.127725645413037,2.8000267891312838
0,-4.067403421739016,-1.1712707781834064,0.6378834005064558,-6.268423939724036,2.8050268369690166
0,15.982864089863504,0.2088186761707907,4.2977683996158955,-7.989122199980319,2.8100268848067493
0,-4.816868857475619,-5.351092868556923,-10.012347000861912,-11.499820431474964,2.815026932644489
0,-11.626602262168468,-5.011005417476933,-11.05246280023065,-11.250518638650659,2.820026980482222
0,-5.89633612249629,-3.9709189753557483,-6.012578997232758,-5.911216824988438,2.825027028319955
0,11.623929563776741,0.08916645344847275,-1.432695589832897,1.2680850069065022,2.8300270761576876
0,10.694194799066667,-10.620749135060311,-0.332812575410255,2.4073868549440585,2.8350271239954203
0,-16.175540414583477,-9.380665744438744,-19.022929950952665,-9.383311282801884,2.8400271718331602
0,-9.605276075314922,-4.990583377574323,-0.42304771289946186,-0.40400940810923186,2.845027219670893
0,-11.225012180707811,0.5094979633645867,0.6268341430286234,1.8452924775195312,2.850027267508626
0,-9.964748727328768,-15.360421723234085,-9.423284378366413,-10.85540562716866,2.8550273153463586
0,2.1555142892282864,-7.030342438405203,-13.653403271866628,-14.326103723075446,2.8600273631840984
0,2.7957768739950826,-11.16026418236589,-12.233522531516023,-14.816801810309602,2.8650274110218312
0,-5.433960967799079,-1.9101869544214538,-2.40364215032083,-0.11749988784206189,2.870027458859564
0,22.236300768978346,11.429889246771577,9.326237879550689,10.47180204625184,2.875027506697297
0,27.776562088865994,11.65996442259191,11.766117566100396,7.771103994046969,2.8800275545350367
0,19.316822994912147,13.870038573746829,14.645996916746608,10.640405957073915,2.8850276023727695
0,2.2270834881579216,20.660111699787397,17.535875937802174,12.099707935993147,2.8900276502105022
0,11.917343567999438,12.210183798826904,14.825754634184083,8.269009930477935,2.895027698048235
0,29.117603232645642,19.380254867400453,18.945633009264714,11.668311939181065,2.900027745885968
0,16.97786247888529,17.390324900430766,14.19551106481039,8.127613959760627,2.9050277937237077
0,14.458121301637847,13.960393891201692,16.205388800983012,4.026915988949641,2.9100278415614405
0,12.97837969399085,22.14046183134095,20.51526621635546,15.526218022658428,2.9150278893991732
0,24.27863764744817,28.440528710711803,32.47514330774931,21.67552005587047,2.920027937236906
0,15.008895151902264,11.920594517158332,18.71502006985198,7.634822082280744,2.925027985074646
0,13.299152195507727,6.020659236534361,12.894896495031414,2.5341240941878524,2.9300280329123787
0,8.71940876482388,4.67072285325585,3.5847725737205396,0.8934260829224575,2.9350280807501115
0,-7.280335154757498,-4.939214649028341,-1.235351704852018,-5.207271960585162,2.9400281285878442
0,-10.620079578335838,-11.629153286867986,-10.825476351920928,-6.427970045379942,2.945028176425584
0,10.270175479158173,2.800906923483298,3.874398621399366,6.371331819764068,2.950028224263317
0,-3.029569996926337,1.150965966213504,1.3742732042950414,2.4006336262590304,2.9550282721010497
0,-18.299316021126636,-5.778976174271469,1.8841473860366864,3.429935365393483,2.9600283199387825
0,5.110937392359454,-6.068919513427737,-3.805978844206585,-1.9207629718190349,2.9650283677765223
0,4.901190229859566,2.221135933589594,-7.536105497252407,-5.461461394508931,2.970028415614255
0,1.0514424778534748,-0.5288098480707917,3.3037674163295208,-6.672159911660134,2.975028463451988
0,7.231694122558274,-2.0287568731329713,1.14363988623822,-5.0228585318376995,2.9800285112897207
0,1.8919451498149515,-0.8287051562640233,2.0135119022193884,-4.953557263066344,2.9850285591274535
0,-19.837804454779874,-11.508654711967532,-13.696616546023982,-9.994256112809806,2.9900286069651933
0,-19.947554705277287,-11.178605554316219,-14.386745468489227,-12.394955087869755,2.995028654802926
0,-9.147305614552506,-18.098557696546646,-12.076874874304826,-6.975654194185926,3.000028702640659
0,-12.42705719398125,-9.798511150702332,-5.047004771428336,-2.946353436785398,3.0050287504783917
0,-7.266809453652775,-2.2884659275700345,2.2928648331670733,-1.4370528199965087,3.0100287983161316
0,-11.776562402609045,-5.128422036983193,-3.387266066961683,-6.277752347721585,3.0150288461538644
0,-15.336316048887653,-14.778379488128124,-5.277397478030026,-13.148452023462598,3.020028893991597
0,9.353929600472304,-1.2083382895209946,-8.917529405971194,-3.0691518501018846,3.02502894182933
0,21.534174538965026,-4.198298448944224,-4.757661856212865,-2.629851829787803,3.03002898966707
0,3.8344187596399264,-6.118259973605536,0.7322051664059882,-3.140551964115663,3.0350290375048026
0,-11.02533774540098,-0.728222870286696,-7.3779283425053785,3.8887477456231134,3.0400290853425354
0,-11.12509498444105,-1.0581871454119383,-3.2580623869939696,-3.4019527017391966,3.045029133180268
0,0.11514703468536636,-7.178152805134933,-12.238196970672176,-7.302653307293136,3.050029181018001
0,-12.974611695128518,-11.008119855274074,-16.438332096460307,-19.26335407178497,3.055029228855741
0,-10.094371180278648,-7.098088301043838,-6.708467766266324,-8.444054995115398,3.0600292766934736
0,-1.8441314263644681,-4.4480581468757165,-6.8986039808744914,-7.41475607603084,3.0650293245312064
0,-13.96389243817188,-2.148029396508058,-9.878740740120541,-1.2754573122681014,3.070029372368939
0,-14.393654219666717,-13.218002053144897,-11.338878043015914,-15.546158700844684,3.075029420206679
0,-6.39341677380869,-17.207976119333242,-23.049015887585195,-16.766860238018076,3.080029468044412
0,-14.96318010243429,-5.727951596603835,-5.629154270561144,-4.277561918968047,3.0850295158821446
0,-13.722944206262827,-10.337928485321664,-18.569293187248128,-10.448263737707805,3.0900295637198774
0,2.987290915092671,-7.067906784848096,-17.32943263155674,-7.808965687289005,3.0950296115576172
0,-2.7124747371329097,0.8821135062443388,4.840427403950857,-2.399667759970478,3.10002965939535
0,-16.09224116122443,-13.707867610010606,0.900286927708345,-9.780369947328012,3.105029707233083
0,24.237991644888293,5.542149868924095,1.6001459484764,8.058927759593882,3.1100297550708156
0,8.838223683265714,9.812165945912952,17.520004474824088,8.378225369966165,3.1150298029085555
0,3.1484549552578387,1.9521806236958574,4.4398625147577135,8.337522892663788,3.1200298507462882
0,3.7386854613002902,1.9121939045432246,-0.15027992450810004,7.816820335868128,3.125029898584021
0,-0.8210847987366213,-2.437794209650129,-4.160422836329209,5.866117706976884,3.130029946421754
0,-18.460855825115186,-8.58778371705473,-9.710566214109152,-1.364584987286559,3.1350299942594866
0,-11.68062761765919,-11.997774615528346,-14.890710050797207,-3.7652877405975613,3.1400300420972265
0,-4.090400175210076,-15.367766902181772,-20.460854338396754,-4.855990546651982,3.1450300899349592
0,-6.730173495587978,-6.667760573048495,-4.500999067580892,-3.6466933988686008,3.150030137772692
0,-1.38994757589456,9.302244376849405,8.238855772205625,14.30260370961215,3.155030185610425
0,1.0302775872129701,7.732247952907146,14.718710191982188,14.621900785486709,3.1600302334481647
0,2.6105019972758186,8.482250160195957,18.698564202228486,14.51119783460312,3.1650302812858975
0,5.7007256577740515,5.642251003078087,12.648417812181004,3.210494861576352,3.1700303291236303
0,12.520948571860831,2.812250485206405,0.08827102967673806,-3.4702081300089893,3.175030376961363
0,3.3911707420855794,-1.6477513902842864,-0.11187613845675631,-0.4809111370401255,3.180030424799103
0,9.401392170245822,3.2522453794686674,10.847976314119883,8.748385843513972,3.1850304726368357
0,-3.6883871425306367,-6.76775920275186,-0.3121716065912544,4.097682814528991,3.1900305204745685
0,4.291832804444867,3.492234865884196,3.6176801050039824,3.226979778474749,3.1950305683123013
0,0.07205201164151961,3.3022275882799788,0.19753145415766477,0.0162767373817779,3.200030616150034
0,16.58227047930209,7.782218967228557,7.6173824458805095,12.025573692937023,3.205030663987774
0,14.542488207091425,4.162209005143186,11.137233084836064,7.874870646381607,3.2100307118255067
0,13.472705193605409,1.0921977039435675,14.097083375025898,4.9141675982764355,3.2150307596632395
0,6.442921436136381,-3.8178149348156905,16.34693331941569,-4.226535451492146,3.2200308075009723
0,-13.256863069046254,-12.597828909599318,-12.263217080185742,-14.487238503291916,3.225030855338712
0,-7.696648325955522,2.8621557815052645,-9.393367822620476,1.3020584428415376,3.230030903176445
0,-4.146434338146187,-3.3878608590919197,-10.803518906473828,-5.838644612521438,3.2350309510141777
0,8.443778891441143,-1.3178788286653544,-11.343670329455486,4.670652331634399,3.2400309988519105
0,6.1039913600423,0.2021018756728032,-10.713822088236002,5.269949276448222,3.2450310466896504
0,1.1242030645773717,1.042081256911876,-8.483974178438906,7.089246222850716,3.250031094527383
0,4.644414001507654,2.6620593180450864,5.375873405219657,6.168543171292229,3.255031142365116
0,-4.1753758330348925,0.5720360619623325,10.025720668471834,0.627840121653536,3.2600311902028487
0,4.2848335569234886,3.232011491396047,0.05556761688029488,-0.8828629266250131,3.2650312380405886
0,5.075042167253359,4.961985608877619,1.915414255549186,-1.0335659742910448,3.2700312858783214
0,21.175249993490397,5.701958416635135,6.825260589215985,-1.7942690220774766,3.275031333716054
0,-1.0645429696035307,10.451929916430107,11.165106622250974,2.8550279293649954,3.280031381553787
0,-5.774336728128542,4.43190010939415,2.384952358442309,1.944324879401114,3.2850314293915197
0,4.745868711418894,11.781868995928082,16.06479780083643,16.19362182719338,3.2900314772292596
0,3.636073342512828,7.671836575648237,18.184642951576734,16.382918771282455,3.2950315250669924
0,16.026277158415343,15.66180284728675,15.554487811557223,18.15221570904277,3.300031572904725
0,-1.6735198482057256,3.291767808579999,1.5443323802128008,4.8115126363724805,3.305031620742458
0,-3.173317685324309,1.1117314563470957,-1.0058233441612854,-5.909190452071851,3.310031668580198
0,-16.553116361088843,-12.308306213093779,-16.415979363692017,-13.009893562128246,3.3150317164179306
0,8.937084116760996,-7.99834520329147,-12.736135680123938,-8.590596699277649,3.3200317642556634
0,-29.262716258861477,-10.428385517134766,-16.306292294177464,-9.281299868144783,3.325031812093396
0,-32.62251749403689,-15.448427156578726,-19.776449205185102,-13.47200307238021,3.330031859931136
0,-6.132319593061352,-12.168470122477984,-7.4066064109457,-8.702706314625924,3.335031907768869
0,-2.9221225582143635,-1.8485144145122923,9.453236092060305,0.896590403452933,3.3400319556066016
0,14.648073609403882,0.6514399685636558,18.30307830786323,10.585887080807728,3.3450320034443344
0,28.73826890861594,7.0813930283942135,16.422920239902506,10.945183716326355,3.350032051282067
0,17.248463337012044,15.741344766450716,25.32276189021057,18.97448030815907,3.355032099119807
0,17.178656890269977,7.321295183513226,29.532603258920027,11.913776853258268,3.36003214695754
0,16.22884956213158,5.901244279396226,4.652444343978701,11.803073347190775,3.3650321947952726
0,6.349041344681204,5.811192053041299,-1.2677148585655653,0.7523697842670732,3.3700322426330054
0,-8.420767771215099,2.8011385027416225,2.1221256463094234,-0.5783338420538473,3.3750322904707453
0,15.069422204689314,7.431083626276499,10.141965853265667,0.21096246131299695,3.380032338308478
0,-3.3803887376505974,7.681027420917681,6.991805756600505,1.7202586873663255,3.385032386146211
0,-5.830200608546012,2.060969883362285,-3.3783546499530077,-1.4304451709249362,3.3900324339839436
0,6.239986581603328,-1.869088990209938,-0.9685153730884167,0.6788508793739232,3.3950324818216835
0,12.620172822372423,-4.339149203855053,-0.3886764195828979,-5.391853168777512,3.4000325296594163
0,-1.6196418970266215,5.560789238414226,-0.8988377961224674,5.737442677677334,3.405032577497149
0,26.350542411920376,-11.819273667287005,-14.50899950922499,-7.393261588112025,3.410032625334882
0,2.2607257367857487,6.860662075316709,2.2208384349792087,3.6860340270808862,3.4150326731726217
0,-12.05909193584002,2.610596462639982,-6.109323969102086,-1.7046704834355833,3.4200327210103545
0,-9.268910619730072,6.870529490996025,4.530513273337331,0.6346248736966005,3.4250327688480873
0,-9.438730328150688,14.470461156251721,6.6003501572103795,11.163920091768603,3.43003281668582
0,21.621448926349963,13.570391453482719,16.370186677140158,17.213215163691928,3.435032864523553
0,-3.7783728686363673,-0.7096796232730076,4.01002282701152,6.962510081501641,3.4400329123612927
0,3.0218042740517417,8.150247919099986,6.289858599787504,10.79180483609491,3.4450329601990255
0,21.96198034103741,2.960174073107934,2.909693987674865,6.611099417324003,3.4500330080367583
0,4.702155318231337,-1.899901169166129,1.4995289823735671,-2.609606185773117,3.455033055874491
0,-5.887670809388806,3.790022184081265,0.4093635752602754,-1.1803119846337948,3.460033103712231
0,-4.407498057398609,-3.4500558754695274,-8.300802242411297,-4.001017990774198,3.4650331515499637
0,-4.137326441275594,-4.440135356137709,-1.9509684792425,0.6582757844497051,3.4700331993876965
0,-0.017155976119553218,-11.98021626601582,-4.991135143473577,-8.562430670090526,3.4750332472254293
0,-7.246986676692822,-2.890298612664299,-5.661302242917205,-4.633137365207846,3.480033295063169
0,-11.3868185573822,-9.880382402945948,0.8585302150272054,-6.693844311238836,3.485033342900902
0,-9.936651631947367,-13.97046764297364,-15.551637776626022,-11.124551517916439,3.4900333907386347
0,-29.096485913135965,-12.680554337938682,-13.45180622426517,-11.995258994219753,3.4950334385763675
0,12.223678587623153,-7.790642491907412,-16.261975133270173,-10.675966748173764,3.5000334864141003
0,-13.376158139941928,-4.940732107863084,-2.2321445077466704,-6.596674786752805,3.50503353425184
0,0.5540038945431824,-4.260823187964002,-3.1223143507104383,0.052616883978612,3.510033582089573
0,-8.335835318142797,-3.0909157337989,-5.202484664509917,6.691908258487735,3.5150336299273057
0,-9.70567578672767,-9.571009746499007,-13.152655451019864,-3.0988006686785416,3.5200336777650385
0,15.084482480577414,2.9788947732659117,11.217173288417145,5.69049009686298,3.5250337256027784
0,6.684639475708005,7.2787978251596135,-0.7829984471844462,6.539780549265302,3.530033773440511
0,4.9847951901427745,9.488699408754632,0.3168293411503573,-1.7109293176389813,3.535033821278244
0,2.674949614668806,14.588599523022818,4.716656652194017,0.5483604896615727,3.5400338691159767
0,12.865102739494938,29.178498165861818,24.17648348439761,13.437649964451797,3.5450339169537166
0,27.045254554091073,32.44839533345217,21.486309835317012,6.946939099629149,3.5500339647914494
0,56.24540504636072,54.58829101937352,40.55613570073757,29.486227887248436,3.555034012629182
0,31.225554201330215,52.438185213571884,46.17596107377376,23.04551631792149,3.560034060466915
0,45.61570200019619,45.718077901476185,46.15578594398308,25.404804380217183,3.565034108304655
0,26.295848420209964,35.77796906374196,33.29561029679043,15.844092060385591,3.5700341561423876
0,43.66599343494688,45.937858676594125,36.815434113528795,25.873379342465974,3.5750342039801204
0,22.94613701451755,41.327746712148155,44.56525737174208,17.522666208422763,3.580034251817853
0,34.83627912574944,44.23763313841598,36.035080045232235,19.12195263819121,3.585034299655586
0,24.71641973240878,23.90751791934014,20.6849021040712,12.361238609799882,3.590034347493326
0,34.50655879535279,24.897401015227874,17.80472351509333,13.360524099610888,3.5950343953310586
0,25.1666962725541,16.757282383476028,8.234544242743596,4.0298090826143165,3.6000344431687914
0,7.376832119253979,10.807161979245926,2.934364249876279,3.759093532771992,3.605034491006524
0,-4.503033711369636,2.7270397560557553,12.224183498338732,0.45837742340494325,3.610034538844264
0,0.917098732872863,5.886915666366418,8.224001949215369,8.607660727452906,3.615034586681997
0,-8.632770595965837,9.21678966197515,15.113819562729342,12.186943417440018,3.6200346345197296
0,8.67735825435431,4.646661694078649,8.833636298066226,8.546225465191831,3.6250346823574624
0,15.97748523608556,8.056531713215064,-5.916547886594199,2.8655068416518894,3.6300347301952023
0,0.27761030097709805,-5.873600330667716,-11.296733033600594,-4.805212482938489,3.635034778032935
0,11.387733399959776,-8.003734487894064,-18.196919185005697,-7.675932538562257,3.640034825870668
0,-26.44214551660411,-13.87387080851878,-9.807106381857551,-9.556653354901485,3.6450348737084006
0,-19.502026498109576,-20.70400934174601,-13.24729466390792,-14.467374960939638,3.6500349215461334
0,-33.25190959258748,-20.524150135413738,-13.757484069633065,-19.27809738462363,3.6550349693838733
0,-25.35179484581729,-19.724293235597056,-10.297674636277325,-12.848820652545436,3.660035017221606
0,-11.021682301043697,-24.784438686401245,-20.98786639982146,-23.429544789727007,3.665035065059339
0,-22.81157199925,-22.924586529842433,-26.278059394784183,-18.500269819479513,3.6700351128970716
0,-18.271463979529027,-17.114736805763375,-15.078253653850105,-17.63099576327078,3.6750351607348115
0,-17.12135827916969,-18.114889551918967,-24.508449207654937,-18.631722640700904,3.6800352085725443
0,-23.351254933611187,-21.975044804154834,-22.14864608478348,-19.032450469563,3.685035256410277
0,-5.981153976477891,-25.095202596410292,-24.898844311707247,-20.333179265841057,3.69003530424801
0,-32.91105543966806,-34.89536296045339,-29.96904391261138,-28.353909043594317,3.6950353520857497
0,0.8190406466085827,-24.085525925493453,-25.59924490919743,-20.884639814745615,3.7000353999234825
0,-11.200865746319984,-17.92569151802469,-15.599447320612327,-12.595371588984445,3.7050354477612153
0,-24.66077464589442,-21.105859762093633,-9.46965116374906,-13.226104374037304,3.710035495598948
0,-15.630686078270408,-16.28603067968032,-7.429856453849432,-8.726838176112697,3.715035543436681
0,-7.70060006800686,-17.88620429090467,-20.930063204964483,-11.357573000221345,3.7200355912744207
0,-12.570516638159946,-11.406380614164012,-17.410271429933204,-9.218308850323847,3.7250356391121535
0,-12.780435810588353,-19.296559666281787,-21.340481140037483,-19.099045729331404,3.7300356869498863
0,-33.96035760589294,-15.176741462567499,-20.06069234472616,-21.669783638892604,3.735035734787619
0,-47.440282042737,-19.046926016753883,-21.310905051499176,-20.09052257901358,3.740035782625359
0,-4.690209136972908,-19.297113340898598,-11.45111926590921,-16.311262547800943,3.7450358304630917
0,-23.73013890155581,-16.817303445303995,-17.81133499172482,-11.282003541515735,3.7500358783008245
0,15.639928652574177,-20.0874963384796,-9.49155223116336,-7.532745554882276,3.7550359261385573
0,-11.920006484560348,-14.687692027156228,-14.771770985062377,-9.63348858145092,3.760035973976297
0,-17.899944322503124,-0.8978905164402947,-3.3619912530289287,2.4657673860970655,3.76503602181403
0,5.610115129803668,9.881908189650913,2.2677869662779337,8.145022355574204,3.7700360696517627
0,-15.159828135778778,1.161704087365562,7.077563674640092,2.634276334769349,3.7750361174894955
0,-6.869774126673646,8.891497172619683,4.7873388737276725,15.4035293310143,3.7800361653272354
0,12.050277150315438,4.38128744080862,3.3771125647801084,8.062781350907052,3.785036213164968
0,2.3503256886628385,9.001074886752532,14.036884748507662,12.482032400097607,3.790036261002701
0,11.40037148153637,12.030859504595831,23.49665542485339,11.471282483175496,3.7950363088404337
0,3.4104145214673824,3.3306412876799674,4.53642459253557,4.950531603674931,3.8000363566781665
0,-9.609545199584257,-0.6395797714160493,-0.66380775105381,0.7297797642332461,3.8050364045159064
0,2.490492310144322,1.2001963194253216,-4.644041609302056,5.229026966902425,3.810036452353639
0,2.010527042540136,-3.740030447815474,-2.874276985695153,2.818273213371677,3.815036500191372
0,-10.389441010371876,-9.48026008105792,-17.354513883385163,-8.822481494922268,3.8200365480291048
0,-8.039411856340202,2.349507412106408,-16.92475230477631,-3.25323715654392,3.8250365958668446
0,-42.00938550234806,-23.57072797539779,-28.574992250954605,-27.573993769587812,3.8300366437045774
0,-16.27936195372007,-19.570966249784824,-25.505233721096214,-24.044751331014975,3.83503669154231
0,-24.029341213446354,-18.651207415817055,-18.755476712081485,-15.475509835966168,3.840036739380043
0,-2.1293232822512005,-6.781451476487309,-5.675721218567657,-10.266269277572787,3.845036787217783
0,7.080691840680088,1.4983015666691655,-4.695967233565141,-1.7770296473872123,3.8500368350555156
0,-8.47929584319716,-4.741948287069163,0.12378525084777492,0.6522090639757321,3.8550368828932484
0,-2.7892863322647945,-4.912201038054592,-7.976463756936913,3.1614468662758286,3.860036930730981
0,-9.729279624626786,-1.5324566863327793,7.903285751762846,8.770683769223446,3.865036978568714
0,-11.479275717815307,-8.562715231573648,-2.926966214228159,3.6299197821737765,3.870037026406454
0,-15.559274608513283,-6.742976672993086,0.4927803538874589,3.8491549139676753,3.8750370742441866
0,2.050723707636545,-4.993241009232818,-4.297474535115605,4.158389172963134,3.8800371220819194
0,-3.7992807641295436,-7.013508238305855,-5.117730872321028,-2.9723774328487274,3.885037169919652
0,-1.629288018097257,-6.403778357616604,-1.3779886485178998,-8.85314489561797,3.890037217757392
0,-6.269298048291953,-11.274051363926102,-14.478247854083765,-14.863913207204593,3.895037265595125
0,-2.929310848429264,-2.9643272532678955,-4.90850847881354,-7.4646823586908875,3.9000373134328576
0,-18.509326411747637,-11.874606020920268,-24.508770511639153,-9.555452340141867,3.9050373612705904
0,-24.499344730617544,-16.39488766135066,-15.219033940263255,-14.116223140616388,3.9100374091083303
0,-21.409365795895948,-25.245172167899355,-6.369298750875726,-15.806994748111237,3.915037456946063
0,-6.649389596514387,-11.275459532316548,-6.199564928291059,-7.737767149397784,3.920037504783796
0,11.670583880177222,-5.515749744651332,-1.0998324564135484,-8.338540330028113,3.9250375526215286
0,-1.1594453525342172,-10.086042793629916,-7.850101318599208,-7.119314274555542,3.9300376004592685
0,14.440522718444196,1.0836613328901967,-1.6803714977720268,6.3799110331911795,3.9350376482970013
0,-5.289511894315105,1.253362647588398,-0.8706429764589478,7.979135609689436,3.940037696134734
0,11.180450821249607,10.463061163290035,11.789084263022227,13.908359471128737,3.945037743972467
0,9.590410876719865,14.722756892464954,13.938810238101667,16.887582632853675,3.9500377918101996
0,20.16036828295192,23.08244984666458,30.46853496528634,31.13680510886681,3.9550378396479395
0,31.79032304952763,26.422140035917092,27.62825845938024,36.556026911185135,3.9600378874856723
0,21.000275184089052,30.98182746815376,26.717980732829734,37.76524804907347,3.965037935323405
0,24.09022469190892,31.591512148741252,32.59770179539494,44.064468528410565,3.970037983161138
0,37.440171575781875,23.531194080218526,32.36742165401078,30.193688351360823,3.9750380309988778
0,11.75011583593486,15.840873262385823,19.567140312696168,15.982907516502443,3.9800380788366105
0,4.30005747019878,4.690549692811097,8.876857772799248,4.532126019592105,3.9850381266743433
0,7.909996474765062,3.1902233675849914,2.4065740337371437,-7.558656145265429,3.990038174512076
0,-9.270067154981184,-5.520105717946198,-12.403710906054622,-14.639438984431408,3.995038222349816
0,-14.310133423809829,-10.50043756856547,-7.383997048216742,-11.720222503770282,4.000038270187549
0,-15.440202335925516,-12.860772188626132,-7.694284393822006,-15.581006708074954,4.0050383180252815
0,-9.94027389439844,-17.751109581561632,-23.594572943056253,-20.69179160080222,4.010038365863014
0,-7.930348101037858,-9.001449749559256,-8.724862694940054,-18.692577183847707,4.015038413700747
0,-17.97042495652519,-19.44179269344333,-6.355153647149675,-25.56336345728921,4.020038461538487
0,-27.810504460309367,-32.14213841252933,-23.27544579612413,-32.41415041910376,4.02503850937622
0,-35.66058661003377,-25.95248690415499,-34.405739136937996,-27.71493806479549,4.0300385572139525
0,-31.92067140077833,-24.802838163172286,-32.236033662573774,-24.625726387121794,4.035038605051685
0,-26.900758824591964,-26.36319218181986,-28.596329363192517,-32.906515376084165,4.040038652889425
0,-17.500848870558283,-17.53354894985351,-23.176626225960586,-26.297305018950308,4.045038700727158
0,-15.330941525265008,-21.303908454747816,-31.266924235250237,-28.278095300204832,4.050038748564891
0,-34.69103677322521,-20.434270681900557,-18.767223372819764,-20.7188862016056,4.0550387964026235
0,-15.151134596866157,-8.774635614792288,-10.597523618024697,-6.199677702494649,4.060038844240363
0,1.2987650234940333,-3.6250032352965733,-15.63782494827841,-0.25046978045629564,4.065038892078096
0,4.35866210896955,2.8146264757321733,-2.15812733956717,-0.9512624121591162,4.070038939915829
0,20.098556680979673,12.624253537765291,10.591569233054988,14.317944425949971,4.075038987753562
0,11.378448760285991,17.51387796989829,13.871264794715904,21.237150757025187,4.080039035591302
0,10.398338366461548,14.643499790203634,16.41095936986623,19.65635660308542,4.085039083429034
0,11.178225517826494,9.423119015375486,19.6406529816864,13.245561984470845,4.090039131266767
0,-3.831889768326915,12.042735660766798,7.160345651833035,11.664766919807144,4.0950391791045
0,-7.202007475300407,7.502349740584469,19.04003740047082,7.233971426298548,4.100039226942233
0,-12.832127586338267,-4.738038731877337,11.28972824639194,2.6531755200900657,4.105039274779973
0,-8.932250084028425,-2.808429743816503,3.86941820710131,-0.17762078336692944,4.110039322617705
0,11.247625049857003,3.041176717535875,9.71910729903077,10.661582530974668,4.115039370455438
0,-0.6125021660419001,6.43078066500813,16.04879553774483,9.760785477740914,4.120039418293171
0,0.11736828681454092,6.530382111217988,-2.2515170620865277,4.809988070889836,4.125039466130911
0,4.207236426740652,2.1799810683193392,5.5181695133816735,-4.4208096763265115,4.130039513968644
0,1.187102271881891,-2.6404224519846915,13.217855277410852,-2.5216077510115453,4.135039561806376
0,-16.68303415969489,-11.890828438132388,-8.102459757253795,-8.502406140169441,4.140039609644109
0,11.716827150264216,-4.771236878239469,-14.032775578187772,-7.073204830384605,4.145039657481849
0,-12.353313779641358,-8.93164775976588,-15.793092172588684,-11.944003807597577,4.150039705319582
0,10.516543069396032,4.777938930496785,9.51659047330228,0.8551969430183153,4.155039753157315
0,3.256397716174411,5.5575232061218465,11.64627237390869,5.144397436896445,4.160039800995047
0,18.036250179149093,9.047105080563826,0.6159535434901771,8.203597689598919,4.16503984883278
0,0.52610047603268,5.7366845667573445,-0.2643660042687062,12.772797716274086,4.17003989667052
0,18.33594862361131,3.9262616769781697,11.205313743890883,12.641997531251823,4.175039944508253
0,3.175794637726484,-1.074163577050235,-5.325007199089516,10.931197147789861,4.180039992345986
