labels,F4,F3,Fz,Cz,timestamps
0,-2038.13,-912.85,-1610.47,-1714.62,-2.000019135093776
0,-2021.41,-911.78,-1615.52,-1706.12,-1.9950190872560398
0,-2029.88,-901.77,-1605.11,-1699.4,-1.990019039418307
0,-2004.39,-899.19,-1605.82,-1692.1,-1.9850189915805707
0,-2006.51,-888.92,-1585.09,-1679.65,-1.980018943742838
0,-2022.52,-882.93,-1595.68,-1682.78,-1.9750188959051052
0,-2008.39,-881.33,-1581.92,-1684.5,-1.9700188480673688
0,-2009.03,-891.52,-1597.67,-1687.92,-1.965018800229636
0,-2017.11,-887.55,-1595.67,-1693.58,-1.9600187523918997
0,-2019.51,-887.25,-1589.2,-1699.4,-1.955018704554167
0,-2038.63,-890.78,-1610.8,-1706.37,-1.9500186567164306
0,-2008.67,-883.97,-1592.65,-1695.09,-1.9450186088786978
0,-2015.13,-884.66,-1603.91,-1694.11,-1.9400185610409615
0,-2021.11,-882.74,-1600.59,-1691.13,-1.9350185132032287
0,-2006.81,-887.43,-1596.24,-1695.75,-1.9300184653654924
0,-2017.27,-894.07,-1596.51,-1694.88,-1.9250184175277596
0,-2020.44,-895.78,-1603.15,-1703.6,-1.9200183696900233
0,-2013.21,-892.2,-1602.46,-1699.23,-1.9150183218522905
0,-1989.73,-872.37,-1583.98,-1685.83,-1.9100182740145542
0,-2010.92,-882.5,-1592.56,-1688.08,-1.9050182261768214
0,-2027.56,-884.91,-1593.95,-1686.51,-1.9000181783390886
0,-2027.96,-892.76,-1600.26,-1686.72,-1.8950181305013523
0,-2015.87,-880.29,-1588.09,-1682.58,-1.8900180826636195
0,-2018.64,-883.07,-1599.37,-1686.98,-1.8850180348258831
0,-2011.15,-882.28,-1578.37,-1677.86,-1.8800179869881504
0,-2010.42,-881.76,-1592.37,-1679.63,-1.875017939150414
0,-2007.48,-885.97,-1591.68,-1685.32,-1.8700178913126813
0,-2001.56,-876.25,-1585.35,-1678.42,-1.865017843474945
0,-1998.46,-880.46,-1579.35,-1685.97,-1.8600177956372121
0,-2004.84,-883.67,-1596.34,-1686.77,-1.8550177477994758
0,-2007.8,-884.74,-1593.82,-1690.92,-1.850017699961743
0,-1991.79,-876.61,-1591.26,-1685.26,-1.8450176521240067
0,-1995.61,-872.0,-1590.38,-1685.35,-1.840017604286274
0,-2007.07,-874.35,-1584.76,-1688.15,-1.8350175564485376
0,-2019.39,-886.26,-1603.43,-1693.68,-1.8300175086108048
0,-1999.1,-884.79,-1591.4,-1684.18,-1.825017460773072
0,-2030.98,-893.72,-1601.82,-1691.01,-1.8200174129353357
0,-2026.19,-888.67,-1594.43,-1686.21,-1.815017365097603
0,-2022.99,-887.56,-1593.58,-1688.16,-1.8100173172598666
0,-2020.85,-889.61,-1599.31,-1696.9,-1.8050172694221338
0,-2005.21,-884.2,-1583.03,-1686.24,-1.8000172215843975
0,-1998.74,-884.23,-1585.95,-1681.78,-1.7950171737466647
0,-2011.02,-888.09,-1595.87,-1675.05,-1.7900171259089284
0,-2000.87,-879.99,-1585.12,-1671.41,-1.7850170780711956
0,-2009.29,-874.18,-1577.83,-1670.88,-1.7800170302334593
0,-2014.0,-886.35,-1583.59,-1677.76,-1.7750169823957265
0,-2006.1,-885.86,-1600.06,-1683.97,-1.7700169345579901
0,-2014.35,-885.86,-1606.14,-1685.78,-1.7650168867202574
0,-2020.41,-889.09,-1599.37,-1698.48,-1.760016838882521
0,-2015.8,-901.45,-1607.75,-1696.12,-1.7550167910447882
0,-2029.63,-898.25,-1596.75,-1694.15,-1.7500167432070555
0,-2001.26,-888.3,-1587.39,-1678.33,-1.7450166953693191
0,-1997.74,-883.29,-1589.4,-1677.24,-1.7400166475315864
0,-1994.67,-884.0,-1585.09,-1684.31,-1.73501659969385
0,-1996.06,-887.25,-1589.52,-1683.82,-1.7300165518561172
0,-2007.1,-882.42,-1592.11,-1687.6,-1.725016504018381
0,-2009.3,-880.51,-1594.71,-1691.21,-1.7200164561806481
0,-2006.09,-881.61,-1591.54,-1695.57,-1.7150164083429118
0,-2005.6,-887.76,-1595.49,-1686.82,-1.710016360505179
0,-2025.77,-892.98,-1594.99,-1705.67,-1.7050163126674427
0,-2012.48,-891.44,-1599.74,-1702.38,-1.70001626482971
0,-2042.94,-906.8,-1619.13,-1710.61,-1.6950162169919736
0,-2033.83,-897.27,-1618.74,-1710.61,-1.6900161691542408
0,-2037.5,-913.34,-1619.64,-1719.09,-1.6850161213165045
0,-2027.32,-912.39,-1615.49,-1715.44,-1.6800160734787717
0,-2019.04,-892.52,-1595.81,-1701.78,-1.675016025641039
0,-2001.11,-887.39,-1594.54,-1693.76,-1.6700159778033026
0,-1991.69,-885.57,-1593.89,-1692.6,-1.6650159299655698
0,-1999.35,-870.74,-1577.47,-1685.02,-1.6600158821278335
0,-1999.76,-874.47,-1581.52,-1680.77,-1.6550158342901007
0,-2016.96,-880.39,-1578.61,-1678.7,-1.6500157864523644
0,-2001.64,-876.55,-1589.34,-1679.73,-1.6450157386146316
0,-2002.29,-871.98,-1580.69,-1666.96,-1.6400156907768952
0,-1971.18,-857.56,-1564.11,-1659.31,-1.6350156429391625
0,-2009.83,-882.86,-1584.62,-1682.42,-1.6300155951014261
0,-2014.61,-882.51,-1598.04,-1687.83,-1.6250155472636933
0,-2027.67,-892.96,-1606.37,-1694.36,-1.620015499425957
0,-2013.45,-875.82,-1582.2,-1681.46,-1.6150154515882242
0,-2010.95,-888.27,-1603.98,-1692.8,-1.610015403750488
0,-2007.63,-877.45,-1580.81,-1686.28,-1.6050153559127551
0,-2004.13,-880.75,-1585.08,-1687.08,-1.6000153080750223
0,-1998.29,-880.68,-1584.73,-1684.86,-1.595015260237286
0,-2001.98,-885.41,-1583.82,-1687.57,-1.5900152123995532
0,-1994.67,-873.19,-1586.49,-1687.48,-1.585015164561817
0,-2005.1,-879.1,-1579.62,-1690.27,-1.5800151167240841
0,-2006.87,-884.69,-1595.34,-1688.94,-1.5750150688863478
0,-2005.62,-880.78,-1584.87,-1676.39,-1.570015021048615
0,-1992.64,-873.86,-1579.94,-1663.31,-1.5650149732108787
0,-1999.64,-876.08,-1573.71,-1670.81,-1.560014925373146
0,-1994.28,-875.75,-1577.59,-1674.65,-1.5550148775354096
0,-1998.62,-881.98,-1595.47,-1684.52,-1.5500148296976768
0,-2004.83,-872.94,-1588.81,-1690.5,-1.5450147818599405
0,-2017.12,-884.32,-1596.23,-1689.9,-1.5400147340222077
0,-2018.05,-878.51,-1588.33,-1689.21,-1.535014686184475
0,-2011.74,-881.97,-1596.33,-1688.95,-1.5300146383467386
0,-2024.05,-882.53,-1592.24,-1695.71,-1.5250145905090058
0,-2006.97,-892.04,-1598.27,-1699.76,-1.5200145426712695
0,-2013.98,-890.31,-1604.42,-1700.5,-1.5150144948335367
0,-2036.38,-908.91,-1611.33,-1705.33,-1.5100144469958003
0,-2026.89,-906.62,-1615.35,-1695.92,-1.5050143991580676
0,-2027.57,-901.69,-1602.66,-1697.3,-1.5000143513203312
0,-2004.8,-889.64,-1599.07,-1693.55,-1.4950143034825985
0,-2021.34,-887.86,-1599.6,-1690.89,-1.4900142556448621
0,-2016.4,-889.94,-1600.54,-1692.53,-1.4850142078071293
0,-2004.56,-891.06,-1595.7,-1690.17,-1.480014159969393
0,-2005.29,-880.61,-1586.36,-1687.82,-1.4750141121316602
0,-2004.1,-876.99,-1590.05,-1686.38,-1.470014064293924
0,-1994.66,-869.31,-1581.92,-1684.16,-1.4650140164561911
0,-2018.91,-894.74,-1598.18,-1700.82,-1.4600139686184583
0,-1998.64,-886.69,-1594.23,-1698.29,-1.455013920780722
0,-2004.25,-890.71,-1596.13,-1693.46,-1.4500138729429892
0,-2016.01,-901.34,-1606.48,-1695.93,-1.445013825105253
0,-2012.63,-902.9,-1608.61,-1694.0,-1.4400137772675201
0,-2009.1,-885.41,-1596.91,-1686.02,-1.4350137294297838
0,-2006.91,-887.45,-1593.39,-1679.81,-1.430013681592051
0,-2002.44,-879.05,-1587.5,-1681.99,-1.4250136337543147
0,-2016.28,-887.27,-1590.86,-1688.94,-1.4200135859165819
0,-2012.22,-879.9,-1586.37,-1693.34,-1.4150135380788456
0,-2007.41,-869.29,-1578.39,-1688.67,-1.4100134902411128
0,-1999.01,-863.84,-1585.55,-1689.66,-1.4050134424033764
0,-1985.54,-869.19,-1576.24,-1685.14,-1.4000133945656437
0,-1997.45,-872.64,-1577.72,-1679.44,-1.3950133467279073
0,-2004.78,-869.67,-1579.8,-1683.17,-1.3900132988901746
0,-2009.65,-881.77,-1589.75,-1682.42,-1.3850132510524418
0,-2015.7,-884.15,-1588.16,-1686.45,-1.3800132032147054
0,-2002.13,-886.89,-1593.75,-1689.23,-1.3750131553769727
0,-2004.56,-888.67,-1592.06,-1689.84,-1.3700131075392363
0,-2001.82,-895.8,-1602.86,-1703.32,-1.3650130597015036
0,-2030.62,-892.41,-1604.85,-1713.48,-1.3600130118637672
0,-2014.76,-888.59,-1598.61,-1709.92,-1.3550129640260344
0,-1984.35,-878.39,-1584.86,-1697.62,-1.350012916188298
0,-2004.26,-873.01,-1584.41,-1687.28,-1.3450128683505653
0,-1994.9,-871.54,-1586.9,-1688.44,-1.340012820512829
0,-2001.57,-869.99,-1583.56,-1687.49,-1.3350127726750962
0,-2019.58,-871.74,-1586.42,-1684.51,-1.3300127248373599
0,-2014.98,-876.57,-1593.61,-1692.48,-1.325012676999627
0,-2011.97,-881.77,-1597.41,-1705.95,-1.3200126291618908
0,-2033.25,-896.74,-1609.45,-1706.21,-1.315012581324158
0,-2035.69,-901.08,-1613.44,-1705.39,-1.3100125334864252
0,-2013.12,-887.86,-1595.3,-1689.32,-1.3050124856486889
0,-2026.64,-900.69,-1611.03,-1695.63,-1.300012437810956
0,-2024.0,-895.97,-1604.02,-1684.88,-1.2950123899732198
0,-2016.36,-898.66,-1598.94,-1684.04,-1.290012342135487
0,-1986.65,-886.29,-1591.53,-1679.01,-1.2850122942977507
0,-2018.98,-883.27,-1588.23,-1686.75,-1.2800122464600179
0,-2010.92,-879.74,-1586.13,-1679.59,-1.2750121986222815
0,-2010.51,-874.27,-1584.72,-1683.18,-1.2700121507845488
0,-2004.01,-879.58,-1585.42,-1687.93,-1.2650121029468124
0,-1992.14,-873.24,-1580.43,-1689.71,-1.2600120551090797
0,-2005.31,-878.06,-1592.46,-1690.9,-1.2550120072713433
0,-2018.03,-879.97,-1587.46,-1686.19,-1.2500119594336105
0,-2009.12,-870.35,-1586.82,-1679.17,-1.2450119115958742
0,-1999.87,-883.27,-1589.77,-1681.68,-1.2400118637581414
0,-2007.64,-885.19,-1592.2,-1680.09,-1.2350118159204087
0,-2007.23,-888.56,-1599.63,-1688.48,-1.2300117680826723
0,-2018.51,-894.47,-1595.04,-1692.65,-1.2250117202449395
0,-2003.73,-898.02,-1604.2,-1687.98,-1.2200116724072032
0,-2030.83,-885.45,-1603.11,-1689.53,-1.2150116245694704
0,-2013.38,-885.47,-1592.0,-1689.21,-1.210011576731734
0,-2014.57,-882.62,-1587.76,-1680.75,-1.2050115288940013
0,-2002.75,-877.99,-1588.82,-1686.65,-1.200011481056265
0,-2039.03,-882.12,-1590.81,-1689.75,-1.1950114332185322
0,-1998.99,-878.42,-1594.05,-1688.61,-1.1900113853807959
0,-2012.95,-880.94,-1589.24,-1687.53,-1.185011337543063
0,-1996.95,-879.39,-1588.86,-1693.05,-1.1800112897053268
0,-2014.82,-887.85,-1599.34,-1712.27,-1.175011241867594
0,-2006.66,-891.09,-1598.55,-1705.5,-1.1700111940298576
0,-2018.96,-887.07,-1602.36,-1704.44,-1.1650111461921249
0,-2025.63,-896.35,-1615.41,-1705.47,-1.160011098354392
0,-2023.39,-889.68,-1605.35,-1697.77,-1.1550110505166558
0,-2020.1,-888.5,-1599.16,-1689.37,-1.150011002678923
0,-2022.49,-885.06,-1592.24,-1686.14,-1.1450109548411866
0,-2017.54,-889.72,-1604.02,-1693.97,-1.1400109070034539
0,-2004.2,-878.35,-1585.81,-1681.7,-1.1350108591657175
0,-2001.46,-883.09,-1584.92,-1680.98,-1.1300108113279848
0,-1978.92,-870.3,-1584.19,-1681.99,-1.1250107634902484
0,-2009.52,-875.59,-1584.17,-1680.62,-1.1200107156525156
0,-2002.33,-869.79,-1573.03,-1680.98,-1.1150106678147793
0,-2001.1,-875.34,-1588.91,-1688.82,-1.1100106199770465
0,-1995.67,-884.81,-1590.78,-1694.11,-1.1050105721393102
0,-2011.2,-879.16,-1589.89,-1692.43,-1.1000105243015774
0,-2029.59,-893.33,-1602.18,-1701.85,-1.095010476463841
0,-2025.55,-893.12,-1595.44,-1699.27,-1.0900104286261083
0,-2014.49,-891.64,-1596.69,-1700.95,-1.0850103807883755
0,-2014.27,-886.84,-1596.13,-1698.48,-1.0800103329506392
0,-2004.65,-889.05,-1591.6,-1698.53,-1.0750102851129064
0,-1999.96,-885.4,-1596.63,-1691.01,-1.07001023727517
0,-2031.04,-888.01,-1600.21,-1696.69,-1.0650101894374373
0,-2019.41,-890.2,-1599.77,-1690.76,-1.060010141599701
0,-2007.86,-879.24,-1590.61,-1685.58,-1.0550100937619682
0,-2001.9,-876.13,-1588.74,-1686.08,-1.0500100459242319
0,-1997.82,-878.97,-1580.92,-1683.92,-1.045009998086499
0,-2007.68,-870.27,-1584.75,-1688.88,-1.0400099502487627
0,-2006.81,-873.13,-1583.48,-1682.73,-1.03500990241103
0,-1998.79,-882.32,-1591.72,-1683.58,-1.0300098545732936
0,-2016.98,-892.21,-1599.33,-1681.71,-1.0250098067355609
0,-2002.32,-892.06,-1598.21,-1680.53,-1.0200097588978245
0,-2007.99,-893.73,-1599.79,-1681.43,-1.0150097110600917
0,-2019.52,-897.03,-1612.96,-1692.26,-1.010009663222359
0,-2007.01,-896.22,-1607.15,-1686.44,-1.0050096153846226
0,-2018.06,-889.7,-1599.01,-1684.74,-1.0000095675468899
0,-2014.93,-878.68,-1591.64,-1680.16,-0.9950095197091535
0,-2013.01,-888.17,-1604.57,-1697.48,-0.9900094718714207
0,-1998.58,-887.3,-1599.6,-1690.87,-0.9850094240336844
0,-2005.19,-885.28,-1594.43,-1691.94,-0.9800093761959516
0,-2011.86,-893.22,-1602.82,-1698.38,-0.9750093283582153
0,-2029.45,-889.09,-1600.95,-1699.42,-0.9700092805204825
0,-2018.43,-888.93,-1597.13,-1706.16,-0.9650092326827462
0,-2013.77,-887.71,-1598.66,-1704.26,-0.9600091848450134
0,-2006.13,-885.83,-1595.34,-1701.1,-0.9550091370072771
0,-2017.32,-887.17,-1594.4,-1699.73,-0.9500090891695443
0,-2014.7,-889.45,-1598.57,-1697.42,-0.945009041331808
0,-2003.57,-883.66,-1597.33,-1700.62,-0.9400089934940752
0,-2027.78,-892.9,-1603.27,-1713.64,-0.9350089456563424
0,-2010.95,-893.91,-1601.72,-1713.25,-0.9300088978186061
0,-2012.48,-886.84,-1597.68,-1716.78,-0.9250088499808733
0,-2003.91,-883.33,-1584.95,-1713.37,-0.920008802143137
0,-1992.08,-873.68,-1581.04,-1699.83,-0.9150087543054042
0,-1982.28,-873.89,-1576.82,-1691.09,-0.9100087064676678
0,-1991.25,-870.98,-1570.67,-1687.93,-0.9050086586299351
0,-1984.54,-869.63,-1573.55,-1679.66,-0.9000086107921987
0,-1981.73,-874.95,-1577.12,-1684.58,-0.895008562954466
0,-1990.14,-870.74,-1575.61,-1686.82,-0.8900085151167296
0,-2002.94,-879.36,-1592.42,-1692.04,-0.8850084672789968
0,-2008.53,-886.53,-1593.38,-1693.04,-0.8800084194412605
0,-2011.9,-882.06,-1596.0,-1686.38,-0.8750083716035277
0,-1995.43,-875.09,-1580.59,-1679.5,-0.870008323765795
0,-2003.02,-874.15,-1585.99,-1678.57,-0.8650082759280586
0,-1989.73,-877.39,-1593.66,-1682.3,-0.8600082280903258
0,-1978.62,-870.96,-1575.53,-1664.19,-0.8550081802525895
0,-1981.72,-863.15,-1573.42,-1662.29,-0.8500081324148567
0,-2005.54,-873.55,-1583.33,-1668.53,-0.8450080845771204
0,-2000.27,-872.19,-1577.42,-1665.63,-0.8400080367393876
0,-2002.46,-888.22,-1590.83,-1685.4,-0.8350079889016513
0,-1993.58,-877.17,-1581.28,-1670.67,-0.8300079410639185
0,-2022.4,-892.96,-1600.72,-1694.06,-0.8250078932261822
0,-1998.19,-884.9,-1595.22,-1689.13,-0.8200078453884494
0,-1992.08,-871.76,-1586.62,-1685.87,-0.8150077975507131
0,-2009.69,-876.7,-1586.58,-1697.81,-0.8100077497129803
0,-2010.44,-883.48,-1589.67,-1690.93,-0.805007701875244
0,-2011.8,-886.68,-1603.53,-1700.42,-0.8000076540375112
0,-2019.38,-891.77,-1598.19,-1700.08,-0.7950076061997784
0,-2020.96,-898.68,-1604.25,-1701.59,-0.7900075583620421
0,-2015.63,-895.06,-1598.97,-1700.19,-0.7850075105243093
0,-2011.85,-895.96,-1602.22,-1702.48,-0.780007462686573
0,-2003.78,-888.4,-1593.15,-1699.03,-0.7750074148488402
0,-2014.3,-884.0,-1593.82,-1705.11,-0.7700073670111038
0,-2009.29,-879.6,-1595.04,-1701.46,-0.7650073191733711
0,-2017.17,-884.25,-1596.42,-1698.17,-0.7600072713356347
0,-2011.34,-888.25,-1603.84,-1693.93,-0.755007223497902
0,-1991.74,-884.56,-1600.32,-1686.9,-0.7500071756601656
0,-2017.37,-892.14,-1608.17,-1691.84,-0.7450071278224328
0,-2023.97,-894.78,-1609.56,-1696.16,-0.7400070799846965
0,-2025.53,-901.48,-1608.45,-1698.38,-0.7350070321469637
0,-2024.91,-902.5,-1608.15,-1703.53,-0.7300069843092274
0,-2026.19,-901.69,-1607.54,-1694.78,-0.7250069364714946
0,-2025.99,-895.28,-1607.46,-1696.48,-0.7200068886337618
0,-2001.64,-883.08,-1595.82,-1686.68,-0.7150068407960255
0,-2022.32,-881.02,-1602.17,-1687.01,-0.7100067929582927
0,-2015.16,-876.08,-1585.29,-1683.05,-0.7050067451205564
0,-2003.02,-877.67,-1586.93,-1686.05,-0.7000066972828236
0,-1983.73,-882.95,-1595.54,-1692.58,-0.6950066494450873
0,-2018.24,-886.7,-1598.18,-1693.4,-0.6900066016073545
0,-2007.68,-876.23,-1578.56,-1677.75,-0.6850065537696182
0,-1998.58,-876.15,-1583.17,-1680.1,-0.6800065059318854
0,-1983.94,-878.39,-1584.8,-1684.86,-0.675006458094149
0,-2001.25,-876.81,-1578.3,-1673.53,-0.6700064102564163
0,-1991.03,-871.91,-1582.56,-1674.7,-0.6650063624186799
0,-1990.95,-868.9,-1578.25,-1674.02,-0.6600063145809472
0,-2005.97,-870.24,-1585.82,-1682.8,-0.6550062667432108
0,-1989.93,-878.29,-1580.81,-1688.19,-0.650006218905478
0,-2004.49,-877.72,-1591.4,-1691.71,-0.6450061710677453
0,-2006.27,-874.58,-1588.16,-1693.18,-0.6400061232300089
0,-2011.08,-880.83,-1598.59,-1701.18,-0.6350060753922762
0,-2012.34,-870.08,-1593.1,-1685.66,-0.6300060275545398
0,-2000.05,-870.43,-1594.41,-1691.17,-0.625005979716807
0,-1999.11,-862.95,-1580.34,-1687.3,-0.6200059318790707
0,-1993.33,-841.1,-1563.32,-1676.54,-0.6150058840413379
0,-1978.84,-836.17,-1559.18,-1667.71,-0.6100058362036016
0,-1983.56,-851.89,-1566.26,-1669.36,-0.6050057883658688
0,-1984.99,-855.13,-1568.8,-1664.15,-0.6000057405281325
0,-1996.96,-865.25,-1570.48,-1674.33,-0.5950056926903997
0,-1981.21,-863.08,-1566.37,-1668.4,-0.5900056448526634
0,-1988.9,-863.11,-1574.13,-1682.41,-0.5850055970149306
0,-1988.19,-862.89,-1569.41,-1673.83,-0.5800055491771943
0,-2003.63,-874.55,-1584.82,-1680.56,-0.5750055013394615
0,-2002.1,-860.66,-1572.47,-1664.63,-0.5700054535017287
0,-1986.94,-867.56,-1576.8,-1670.7,-0.5650054056639924
0,-1993.8,-868.38,-1579.04,-1675.41,-0.5600053578262596
0,-2008.95,-866.86,-1578.83,-1668.23,-0.5550053099885233
0,-2010.76,-883.51,-1590.54,-1673.82,-0.5500052621507905
0,-2016.38,-901.88,-1602.57,-1693.78,-0.5450052143130542
0,-2041.06,-915.25,-1627.44,-1714.03,-0.5400051664753214
0,-2055.62,-918.42,-1638.18,-1713.69,-0.535005118637585
0,-2043.03,-911.32,-1629.65,-1711.41,-0.5300050707998523
0,-2045.87,-912.97,-1627.48,-1715.66,-0.5250050229621159
0,-2039.65,-907.69,-1624.79,-1713.98,-0.5200049751243832
0,-2014.1,-896.75,-1612.87,-1701.19,-0.5150049272866468
0,-2006.51,-882.44,-1610.63,-1701.97,-0.510004879448914
0,-1993.3,-871.79,-1594.6,-1695.66,-0.5050048316111777
0,-1986.42,-878.72,-1589.56,-1695.56,-0.5000047837734449
0,-2013.75,-891.16,-1593.51,-1695.06,-0.49500473593571215
0,-2013.75,-911.78,-1610.1,-1712.99,-0.4900046880979758
0,-2054.12,-895.3,-1605.02,-1710.22,-0.48500464026024304
0,-2057.02,-914.78,-1624.03,-1711.51,-0.4800045924225067
0,-2060.45,-909.11,-1602.13,-1702.69,-0.4750045445847739
0,-2043.7,-900.75,-1605.16,-1701.62,-0.4700044967470376
0,-2003.73,-886.7,-1602.07,-1693.94,-0.4650044489093048
0,-2013.1,-888.0,-1581.81,-1686.64,-0.4600044010715685
0,-2027.31,-900.43,-1599.94,-1692.25,-0.4550043532338357
0,-2006.54,-895.74,-1597.66,-1687.29,-0.45000430539609937
0,-1993.72,-879.28,-1573.33,-1674.92,-0.4450042575583666
0,-2012.03,-881.51,-1591.4,-1682.35,-0.44000420972063026
0,-2007.17,-876.45,-1588.72,-1675.06,-0.4350041618828975
0,-2008.62,-869.35,-1583.48,-1673.47,-0.43000411404516115
0,-2005.6,-874.21,-1574.8,-1678.44,-0.42500406620742837
0,-1970.5,-859.47,-1575.69,-1672.51,-0.4200040183696956
0,-1974.19,-852.94,-1570.0,-1674.25,-0.41500397053195925
0,-1969.48,-848.18,-1563.76,-1673.05,-0.4100039226942265
0,-1978.86,-847.49,-1560.92,-1674.49,-0.40500387485649014
0,-1967.2,-830.84,-1547.45,-1662.06,-0.40000382701875736
0,-1964.12,-823.51,-1543.46,-1657.68,-0.39500377918102103
0,-1941.86,-816.1,-1537.32,-1653.45,-0.39000373134328825
0,-1954.16,-832.67,-1551.37,-1664.61,-0.3850036835055519
0,-1950.99,-833.93,-1543.54,-1661.08,-0.38000363566781914
0,-1975.73,-834.9,-1556.31,-1669.89,-0.3750035878300828
0,-1965.89,-836.92,-1548.94,-1662.95,-0.37000353999235003
0,-1968.54,-850.23,-1568.5,-1676.63,-0.3650034921546137
0,-1977.54,-851.3,-1563.45,-1671.09,-0.3600034443168809
0,-1983.1,-857.07,-1566.29,-1664.32,-0.3550033964791446
0,-1981.61,-861.1,-1575.0,-1669.6,-0.3500033486414118
0,-1987.97,-864.61,-1574.96,-1668.95,-0.345003300803679
0,-1994.68,-871.68,-1579.39,-1670.36,-0.3400032529659427
0,-2002.56,-884.33,-1594.87,-1682.49,-0.3350032051282099
0,-2007.8,-887.24,-1594.47,-1683.99,-0.3300031572904736
0,-2012.8,-889.56,-1589.91,-1682.15,-0.3250031094527408
0,-2021.67,-884.31,-1595.91,-1685.68,-0.32000306161500447
0,-1996.64,-882.76,-1591.29,-1682.52,-0.3150030137772717
0,-2007.05,-881.05,-1581.27,-1674.6,-0.31000296593953536
0,-2008.3,-888.14,-1592.96,-1679.32,-0.3050029181018026
0,-2013.95,-875.18,-1585.2,-1678.23,-0.30000287026406625
0,-2005.29,-882.77,-1591.19,-1677.78,-0.29500282242633347
0,-2008.93,-895.65,-1599.37,-1688.32,-0.29000277458859713
0,-2017.85,-893.22,-1597.82,-1691.04,-0.28500272675086435
0,-2018.14,-887.5,-1596.14,-1686.67,-0.280002678913128
0,-2018.66,-892.39,-1589.75,-1687.72,-0.27500263107539524
0,-2020.03,-890.41,-1584.43,-1693.66,-0.27000258323766246
0,-2018.22,-906.51,-1612.15,-1701.51,-0.26500253539992613
0,-2027.97,-901.17,-1617.01,-1700.82,-0.26000248756219335
0,-2038.8,-907.02,-1613.58,-1698.16,-0.255002439724457
0,-2035.25,-896.28,-1608.13,-1695.38,-0.25000239188672424
0,-2025.49,-885.22,-1607.75,-1692.77,-0.2450023440489879
0,-2021.39,-890.84,-1611.24,-1693.55,-0.24000229621125513
0,-2020.76,-903.79,-1610.71,-1699.0,-0.2350022483735188
0,-2047.68,-926.18,-1625.86,-1708.84,-0.23000220053578602
0,-2051.34,-914.8,-1624.75,-1707.92,-0.22500215269804968
0,-2044.46,-915.04,-1621.92,-1702.85,-0.2200021048603169
0,-2050.68,-917.84,-1620.05,-1703.01,-0.21500205702258057
0,-2042.25,-919.15,-1625.33,-1700.14,-0.2100020091848478
0,-2019.11,-911.08,-1617.09,-1696.19,-0.205001961347115
0,-2046.22,-916.24,-1623.7,-1707.72,-0.20000191350937868
0,-2046.39,-905.5,-1620.97,-1705.75,-0.1950018656716459
0,-2025.43,-890.1,-1608.42,-1689.35,-0.19000181783390957
0,-2019.96,-904.89,-1607.77,-1695.72,-0.1850017699961768
0,-2022.28,-898.79,-1606.8,-1701.36,-0.18000172215844046
0,-2015.24,-894.23,-1602.7,-1689.55,-0.17500167432070768
0,-2026.85,-896.86,-1602.13,-1689.64,-0.17000162648297135
0,-2014.93,-906.03,-1614.74,-1690.71,-0.16500157864523857
0,-2019.96,-909.79,-1615.71,-1690.63,-0.16000153080750223
0,-2008.11,-885.45,-1587.51,-1678.31,-0.15500148296976946
0,-1996.31,-878.28,-1596.14,-1686.2,-0.15000143513203312
0,-2015.84,-886.24,-1593.77,-1693.49,-0.14500138729430034
0,-2000.47,-877.18,-1592.8,-1685.23,-0.140001339456564
0,-1977.45,-872.48,-1583.0,-1679.84,-0.13500129161883123
0,-2007.93,-889.15,-1599.63,-1689.72,-0.13000124378109845
0,-2000.82,-885.87,-1603.93,-1695.9,-0.12500119594336212
0,-2022.0,-885.54,-1598.51,-1695.36,-0.12000114810562934
0,-2018.25,-880.33,-1589.38,-1685.8,-0.11500110026789301
0,-2004.6,-874.82,-1591.51,-1688.96,-0.11000105243016023
0,-2015.09,-894.39,-1597.63,-1691.9,-0.1050010045924239
0,-2048.02,-904.55,-1610.51,-1688.93,-0.10000095675469112
0,-2020.96,-895.69,-1602.06,-1678.14,-0.09500090891695478
0,-2023.42,-896.1,-1601.8,-1684.29,-0.090000861079222
0,-1993.84,-872.35,-1584.75,-1671.19,-0.08500081324148567
0,-1996.35,-875.61,-1572.04,-1670.87,-0.0800007654037529
0,-2021.43,-878.82,-1590.21,-1679.84,-0.07500071756601656
0,-2032.95,-904.06,-1599.88,-1689.16,-0.07000066972828378
0,-2027.88,-890.11,-1604.21,-1687.41,-0.06500062189054745
0,-2023.43,-890.59,-1598.19,-1689.4,-0.06000057405281467
0,-2021.9,-883.72,-1599.42,-1687.55,-0.05500052621508189
0,-2028.73,-893.78,-1609.18,-1692.75,-0.05000047837734556
0,-2033.8,-911.97,-1609.32,-1700.44,-0.04500043053961278
0,-2024.05,-906.73,-1613.97,-1701.83,-0.04000038270187645
0,-2012.62,-875.74,-1606.37,-1691.26,-0.03500033486414367
0,-2047.4,-905.55,-1621.12,-1702.77,-0.030000287026407335
0,-2053.77,-919.01,-1622.16,-1704.89,-0.025000239188674556
0,-2041.26,-910.14,-1621.51,-1704.1,-0.020000191350938223
0,-2026.48,-898.72,-1603.91,-1690.05,-0.015000143513205444
0,-2028.16,-893.53,-1605.0,-1691.14,-0.010000095675469112
0,-2018.57,-895.74,-1605.04,-1696.49,-0.005000047837736332
0,-2013.39,-894.95,-1592.51,-1689.1,0.0
0,-2006.92,-896.34,-1594.54,-1694.9,0.0050000478377327795
0,-2029.03,-888.66,-1592.79,-1688.91,0.010000095675469112
0,-2010.54,-884.2,-1590.58,-1685.76,0.015000143513201891
0,-2004.53,-873.34,-1584.8,-1677.92,0.02000019135093467
0,-2006.39,-883.41,-1589.5,-1684.31,0.025000239188671003
0,-1992.27,-885.93,-1589.65,-1685.44,0.030000287026403782
0,-2017.16,-879.09,-1590.12,-1681.34,0.035000334864140115
0,-2025.2,-886.36,-1598.29,-1686.94,0.040000382701872894
0,-2018.65,-890.01,-1588.75,-1679.69,0.045000430539609226
0,-2017.02,-883.33,-1585.0,-1675.1,0.050000478377342006
0,-1993.05,-874.78,-1582.9,-1673.66,0.05500052621507834
0,-1998.86,-879.91,-1585.39,-1680.1,0.06000057405281112
0,-1989.92,-873.8,-1572.23,-1669.95,0.06500062189054745
0,-2005.08,-881.18,-1593.21,-1679.72,0.07000066972828023
0,-2015.69,-882.0,-1588.41,-1685.82,0.07500071756601656
0,-2015.07,-882.95,-1598.37,-1682.49,0.08000076540374934
0,-2006.56,-878.93,-1589.16,-1678.07,0.08500081324148567
0,-1997.1,-869.83,-1579.3,-1673.42,0.09000086107921845
0,-2014.56,-876.49,-1601.68,-1684.35,0.09500090891695123
0,-2016.69,-886.6,-1598.32,-1694.31,0.10000095675468756
0,-2036.56,-889.87,-1606.12,-1701.14,0.10500100459242034
0,-2004.71,-884.48,-1603.76,-1695.24,0.11000105243015668
0,-2018.6,-879.15,-1593.68,-1686.68,0.11500110026788946
0,-2020.75,-883.43,-1601.8,-1694.04,0.12000114810562579
0,-2007.64,-879.11,-1587.85,-1686.63,0.12500119594335857
0,-2016.46,-881.75,-1589.51,-1684.04,0.1300012437810949
0,-2002.36,-875.34,-1585.5,-1678.53,0.13500129161882768
0,-2008.43,-883.08,-1591.87,-1688.87,0.140001339456564
0,-2001.94,-878.45,-1588.23,-1689.01,0.1450013872942968
0,-2000.28,-877.19,-1585.66,-1685.56,0.15000143513203312
0,-2008.36,-874.76,-1586.68,-1684.33,0.1550014829697659
0,-2025.13,-883.57,-1597.96,-1698.37,0.16000153080750223
0,-2011.23,-883.26,-1592.67,-1687.56,0.16500157864523501
0,-2023.52,-889.73,-1609.55,-1692.19,0.1700016264829678
0,-2020.76,-895.53,-1611.35,-1693.12,0.17500167432070413
0,-1988.76,-889.8,-1595.38,-1681.32,0.1800017221584369
0,-2005.95,-902.6,-1612.26,-1692.76,0.18500176999617324
0,-2007.47,-905.65,-1610.7,-1697.38,0.19000181783390602
0,-2015.23,-892.01,-1594.68,-1685.94,0.19500186567164235
0,-2012.32,-888.42,-1597.77,-1685.38,0.20000191350937513
0,-2004.51,-888.82,-1586.95,-1675.1,0.20500196134711146
0,-1999.57,-872.17,-1581.67,-1670.56,0.21000200918484424
0,-1999.05,-876.61,-1589.43,-1679.95,0.21500205702258057
0,-1996.82,-870.94,-1581.03,-1676.48,0.22000210486031335
0,-1993.35,-874.5,-1583.05,-1678.56,0.22500215269804968
0,-1997.35,-878.23,-1582.23,-1682.06,0.23000220053578246
0,-2031.1,-890.57,-1599.94,-1696.95,0.2350022483735188
0,-2032.3,-899.79,-1612.77,-1703.54,0.24000229621125158
0,-2048.52,-901.46,-1612.04,-1708.61,0.24500234404898436
0,-2016.63,-892.11,-1595.44,-1700.23,0.2500023918867207
0,-2031.01,-902.87,-1612.44,-1704.47,0.25500243972445347
0,-2010.94,-898.82,-1605.68,-1693.77,0.2600024875621898
0,-2036.37,-910.78,-1609.44,-1699.06,0.2650025353999226
0,-1988.71,-882.98,-1598.52,-1688.78,0.2700025832376589
0,-2002.55,-880.59,-1582.88,-1686.41,0.2750026310753917
0,-2026.17,-891.19,-1596.54,-1697.6,0.280002678913128
0,-2006.97,-885.26,-1603.6,-1696.89,0.2850027267508608
0,-2028.59,-886.83,-1601.45,-1694.34,0.29000277458859713
0,-2013.12,-890.61,-1595.24,-1693.07,0.2950028224263299
0,-2006.98,-879.29,-1597.69,-1692.15,0.30000287026406625
0,-2025.3,-891.49,-1600.49,-1690.83,0.305002918101799
0,-2014.31,-901.19,-1608.93,-1697.67,0.31000296593953536
0,-2029.65,-889.81,-1600.47,-1689.81,0.31500301377726814
0,-1999.15,-895.19,-1604.83,-1692.16,0.3200030616150009
0,-2035.86,-911.18,-1619.15,-1706.7,0.32500310945273725
0,-2019.27,-894.68,-1604.53,-1695.83,0.33000315729047003
0,-2024.76,-894.51,-1603.62,-1693.21,0.33500320512820636
0,-2028.47,-897.79,-1606.81,-1690.72,0.34000325296593914
0,-2006.56,-894.65,-1607.59,-1684.8,0.3450033008036755
0,-2024.72,-879.65,-1595.68,-1685.35,0.35000334864140825
0,-2015.32,-890.24,-1598.56,-1692.61,0.3550033964791446
0,-2015.24,-886.6,-1595.4,-1695.39,0.36000344431687736
0,-2018.19,-883.93,-1589.27,-1693.32,0.3650034921546137
0,-2002.56,-888.49,-1591.86,-1688.6,0.3700035399923465
0,-2018.21,-881.75,-1588.64,-1689.14,0.3750035878300828
0,-2010.83,-883.63,-1595.83,-1689.55,0.3800036356678156
0,-2001.71,-884.76,-1588.39,-1680.8,0.3850036835055519
0,-2029.92,-888.86,-1602.18,-1687.81,0.3900037313432847
0,-2007.8,-894.26,-1607.38,-1690.13,0.3950037791810175
0,-2007.17,-877.65,-1585.51,-1678.64,0.4000038270187538
0,-2006.29,-874.81,-1585.98,-1676.3,0.4050038748564866
0,-2004.87,-877.42,-1582.24,-1678.44,0.4100039226942229
0,-1971.75,-871.21,-1580.21,-1681.54,0.4150039705319557
0,-2017.02,-872.89,-1575.96,-1679.96,0.42000401836969203
0,-1993.36,-876.13,-1584.31,-1683.9,0.4250040662074248
0,-1992.16,-868.95,-1578.89,-1674.83,0.43000411404516115
0,-1989.46,-867.21,-1576.05,-1676.76,0.4350041618828939
0,-1967.41,-877.66,-1575.89,-1675.16,0.44000420972063026
0,-1994.73,-874.55,-1577.5,-1675.69,0.44500425755836304
0,-1999.63,-879.52,-1581.75,-1682.19,0.45000430539609937
0,-2008.71,-883.79,-1586.68,-1686.71,0.45500435323383215
0,-2015.06,-888.38,-1594.67,-1694.98,0.4600044010715685
0,-2012.61,-889.5,-1591.41,-1693.25,0.46500444890930126
0,-2008.78,-883.77,-1588.97,-1692.04,0.47000449674703404
0,-2015.16,-892.26,-1594.46,-1689.89,0.47500454458477037
0,-1999.69,-887.25,-1591.71,-1682.12,0.48000459242250315
0,-1999.11,-880.32,-1587.05,-1685.52,0.4850046402602395
0,-2013.6,-885.73,-1594.7,-1690.06,0.49000468809797226
0,-2006.69,-884.05,-1589.7,-1686.31,0.4950047359357086
0,-2016.18,-885.6,-1591.88,-1688.18,0.5000047837734414
0,-1997.14,-881.95,-1591.86,-1691.87,0.5050048316111777
0,-2004.45,-881.6,-1587.01,-1692.36,0.5100048794489105
0,-2001.99,-882.44,-1590.31,-1695.03,0.5150049272866468
0,-1999.61,-877.04,-1590.56,-1690.1,0.5200049751243796
0,-2014.39,-883.51,-1597.7,-1696.91,0.5250050229621159
0,-2009.67,-868.43,-1575.62,-1687.13,0.5300050707998487
0,-1994.21,-871.72,-1584.78,-1681.23,0.5350051186375815
0,-1998.35,-873.42,-1579.38,-1680.02,0.5400051664753178
0,-1998.6,-874.34,-1581.31,-1680.4,0.5450052143130506
0,-1994.72,-883.73,-1585.11,-1681.51,0.5500052621507869
0,-2007.72,-878.93,-1585.2,-1679.95,0.5550053099885197
0,-2010.56,-878.69,-1590.34,-1687.42,0.560005357826256
0,-2007.46,-883.17,-1595.61,-1693.42,0.5650054056639888
0,-2011.05,-879.1,-1591.77,-1683.08,0.5700054535017252
0,-2000.87,-881.44,-1585.98,-1679.74,0.5750055013394579
0,-2011.9,-884.14,-1595.05,-1680.99,0.5800055491771943
0,-2010.62,-878.54,-1599.82,-1685.06,0.585005597014927
0,-2012.51,-882.22,-1599.82,-1685.75,0.5900056448526634
0,-2006.53,-885.13,-1590.13,-1687.16,0.5950056926903962
0,-2013.56,-879.13,-1589.73,-1688.71,0.6000057405281325
0,-2018.16,-880.39,-1601.04,-1689.75,0.6050057883658653
0,-2004.92,-880.02,-1592.57,-1698.7,0.610005836203598
0,-2038.37,-892.33,-1603.31,-1693.64,0.6150058840413344
0,-2022.68,-893.27,-1602.55,-1690.25,0.6200059318790672
0,-2035.74,-898.14,-1606.23,-1693.11,0.6250059797168035
0,-2030.26,-889.87,-1595.96,-1684.99,0.6300060275545363
0,-2003.97,-889.82,-1600.23,-1680.37,0.6350060753922726
0,-2002.04,-884.29,-1589.74,-1673.66,0.6400061232300054
0,-2006.45,-895.85,-1589.5,-1678.49,0.6450061710677417
0,-2001.4,-890.68,-1600.77,-1682.34,0.6500062189054745
0,-2003.95,-888.98,-1596.95,-1686.21,0.6550062667432108
0,-2020.13,-882.81,-1589.82,-1683.16,0.6600063145809436
0,-2003.68,-888.3,-1603.72,-1686.47,0.6650063624186799
0,-2020.05,-891.51,-1602.41,-1692.18,0.6700064102564127
0,-2027.65,-899.24,-1605.98,-1694.61,0.675006458094149
0,-2016.25,-891.96,-1601.69,-1692.15,0.6800065059318818
0,-2010.52,-884.31,-1597.35,-1684.56,0.6850065537696146
0,-1990.52,-886.6,-1587.42,-1683.14,0.690006601607351
0,-1996.47,-882.74,-1596.51,-1682.49,0.6950066494450837
0,-1999.53,-883.05,-1586.62,-1680.18,0.7000066972828201
0,-2000.01,-882.71,-1588.9,-1687.85,0.7050067451205528
0,-2010.45,-876.63,-1577.59,-1679.6,0.7100067929582892
0,-2002.74,-869.9,-1577.78,-1673.97,0.715006840796022
0,-2000.55,-880.67,-1587.44,-1676.37,0.7200068886337583
0,-2009.24,-882.65,-1586.28,-1683.31,0.7250069364714911
0,-2016.48,-877.68,-1585.27,-1675.27,0.7300069843092274
0,-2009.69,-884.05,-1597.89,-1682.45,0.7350070321469602
0,-2005.9,-879.0,-1579.55,-1689.75,0.7400070799846965
0,-1980.83,-876.73,-1583.88,-1679.9,0.7450071278224293
0,-2001.28,-880.15,-1586.84,-1684.19,0.7500071756601656
0,-2006.94,-881.66,-1578.99,-1682.38,0.7550072234978984
0,-2010.06,-876.45,-1587.02,-1682.35,0.7600072713356312
0,-2007.71,-866.77,-1592.86,-1679.7,0.7650073191733675
0,-2030.23,-884.71,-1600.47,-1697.14,0.7700073670111003
0,-2006.54,-891.61,-1591.68,-1699.51,0.7750074148488366
0,-2026.64,-892.51,-1606.46,-1699.4,0.7800074626865694
0,-2027.11,-891.81,-1598.01,-1694.42,0.7850075105243057
0,-2041.46,-896.46,-1605.05,-1697.88,0.7900075583620385
0,-2006.38,-886.23,-1599.64,-1693.51,0.7950076061997748
0,-2016.22,-899.77,-1601.2,-1709.53,0.8000076540375076
0,-2009.4,-901.17,-1609.99,-1708.6,0.805007701875244
0,-2022.53,-900.05,-1602.4,-1702.42,0.8100077497129767
0,-2010.08,-894.98,-1601.78,-1702.4,0.8150077975507131
0,-2021.66,-897.35,-1609.29,-1702.77,0.8200078453884458
0,-2006.46,-887.43,-1597.92,-1690.64,0.8250078932261822
0,-2015.73,-889.85,-1599.18,-1689.42,0.830007941063915
0,-2002.51,-878.65,-1583.9,-1671.54,0.8350079889016477
0,-1992.67,-874.1,-1583.89,-1672.53,0.8400080367393841
0,-2012.93,-885.2,-1593.69,-1694.13,0.8450080845771168
0,-2013.86,-889.35,-1594.38,-1692.39,0.8500081324148532
0,-2007.85,-876.59,-1586.33,-1684.95,0.855008180252586
0,-2019.27,-878.79,-1598.43,-1694.26,0.8600082280903223
0,-2009.86,-880.64,-1594.13,-1684.49,0.8650082759280551
0,-2018.26,-877.26,-1593.08,-1690.07,0.8700083237657914
0,-2016.22,-889.49,-1603.5,-1692.2,0.8750083716035242
0,-2017.82,-892.15,-1605.52,-1694.4,0.8800084194412605
0,-1998.93,-880.19,-1602.41,-1691.83,0.8850084672789933
0,-2007.57,-880.59,-1596.62,-1689.4,0.8900085151167296
0,-2018.46,-876.92,-1591.51,-1683.05,0.8950085629544624
0,-2000.13,-875.53,-1598.18,-1680.99,0.9000086107921987
0,-2014.18,-884.96,-1594.58,-1687.63,0.9050086586299315
0,-2011.46,-879.43,-1590.93,-1684.25,0.9100087064676643
0,-2000.45,-886.67,-1601.78,-1686.08,0.9150087543054006
0,-2012.67,-882.23,-1584.54,-1687.19,0.9200088021431334
0,-2009.59,-884.24,-1597.15,-1694.6,0.9250088499808697
0,-2000.48,-879.78,-1588.97,-1688.67,0.9300088978186025
0,-2001.22,-880.2,-1590.09,-1684.24,0.9350089456563389
0,-2002.06,-876.1,-1590.52,-1684.88,0.9400089934940716
0,-2015.5,-886.52,-1584.04,-1686.71,0.945009041331808
0,-2007.8,-884.15,-1597.24,-1681.08,0.9500090891695407
0,-2021.62,-882.83,-1595.77,-1687.05,0.9550091370072771
0,-2022.82,-888.05,-1607.14,-1695.7,0.9600091848450099
0,-2012.32,-888.55,-1602.47,-1691.02,0.9650092326827462
0,-2001.93,-880.48,-1590.73,-1686.94,0.970009280520479
0,-2016.23,-886.05,-1602.99,-1691.37,0.9750093283582153
0,-2013.85,-886.32,-1584.97,-1691.84,0.9800093761959481
0,-2006.72,-884.91,-1591.23,-1687.09,0.9850094240336809
0,-2018.65,-885.99,-1595.56,-1686.21,0.9900094718714172
0,-2005.22,-881.71,-1586.73,-1688.21,0.99500951970915
0,-1996.55,-870.99,-1587.93,-1678.21,1.0000095675468863
0,-1998.0,-876.6,-1579.65,-1682.01,1.005009615384619
0,-2005.63,-880.22,-1591.41,-1681.75,1.0100096632223554
0,-2025.78,-897.03,-1611.13,-1699.54,1.0150097110600882
0,-2028.08,-898.62,-1602.9,-1692.7,1.0200097588978245
0,-2022.19,-890.03,-1597.24,-1687.67,1.0250098067355573
0,-2012.86,-889.31,-1599.58,-1693.45,1.0300098545732936
0,-2025.25,-894.11,-1608.09,-1697.77,1.0350099024110264
0,-2018.77,-889.89,-1595.01,-1698.69,1.0400099502487627
0,-2005.29,-887.73,-1592.98,-1693.92,1.0450099980864955
0,-2017.24,-886.08,-1602.28,-1698.53,1.0500100459242283
0,-2013.65,-888.79,-1591.72,-1691.9,1.055010093761961
0,-2019.67,-884.44,-1601.49,-1689.28,1.060010141599701
0,-2006.47,-877.06,-1588.68,-1684.12,1.0650101894374338
0,-2010.31,-885.63,-1593.34,-1684.35,1.0700102372751665
0,-2004.16,-884.32,-1591.14,-1683.93,1.0750102851128993
0,-1998.11,-877.0,-1582.92,-1678.36,1.0800103329506392
0,-2007.23,-884.92,-1588.98,-1693.26,1.085010380788372
0,-2011.24,-883.99,-1588.88,-1685.63,1.0900104286261048
0,-1999.34,-873.56,-1575.08,-1679.28,1.0950104764638375
0,-2004.49,-883.95,-1586.94,-1684.21,1.1000105243015774
0,-2002.76,-881.8,-1586.76,-1683.25,1.1050105721393102
0,-2007.89,-880.94,-1587.23,-1685.34,1.110010619977043
0,-2008.51,-885.9,-1597.17,-1686.65,1.1150106678147758
0,-2009.72,-889.55,-1597.09,-1690.86,1.1200107156525156
0,-2015.3,-893.31,-1600.03,-1693.69,1.1250107634902484
0,-2019.86,-888.38,-1598.3,-1691.48,1.1300108113279812
0,-2008.01,-896.5,-1602.74,-1691.36,1.135010859165714
0,-2009.82,-892.97,-1593.74,-1691.24,1.1400109070034468
0,-2010.63,-893.48,-1597.58,-1689.19,1.1450109548411866
0,-2008.59,-895.09,-1594.52,-1692.48,1.1500110026789194
0,-2008.71,-882.43,-1584.48,-1686.5,1.1550110505166522
0,-2013.87,-892.8,-1599.05,-1695.11,1.160011098354385
0,-2011.71,-897.85,-1611.5,-1700.32,1.1650111461921249
0,-2009.48,-891.83,-1598.31,-1684.77,1.1700111940298576
0,-2012.09,-887.47,-1592.22,-1685.34,1.1750112418675904
0,-1998.85,-879.7,-1582.52,-1679.84,1.1800112897053232
0,-1993.89,-876.45,-1585.82,-1681.66,1.185011337543063
0,-2006.75,-883.53,-1582.83,-1689.13,1.1900113853807959
0,-2005.37,-873.3,-1583.19,-1688.13,1.1950114332185287
0,-2000.66,-882.71,-1587.72,-1689.65,1.2000114810562614
0,-2000.68,-873.83,-1580.54,-1681.81,1.2050115288939942
0,-2003.18,-877.13,-1580.72,-1684.47,1.210011576731734
0,-2001.43,-882.54,-1594.32,-1688.08,1.2150116245694669
0,-2012.83,-884.22,-1591.7,-1688.99,1.2200116724071997
0,-2010.24,-881.05,-1597.44,-1696.48,1.2250117202449324
0,-2005.8,-881.76,-1586.58,-1697.92,1.2300117680826723
0,-2009.77,-881.78,-1593.67,-1697.31,1.235011815920405
0,-2009.52,-879.56,-1593.04,-1694.94,1.2400118637581379
0,-2008.83,-883.97,-1592.39,-1692.78,1.2450119115958707
0,-2008.58,-887.96,-1593.93,-1693.32,1.2500119594336105
0,-2006.88,-876.75,-1585.0,-1684.66,1.2550120072713433
0,-2017.93,-877.49,-1593.81,-1692.07,1.260012055109076
0,-2002.85,-881.37,-1593.51,-1687.27,1.2650121029468089
0,-2010.19,-887.25,-1593.26,-1696.06,1.2700121507845488
0,-1995.39,-891.87,-1601.4,-1696.27,1.2750121986222815
0,-2005.5,-888.02,-1596.14,-1694.23,1.2800122464600143
0,-1996.35,-881.25,-1590.33,-1688.06,1.285012294297747
0,-1988.27,-868.76,-1576.93,-1683.81,1.2900123421354799
0,-1999.88,-867.43,-1576.79,-1681.98,1.2950123899732198
0,-1985.29,-855.82,-1565.12,-1677.05,1.3000124378109525
0,-1989.49,-849.89,-1564.04,-1671.66,1.3050124856486853
0,-1977.92,-836.56,-1554.1,-1663.13,1.310012533486418
0,-1972.17,-830.59,-1546.0,-1659.88,1.315012581324158
0,-1969.08,-843.61,-1558.35,-1672.87,1.3200126291618908
0,-1972.32,-852.46,-1558.86,-1671.25,1.3250126769996236
0,-1964.6,-847.49,-1559.98,-1665.69,1.3300127248373563
0,-1989.66,-858.79,-1577.56,-1677.61,1.3350127726750962
0,-1995.07,-857.59,-1576.64,-1679.97,1.340012820512829
0,-1996.42,-868.41,-1579.57,-1679.28,1.3450128683505618
0,-2006.0,-864.14,-1584.91,-1679.2,1.3500129161882946
0,-1998.75,-855.05,-1567.73,-1676.51,1.3550129640260273
0,-2003.45,-867.01,-1576.6,-1681.11,1.3600130118637672
0,-2004.3,-868.54,-1579.12,-1681.12,1.3650130597015
0,-1983.9,-869.97,-1578.93,-1680.79,1.3700131075392328
0,-2000.61,-879.27,-1584.49,-1691.42,1.3750131553769656
0,-1990.95,-867.35,-1569.14,-1674.76,1.3800132032147054
0,-1995.27,-882.45,-1589.58,-1685.49,1.3850132510524382
0,-2010.37,-890.89,-1599.99,-1691.43,1.390013298890171
0,-2028.67,-894.98,-1596.62,-1690.71,1.3950133467279038
0,-2013.43,-888.6,-1600.65,-1689.13,1.4000133945656437
0,-2026.08,-893.36,-1603.25,-1685.46,1.4050134424033764
0,-2022.08,-898.54,-1607.58,-1691.64,1.4100134902411092
0,-2027.6,-898.63,-1609.49,-1696.56,1.415013538078842
0,-2033.24,-908.58,-1608.96,-1706.01,1.4200135859165819
0,-2019.44,-912.39,-1618.15,-1702.26,1.4250136337543147
0,-2055.5,-918.17,-1621.45,-1713.42,1.4300136815920474
0,-2028.3,-905.31,-1614.58,-1699.42,1.4350137294297802
0,-2032.98,-909.58,-1611.2,-1697.56,1.440013777267513
0,-2016.56,-903.8,-1603.9,-1690.86,1.445013825105253
0,-2020.69,-901.34,-1603.47,-1692.62,1.4500138729429857
0,-2024.01,-893.12,-1602.98,-1688.96,1.4550139207807185
0,-2018.07,-899.49,-1605.57,-1691.05,1.4600139686184512
0,-2032.54,-907.01,-1612.54,-1699.83,1.4650140164561911
0,-2020.44,-904.76,-1624.57,-1697.52,1.470014064293924
0,-2037.21,-911.38,-1622.23,-1709.91,1.4750141121316567
0,-2047.1,-926.0,-1635.32,-1721.45,1.4800141599693895
0,-2035.11,-922.19,-1628.02,-1715.22,1.4850142078071293
0,-2052.6,-915.16,-1621.88,-1709.74,1.4900142556448621
0,-2037.58,-896.32,-1615.16,-1698.81,1.495014303482595
0,-2003.2,-888.29,-1604.22,-1685.6,1.5000143513203277
0,-2037.1,-885.85,-1598.67,-1687.8,1.5050143991580605
0,-2002.06,-896.1,-1610.08,-1694.34,1.5100144469958003
0,-2044.09,-896.37,-1609.51,-1694.37,1.5150144948335331
0,-2038.21,-890.86,-1599.11,-1695.49,1.520014542671266
0,-2021.55,-890.49,-1605.54,-1688.01,1.5250145905089987
0,-2015.87,-895.51,-1604.86,-1681.49,1.5300146383467386
0,-2002.25,-891.93,-1596.27,-1680.97,1.5350146861844713
0,-2009.49,-897.18,-1602.47,-1683.49,1.5400147340222041
0,-2029.46,-891.79,-1591.78,-1689.13,1.545014781859937
0,-2008.54,-884.76,-1598.89,-1690.14,1.5500148296976768
0,-2001.68,-881.01,-1595.35,-1684.99,1.5550148775354096
0,-2025.54,-892.47,-1600.26,-1693.37,1.5600149253731423
0,-1997.01,-870.84,-1575.78,-1678.32,1.5650149732108751
0,-2015.89,-876.22,-1593.67,-1686.23,1.570015021048608
0,-2013.77,-887.82,-1593.23,-1689.75,1.5750150688863478
0,-1997.59,-877.2,-1587.95,-1685.83,1.5800151167240806
0,-2011.73,-888.01,-1590.51,-1689.64,1.5850151645618134
0,-2022.41,-888.0,-1602.09,-1692.26,1.5900152123995461
0,-2020.84,-883.68,-1593.65,-1688.87,1.595015260237286
0,-2018.0,-883.75,-1588.8,-1691.67,1.6000153080750188
0,-2015.37,-884.48,-1595.95,-1689.84,1.6050153559127516
0,-2002.01,-883.35,-1588.23,-1685.44,1.6100154037504844
0,-2015.25,-884.55,-1579.72,-1692.74,1.6150154515882242
0,-2009.82,-877.48,-1586.1,-1685.02,1.620015499425957
0,-2023.97,-892.92,-1600.61,-1700.16,1.6250155472636898
0,-2010.15,-882.08,-1585.24,-1690.15,1.6300155951014226
0,-2009.36,-880.04,-1588.79,-1692.4,1.6350156429391625
0,-2005.31,-881.53,-1592.96,-1689.24,1.6400156907768952
0,-2009.77,-893.08,-1594.64,-1694.36,1.645015738614628
0,-2004.5,-878.45,-1587.45,-1682.07,1.6500157864523608
0,-2002.33,-876.0,-1588.47,-1685.45,1.6550158342900936
0,-2003.0,-877.31,-1592.78,-1681.41,1.6600158821278335
0,-2011.26,-883.09,-1586.06,-1687.36,1.6650159299655662
0,-2009.29,-881.87,-1598.72,-1686.57,1.670015977803299
0,-1988.11,-877.53,-1584.58,-1682.19,1.6750160256410318
0,-1997.25,-875.79,-1589.27,-1673.42,1.6800160734787717
0,-2009.8,-882.66,-1579.76,-1673.31,1.6850161213165045
0,-1989.67,-873.29,-1579.45,-1668.42,1.6900161691542372
0,-2003.59,-880.42,-1595.78,-1683.17,1.69501621699197
0,-1996.03,-870.85,-1577.18,-1670.55,1.70001626482971
0,-1995.64,-878.06,-1589.93,-1671.8,1.7050163126674427
0,-2009.49,-882.53,-1583.27,-1678.97,1.7100163605051755
0,-2005.16,-882.99,-1594.94,-1686.11,1.7150164083429082
0,-2011.96,-883.99,-1587.02,-1687.77,1.720016456180641
0,-2008.73,-889.55,-1600.7,-1697.56,1.725016504018381
0,-2007.07,-887.81,-1596.67,-1694.39,1.7300165518561137
0,-2002.92,-880.9,-1596.12,-1686.8,1.7350165996938465
0,-2013.7,-879.28,-1594.44,-1690.96,1.7400166475315793
0,-2022.71,-897.17,-1606.4,-1700.33,1.7450166953693191
0,-2008.62,-887.38,-1603.23,-1691.33,1.750016743207052
0,-2017.28,-893.61,-1597.4,-1694.17,1.7550167910447847
0,-2012.81,-887.31,-1607.59,-1693.86,1.7600168388825175
0,-2012.99,-890.11,-1602.29,-1696.43,1.7650168867202574
0,-2004.28,-889.1,-1593.63,-1695.81,1.7700169345579901
0,-2004.61,-882.45,-1587.68,-1682.49,1.775016982395723
0,-2019.38,-889.2,-1592.71,-1687.83,1.7800170302334557
0,-2013.13,-889.11,-1597.71,-1688.73,1.7850170780711956
0,-2017.09,-890.47,-1598.94,-1695.48,1.7900171259089284
0,-2003.97,-884.43,-1598.11,-1688.16,1.7950171737466611
0,-2017.28,-886.97,-1587.47,-1688.47,1.800017221584394
0,-2005.16,-889.77,-1596.21,-1688.89,1.8050172694221267
0,-2018.19,-889.04,-1594.61,-1687.39,1.8100173172598666
0,-2005.96,-881.67,-1590.56,-1689.9,1.8150173650975994
0,-2005.82,-880.96,-1588.36,-1685.44,1.8200174129353321
0,-2003.93,-884.86,-1588.13,-1690.06,1.825017460773065
0,-2001.11,-884.4,-1601.88,-1690.19,1.8300175086108048
0,-2017.69,-880.78,-1586.43,-1682.02,1.8350175564485376
0,-2015.39,-890.04,-1602.68,-1692.84,1.8400176042862704
0,-1991.41,-883.39,-1589.49,-1686.43,1.8450176521240031
0,-2011.63,-872.34,-1576.68,-1685.12,1.850017699961743
0,-1995.14,-886.18,-1592.86,-1685.32,1.8550177477994758
0,-2016.74,-888.31,-1593.8,-1684.56,1.8600177956372086
0,-2003.78,-889.71,-1592.57,-1685.56,1.8650178434749414
0,-2006.88,-878.79,-1583.19,-1680.89,1.8700178913126742
0,-2009.89,-892.14,-1592.77,-1692.04,1.875017939150414
0,-2017.94,-892.14,-1590.76,-1696.16,1.8800179869881468
0,-2026.85,-892.02,-1599.69,-1698.5,1.8850180348258796
0,-1996.32,-894.53,-1595.83,-1695.9,1.8900180826636124
0,-2027.13,-899.33,-1604.29,-1691.81,1.8950181305013523
0,-2005.87,-881.16,-1590.52,-1687.22,1.900018178339085
0,-2009.47,-878.92,-1591.11,-1683.52,1.9050182261768178
0,-2019.02,-881.74,-1597.63,-1692.94,1.9100182740145506
0,-2019.96,-894.5,-1604.23,-1698.95,1.9150183218522905
0,-2014.15,-888.54,-1593.98,-1686.77,1.9200183696900233
0,-2017.78,-894.51,-1596.11,-1692.63,1.925018417527756
0,-2009.51,-889.58,-1606.68,-1695.26,1.9300184653654888
0,-2030.41,-879.03,-1598.06,-1688.83,1.9350185132032287
0,-2016.86,-882.88,-1597.84,-1690.86,1.9400185610409615
0,-2024.42,-886.8,-1596.27,-1695.7,1.9450186088786943
0,-2040.43,-899.1,-1615.9,-1705.51,1.950018656716427
0,-2031.26,-892.72,-1602.69,-1691.36,1.9550187045541598
0,-2017.0,-887.96,-1597.03,-1684.47,1.9600187523918997
0,-1999.9,-880.35,-1592.76,-1679.98,1.9650188002296325
0,-2013.52,-883.07,-1592.18,-1690.73,1.9700188480673653
0,-2014.5,-884.56,-1599.97,-1695.01,1.975018895905098
0,-2019.15,-889.27,-1604.26,-1696.54,1.980018943742838
0,-2022.25,-901.9,-1600.19,-1703.94,1.9850189915805707
0,-1986.82,-882.79,-1596.2,-1690.02,1.9900190394183035
0,-2028.21,-891.96,-1600.7,-1699.86,1.9950190872560363
0,-1993.78,-884.92,-1590.46,-1688.29,2.000019135093776
0,-2001.79,-888.99,-1594.11,-1693.26,2.005019182931509
0,-2028.87,-886.63,-1605.37,-1689.04,2.0100192307692417
0,-2011.92,-890.23,-1601.21,-1692.76,2.0150192786069745
0,-2028.64,-891.25,-1599.08,-1692.03,2.0200193264447073
0,-2036.69,-885.32,-1596.17,-1688.57,2.025019374282447
0,-1992.68,-878.38,-1585.48,-1678.47,2.03001942212018
0,-2007.56,-874.88,-1583.89,-1673.49,2.0350194699579127
0,-1999.03,-872.43,-1581.63,-1670.41,2.0400195177956455
0,-2016.01,-887.49,-1587.34,-1684.11,2.0450195656333854
0,-2000.63,-887.04,-1595.77,-1689.06,2.050019613471118
0,-2005.32,-891.91,-1602.08,-1690.24,2.055019661308851
0,-2007.12,-890.49,-1601.74,-1686.59,2.0600197091465837
0,-2003.27,-883.92,-1588.68,-1677.03,2.0650197569843236
0,-1984.36,-877.6,-1579.68,-1675.94,2.0700198048220564
0,-2014.3,-878.2,-1590.07,-1683.48,2.075019852659789
0,-2018.46,-883.62,-1597.33,-1693.78,2.080019900497522
0,-2006.95,-871.6,-1582.52,-1683.27,2.085019948335262
0,-2026.4,-880.81,-1593.18,-1693.17,2.0900199961729946
0,-2001.46,-888.19,-1588.4,-1697.1,2.0950200440107274
0,-2009.6,-888.3,-1589.1,-1691.35,2.10002009184846
0,-2008.39,-880.39,-1585.74,-1682.4,2.105020139686193
0,-1999.32,-890.28,-1587.48,-1690.4,2.110020187523933
0,-2006.36,-891.55,-1593.44,-1689.83,2.1150202353616656
0,-1994.48,-884.83,-1585.16,-1680.99,2.1200202831993984
0,-2017.26,-886.03,-1584.42,-1684.45,2.125020331037131
0,-2001.87,-877.45,-1591.45,-1682.2,2.130020378874871
0,-2008.94,-887.07,-1599.97,-1691.52,2.135020426712604
0,-1991.88,-895.39,-1599.49,-1694.86,2.1400204745503366
0,-2007.0,-888.61,-1599.36,-1690.02,2.1450205223880694
0,-2009.76,-878.79,-1591.61,-1680.08,2.1500205702258093
0,-2005.78,-878.17,-1581.47,-1678.33,2.155020618063542
0,-2005.77,-881.82,-1591.62,-1687.19,2.160020665901275
0,-2014.45,-878.77,-1594.1,-1687.25,2.1650207137390076
0,-2017.72,-879.06,-1587.09,-1685.42,2.1700207615767404
0,-2003.57,-874.61,-1586.13,-1676.21,2.1750208094144803
0,-2009.35,-886.38,-1593.65,-1680.84,2.180020857252213
0,-2017.56,-882.79,-1585.62,-1682.2,2.185020905089946
0,-2019.08,-878.97,-1586.09,-1676.93,2.1900209529276786
0,-2003.63,-880.65,-1582.02,-1682.04,2.1950210007654185
0,-2000.76,-875.09,-1589.98,-1689.96,2.2000210486031513
0,-2010.81,-884.0,-1602.3,-1695.79,2.205021096440884
0,-2011.45,-880.06,-1586.4,-1684.48,2.210021144278617
0,-2014.94,-891.41,-1592.59,-1690.0,2.2150211921163567
0,-1990.25,-884.17,-1587.16,-1682.68,2.2200212399540895
0,-2010.01,-883.58,-1594.18,-1686.99,2.2250212877918223
0,-1994.54,-874.75,-1581.54,-1677.2,2.230021335629555
0,-2004.61,-872.27,-1576.59,-1677.15,2.235021383467288
0,-2002.24,-883.13,-1595.97,-1693.69,2.2400214313050277
0,-2017.73,-893.37,-1600.29,-1698.05,2.2450214791427605
0,-2000.54,-881.98,-1587.55,-1686.4,2.2500215269804933
0,-2000.43,-885.54,-1592.14,-1685.6,2.255021574818226
0,-1996.02,-890.07,-1593.2,-1694.57,2.260021622655966
0,-1990.89,-874.27,-1581.15,-1678.65,2.2650216704936987
0,-1987.22,-863.83,-1573.56,-1673.23,2.2700217183314315
0,-2002.24,-868.14,-1570.48,-1679.96,2.2750217661691643
0,-2003.94,-870.16,-1583.57,-1676.6,2.280021814006904
0,-2010.71,-877.16,-1591.31,-1685.92,2.285021861844637
0,-2019.01,-882.23,-1592.43,-1691.77,2.2900219096823697
0,-2013.42,-882.78,-1596.12,-1695.13,2.2950219575201025
0,-2022.46,-902.23,-1606.94,-1703.72,2.3000220053578424
0,-2019.99,-888.21,-1595.74,-1693.92,2.305022053195575
0,-2008.49,-882.52,-1594.87,-1689.87,2.310022101033308
0,-2009.79,-877.27,-1594.5,-1681.21,2.3150221488710407
0,-2011.5,-876.7,-1586.98,-1685.16,2.3200221967087735
0,-2005.66,-876.71,-1582.0,-1684.45,2.3250222445465134
0,-2008.98,-885.45,-1590.98,-1689.23,2.330022292384246
0,-2015.3,-894.51,-1603.19,-1695.25,2.335022340221979
0,-2019.52,-904.23,-1612.03,-1695.73,2.3400223880597117
0,-2032.45,-901.31,-1609.31,-1697.72,2.3450224358974516
0,-2019.85,-897.32,-1605.35,-1695.0,2.3500224837351844
0,-2017.51,-896.95,-1606.09,-1694.95,2.355022531572917
0,-2012.28,-882.98,-1596.71,-1694.75,2.36002257941065
0,-2014.8,-883.1,-1592.77,-1692.91,2.36502262724839
0,-2009.65,-891.68,-1596.2,-1699.58,2.3700226750861226
0,-2016.16,-891.04,-1593.82,-1694.35,2.3750227229238554
0,-2015.39,-882.93,-1595.69,-1694.37,2.380022770761588
0,-2000.49,-873.2,-1587.7,-1687.04,2.385022818599321
0,-2007.26,-884.35,-1598.43,-1691.14,2.390022866437061
0,-2006.37,-880.13,-1591.08,-1687.13,2.3950229142747936
0,-2000.36,-880.75,-1591.96,-1683.17,2.4000229621125264
0,-2016.47,-883.23,-1592.66,-1682.33,2.405023009950259
0,-2015.24,-881.8,-1589.72,-1684.06,2.410023057787999
0,-2006.25,-876.22,-1590.47,-1687.47,2.415023105625732
0,-2007.42,-881.08,-1593.58,-1696.81,2.4200231534634646
0,-2013.34,-885.19,-1602.97,-1697.21,2.4250232013011974
0,-2011.02,-875.46,-1590.22,-1681.89,2.4300232491389373
0,-2012.96,-887.64,-1590.36,-1683.53,2.43502329697667
0,-2015.61,-880.7,-1591.27,-1680.52,2.440023344814403
0,-2004.24,-891.98,-1598.52,-1683.63,2.4450233926521356
0,-2019.42,-889.79,-1597.75,-1687.1,2.4500234404898755
0,-2029.84,-899.59,-1611.05,-1693.7,2.4550234883276083
0,-2017.92,-899.09,-1607.5,-1693.44,2.460023536165341
0,-2009.75,-882.89,-1592.6,-1686.96,2.465023584003074
0,-2016.7,-884.34,-1591.85,-1691.08,2.4700236318408066
0,-2010.14,-884.5,-1591.7,-1689.94,2.4750236796785465
0,-2005.79,-876.94,-1589.03,-1684.91,2.4800237275162793
0,-2015.26,-872.4,-1585.1,-1679.45,2.485023775354012
0,-2004.55,-868.53,-1583.07,-1680.94,2.490023823191745
0,-2005.57,-869.9,-1584.17,-1678.05,2.4950238710294848
0,-2012.27,-885.67,-1594.51,-1687.77,2.5000239188672175
0,-2000.9,-877.99,-1591.15,-1687.95,2.5050239667049503
0,-2018.32,-887.49,-1599.12,-1696.13,2.510024014542683
0,-1997.57,-883.55,-1592.73,-1685.37,2.515024062380423
0,-2006.98,-880.71,-1586.17,-1688.0,2.5200241102181558
0,-2011.23,-888.42,-1598.3,-1702.44,2.5250241580558885
0,-2004.15,-877.16,-1587.47,-1689.93,2.5300242058936213
0,-2005.82,-871.22,-1584.6,-1685.86,2.535024253731354
0,-2007.1,-881.65,-1594.33,-1689.61,2.540024301569094
0,-2009.0,-879.86,-1590.02,-1682.02,2.5450243494068268
0,-2014.45,-883.39,-1589.71,-1680.11,2.5500243972445595
0,-2024.44,-892.76,-1601.74,-1691.15,2.5550244450822923
0,-2021.11,-890.81,-1603.82,-1686.49,2.560024492920032
0,-2013.32,-891.62,-1595.58,-1681.66,2.565024540757765
0,-2005.32,-881.78,-1586.43,-1674.3,2.5700245885954978
0,-1996.78,-880.56,-1587.75,-1678.27,2.5750246364332305
0,-2006.64,-887.96,-1591.97,-1680.71,2.5800246842709704
0,-2009.21,-887.13,-1595.44,-1684.49,2.585024732108703
0,-2013.99,-882.79,-1588.27,-1679.81,2.590024779946436
0,-2022.12,-886.28,-1597.15,-1684.36,2.5950248277841688
0,-2013.45,-885.52,-1588.21,-1681.24,2.6000248756219086
0,-2001.3,-873.7,-1588.63,-1687.44,2.6050249234596414
0,-1997.28,-870.33,-1590.18,-1685.43,2.610024971297374
0,-2013.49,-885.28,-1593.8,-1691.58,2.615025019135107
0,-2012.37,-884.77,-1584.4,-1679.15,2.6200250669728398
0,-1997.8,-884.46,-1590.75,-1679.45,2.6250251148105797
0,-2003.36,-885.86,-1587.27,-1676.71,2.6300251626483124
0,-2032.15,-888.22,-1603.8,-1694.28,2.635025210486045
0,-2020.36,-892.92,-1606.46,-1701.07,2.640025258323778
0,-2018.0,-898.89,-1602.43,-1696.35,2.645025306161518
0,-2003.83,-883.61,-1591.13,-1676.72,2.6500253539992507
0,-2020.68,-899.05,-1599.76,-1694.16,2.6550254018369834
0,-2020.75,-908.89,-1611.19,-1707.8,2.660025449674716
0,-2026.17,-897.07,-1605.8,-1702.12,2.665025497512456
0,-2023.37,-893.32,-1611.22,-1696.51,2.670025545350189
0,-2035.49,-895.91,-1611.45,-1702.08,2.6750255931879217
0,-2018.93,-894.01,-1605.74,-1699.21,2.6800256410256544
0,-2025.52,-891.63,-1608.74,-1696.43,2.685025688863387
0,-2037.58,-888.82,-1599.87,-1695.22,2.690025736701127
0,-2013.28,-880.58,-1593.23,-1682.51,2.69502578453886
0,-2001.71,-876.8,-1589.46,-1683.04,2.7000258323765927
0,-2002.12,-884.13,-1594.41,-1679.48,2.7050258802143254
0,-2005.0,-889.89,-1594.6,-1688.32,2.7100259280520653
0,-2008.19,-882.79,-1583.78,-1682.27,2.715025975889798
0,-2001.11,-873.34,-1577.86,-1669.31,2.720026023727531
0,-2012.86,-877.12,-1594.12,-1677.13,2.7250260715652637
0,-2007.78,-877.13,-1577.73,-1672.6,2.7300261194030035
0,-2010.23,-879.31,-1594.3,-1679.62,2.7350261672407363
0,-2021.65,-893.92,-1599.75,-1688.88,2.740026215078469
0,-2021.69,-894.03,-1601.71,-1693.53,2.745026262916202
0,-2026.61,-893.98,-1607.19,-1694.34,2.7500263107539418
0,-2003.4,-882.39,-1591.95,-1691.35,2.7550263585916746
0,-2018.99,-895.69,-1600.01,-1694.34,2.7600264064294073
0,-2010.64,-884.6,-1590.91,-1691.24,2.76502645426714
0,-2007.85,-877.36,-1590.87,-1683.31,2.770026502104873
0,-2001.9,-877.33,-1582.9,-1684.7,2.7750265499426128
0,-1987.21,-874.12,-1583.82,-1679.84,2.7800265977803456
0,-2010.93,-877.11,-1592.65,-1681.0,2.7850266456180783
0,-2002.03,-874.75,-1589.2,-1688.53,2.790026693455811
0,-2031.88,-894.46,-1605.34,-1707.43,2.795026741293551
0,-2016.81,-886.22,-1596.44,-1697.26,2.8000267891312838
0,-2014.61,-885.95,-1592.99,-1694.4,2.8050268369690166
0,-1994.56,-884.57,-1589.33,-1696.12,2.8100268848067493
0,-2015.36,-890.13,-1603.64,-1699.63,2.815026932644489
0,-2022.17,-889.79,-1604.68,-1699.38,2.820026980482222
0,-2016.44,-888.75,-1599.64,-1694.04,2.825027028319955
0,-1998.92,-884.69,-1595.06,-1686.86,2.8300270761576876
0,-1999.85,-895.4,-1593.96,-1685.72,2.8350271239954203
0,-2026.72,-894.16,-1612.65,-1697.51,2.8400271718331602
0,-2020.15,-889.77,-1594.05,-1688.53,2.845027219670893
0,-2021.77,-884.27,-1593.0,-1686.28,2.850027267508626
0,-2020.51,-900.14,-1603.05,-1698.98,2.8550273153463586
0,-2008.39,-891.81,-1607.28,-1702.45,2.8600273631840984
0,-2007.75,-895.94,-1605.86,-1702.94,2.8650274110218312
0,-2015.98,-886.69,-1596.03,-1688.24,2.870027458859564
0,-1988.31,-873.35,-1584.3,-1677.65,2.875027506697297
0,-1982.77,-873.12,-1581.86,-1680.35,2.8800275545350367
0,-1991.23,-870.91,-1578.98,-1677.48,2.8850276023727695
0,-2008.32,-864.12,-1576.09,-1676.02,2.8900276502105022
0,-1998.63,-872.57,-1578.8,-1679.85,2.895027698048235
0,-1981.43,-865.4,-1574.68,-1676.45,2.900027745885968
0,-1993.57,-867.39,-1579.43,-1679.99,2.9050277937237077
0,-1996.09,-870.82,-1577.42,-1684.09,2.9100278415614405
0,-1997.57,-862.64,-1573.11,-1672.59,2.9150278893991732
0,-1986.27,-856.34,-1561.15,-1666.44,2.920027937236906
0,-1995.54,-872.86,-1574.91,-1680.48,2.925027985074646
0,-1997.25,-878.76,-1580.73,-1685.58,2.9300280329123787
0,-2001.83,-880.11,-1590.04,-1687.22,2.9350280807501115
0,-2017.83,-889.72,-1594.86,-1693.32,2.9400281285878442
0,-2021.17,-896.41,-1604.45,-1694.54,2.945028176425584
0,-2000.28,-881.98,-1589.75,-1681.74,2.950028224263317
0,-2013.58,-883.63,-1592.25,-1685.71,2.9550282721010497
0,-2028.85,-890.56,-1591.74,-1684.68,2.9600283199387825
0,-2005.44,-890.85,-1597.43,-1690.03,2.9650283677765223
0,-2005.65,-882.56,-1601.16,-1693.57,2.970028415614255
0,-2009.5,-885.31,-1590.32,-1694.78,2.975028463451988
0,-2003.32,-886.81,-1592.48,-1693.13,2.9800285112897207
0,-2008.66,-885.61,-1591.61,-1693.06,2.9850285591274535
0,-2030.39,-896.29,-1607.32,-1698.1,2.9900286069651933
0,-2030.5,-895.96,-1608.01,-1700.5,2.995028654802926
0,-2019.7,-902.88,-1605.7,-1695.08,3.000028702640659
0,-2022.98,-894.58,-1598.67,-1691.05,3.0050287504783917
0,-2017.82,-887.07,-1591.33,-1689.54,3.0100287983161316
0,-2022.33,-889.91,-1597.01,-1694.38,3.0150288461538644
0,-2025.89,-899.56,-1598.9,-1701.25,3.020028893991597
0,-2001.2,-885.99,-1602.54,-1691.17,3.02502894182933
0,-1989.02,-888.98,-1598.38,-1690.73,3.03002898966707
0,-2006.72,-890.9,-1592.89,-1691.24,3.0350290375048026
0,-2021.58,-885.51,-1601.0,-1684.21,3.0400290853425354
0,-2021.68,-885.84,-1596.88,-1691.5,3.045029133180268
0,-2010.44,-891.96,-1605.86,-1695.4,3.050029181018001
0,-2023.53,-895.79,-1610.06,-1707.36,3.055029228855741
0,-2020.65,-891.88,-1600.33,-1696.54,3.0600292766934736
0,-2012.4,-889.23,-1600.52,-1695.51,3.0650293245312064
0,-2024.52,-886.93,-1603.5,-1689.37,3.070029372368939
0,-2024.95,-898.0,-1604.96,-1703.64,3.075029420206679
0,-2016.95,-901.99,-1616.67,-1704.86,3.080029468044412
0,-2025.52,-890.51,-1599.25,-1692.37,3.0850295158821446
0,-2024.28,-895.12,-1612.19,-1698.54,3.0900295637198774
0,-2007.57,-891.85,-1610.95,-1695.9,3.0950296115576172
0,-2013.27,-883.9,-1588.78,-1690.49,3.10002965939535
0,-2026.65,-898.49,-1592.72,-1697.87,3.105029707233083
0,-1986.32,-879.24,-1592.02,-1680.03,3.1100297550708156
0,-2001.72,-874.97,-1576.1,-1679.71,3.1150298029085555
0,-2007.41,-882.83,-1589.18,-1679.75,3.1200298507462882
0,-2006.82,-882.87,-1593.77,-1680.27,3.125029898584021
0,-2011.38,-887.22,-1597.78,-1682.22,3.130029946421754
0,-2029.02,-893.37,-1603.33,-1689.45,3.1350299942594866
0,-2022.24,-896.78,-1608.51,-1691.85,3.1400300420972265
0,-2014.65,-900.15,-1614.08,-1692.94,3.1450300899349592
0,-2017.29,-891.45,-1598.12,-1691.73,3.150030137772692
0,-2011.95,-875.48,-1585.38,-1673.78,3.155030185610425
0,-2009.53,-877.05,-1578.9,-1673.46,3.1600302334481647
0,-2007.95,-876.3,-1574.92,-1673.57,3.1650302812858975
0,-2004.86,-879.14,-1580.97,-1684.87,3.1700303291236303
0,-1998.04,-881.97,-1593.53,-1691.55,3.175030376961363
0,-2007.17,-886.43,-1593.73,-1688.56,3.180030424799103
0,-2001.16,-881.53,-1582.77,-1679.33,3.1850304726368357
0,-2014.25,-891.55,-1593.93,-1683.98,3.1900305204745685
0,-2006.27,-881.29,-1590.0,-1684.85,3.1950305683123013
0,-2010.49,-881.48,-1593.42,-1688.06,3.200030616150034
0,-1993.98,-877.0,-1586.0,-1676.05,3.205030663987774
0,-1996.02,-880.62,-1582.48,-1680.2,3.2100307118255067
0,-1997.09,-883.69,-1579.52,-1683.16,3.2150307596632395
0,-2004.12,-888.6,-1577.27,-1692.3,3.2200308075009723
0,-2023.82,-897.38,-1605.88,-1702.56,3.225030855338712
0,-2018.26,-881.92,-1603.01,-1686.77,3.230030903176445
0,-2014.71,-888.17,-1604.42,-1693.91,3.2350309510141777
0,-2002.12,-886.1,-1604.96,-1683.4,3.2400309988519105
0,-2004.46,-884.58,-1604.33,-1682.8,3.2450310466896504
0,-2009.44,-883.74,-1602.1,-1680.98,3.250031094527383
0,-2005.92,-882.12,-1588.24,-1681.9,3.255031142365116
0,-2014.74,-884.21,-1583.59,-1687.44,3.2600311902028487
0,-2006.28,-881.55,-1593.56,-1688.95,3.2650312380405886
0,-2005.49,-879.82,-1591.7,-1689.1,3.2700312858783214
0,-1989.39,-879.08,-1586.79,-1689.86,3.275031333716054
0,-2011.63,-874.33,-1582.45,-1685.21,3.280031381553787
0,-2016.34,-880.35,-1591.23,-1686.12,3.2850314293915197
0,-2005.82,-873.0,-1577.55,-1671.87,3.2900314772292596
0,-2006.93,-877.11,-1575.43,-1671.68,3.2950315250669924
0,-1994.54,-869.12,-1578.06,-1669.91,3.300031572904725
0,-2012.24,-881.49,-1592.07,-1683.25,3.305031620742458
0,-2013.74,-883.67,-1594.62,-1693.97,3.310031668580198
0,-2027.12,-897.09,-1610.03,-1701.07,3.3150317164179306
0,-2001.63,-892.78,-1606.35,-1696.65,3.3200317642556634
0,-2039.83,-895.21,-1609.92,-1697.34,3.325031812093396
0,-2043.19,-900.23,-1613.39,-1701.53,3.330031859931136
0,-2016.7,-896.95,-1601.02,-1696.76,3.335031907768869
0,-2013.49,-886.63,-1584.16,-1687.16,3.3400319556066016
0,-1995.92,-884.13,-1575.31,-1677.47,3.3450320034443344
0,-1981.83,-877.7,-1577.19,-1677.11,3.350032051282067
0,-1993.32,-869.04,-1568.29,-1669.08,3.355032099119807
0,-1993.39,-877.46,-1564.08,-1676.14,3.36003214695754
0,-1994.34,-878.88,-1588.96,-1676.25,3.3650321947952726
0,-2004.22,-878.97,-1594.88,-1687.3,3.3700322426330054
0,-2018.99,-881.98,-1591.49,-1688.63,3.3750322904707453
0,-1995.5,-877.35,-1583.47,-1687.84,3.380032338308478
0,-2013.95,-877.1,-1586.62,-1686.33,3.385032386146211
0,-2016.4,-882.72,-1596.99,-1689.48,3.3900324339839436
0,-2004.33,-886.65,-1594.58,-1687.37,3.3950324818216835
0,-1997.95,-889.12,-1594.0,-1693.44,3.4000325296594163
0,-2012.19,-879.22,-1594.51,-1682.31,3.405032577497149
0,-1984.22,-896.6,-1608.12,-1695.44,3.410032625334882
0,-2008.31,-877.92,-1591.39,-1684.36,3.4150326731726217
0,-2022.63,-882.17,-1599.72,-1689.75,3.4200327210103545
0,-2019.84,-877.91,-1589.08,-1687.41,3.4250327688480873
0,-2020.01,-870.31,-1587.01,-1676.88,3.43003281668582
0,-1988.95,-871.21,-1577.24,-1670.83,3.435032864523553
0,-2014.35,-885.49,-1589.6,-1681.08,3.4400329123612927
0,-2007.55,-876.63,-1587.32,-1677.25,3.4450329601990255
0,-1988.61,-881.82,-1590.7,-1681.43,3.4500330080367583
0,-2005.87,-886.68,-1592.11,-1690.65,3.455033055874491
0,-2016.46,-880.99,-1593.2,-1689.22,3.460033103712231
0,-2014.98,-888.23,-1601.91,-1692.04,3.4650331515499637
0,-2014.71,-889.22,-1595.56,-1687.38,3.4700331993876965
0,-2010.59,-896.76,-1598.6,-1696.6,3.4750332472254293
0,-2017.82,-887.67,-1599.27,-1692.67,3.480033295063169
0,-2021.96,-894.66,-1592.75,-1694.73,3.485033342900902
0,-2020.51,-898.75,-1609.16,-1699.16,3.4900333907386347
0,-2039.67,-897.46,-1607.06,-1700.03,3.4950334385763675
0,-1998.35,-892.57,-1609.87,-1698.71,3.5000334864141003
0,-2023.95,-889.72,-1595.84,-1694.63,3.50503353425184
0,-2010.02,-889.04,-1596.73,-1687.98,3.510033582089573
0,-2018.91,-887.87,-1598.81,-1681.34,3.5150336299273057
0,-2020.28,-894.35,-1606.76,-1691.13,3.5200336777650385
0,-1995.49,-881.8,-1582.39,-1682.34,3.5250337256027784
0,-2003.89,-877.5,-1594.39,-1681.49,3.530033773440511
0,-2005.59,-875.29,-1593.29,-1689.74,3.535033821278244
0,-2007.9,-870.19,-1588.89,-1687.48,3.5400338691159767
0,-1997.71,-855.6,-1569.43,-1674.59,3.5450339169537166
0,-1983.53,-852.33,-1572.12,-1681.08,3.5500339647914494
0,-1954.33,-830.19,-1553.05,-1658.54,3.555034012629182
0,-1979.35,-832.34,-1547.43,-1664.98,3.560034060466915
0,-1964.96,-839.06,-1547.45,-1662.62,3.565034108304655
0,-1984.28,-849.0,-1560.31,-1672.18,3.5700341561423876
0,-1966.91,-838.84,-1556.79,-1662.15,3.5750342039801204
0,-1987.63,-843.45,-1549.04,-1670.5,3.580034251817853
0,-1975.74,-840.54,-1557.57,-1668.9,3.585034299655586
0,-1985.86,-860.87,-1572.92,-1675.66,3.590034347493326
0,-1976.07,-859.88,-1575.8,-1674.66,3.5950343953310586
0,-1985.41,-868.02,-1585.37,-1683.99,3.6000344431687914
0,-2003.2,-873.97,-1590.67,-1684.26,3.605034491006524
0,-2015.08,-882.05,-1581.38,-1687.56,3.610034538844264
0,-2009.66,-878.89,-1585.38,-1679.41,3.615034586681997
0,-2019.21,-875.56,-1578.49,-1675.83,3.6200346345197296
0,-2001.9,-880.13,-1584.77,-1679.47,3.6250346823574624
0,-1994.6,-876.72,-1599.52,-1685.15,3.6300347301952023
0,-2010.3,-890.65,-1604.9,-1692.82,3.635034778032935
0,-1999.19,-892.78,-1611.8,-1695.69,3.640034825870668
0,-2037.02,-898.65,-1603.41,-1697.57,3.6450348737084006
0,-2030.08,-905.48,-1606.85,-1702.48,3.6500349215461334
0,-2043.83,-905.3,-1607.36,-1707.29,3.6550349693838733
0,-2035.93,-904.5,-1603.9,-1700.86,3.660035017221606
0,-2021.6,-909.56,-1614.59,-1711.44,3.665035065059339
0,-2033.39,-907.7,-1619.88,-1706.51,3.6700351128970716
0,-2028.85,-901.89,-1608.68,-1705.64,3.6750351607348115
0,-2027.7,-902.89,-1618.11,-1706.64,3.6800352085725443
0,-2033.93,-906.75,-1615.75,-1707.04,3.685035256410277
0,-2016.56,-909.87,-1618.5,-1708.34,3.69003530424801
0,-2043.49,-919.67,-1623.57,-1716.36,3.6950353520857497
0,-2009.76,-908.86,-1619.2,-1708.89,3.7000353999234825
0,-2021.78,-902.7,-1609.2,-1700.6,3.7050354477612153
0,-2035.24,-905.88,-1603.07,-1701.23,3.710035495598948
0,-2026.21,-901.06,-1601.03,-1696.73,3.715035543436681
0,-2018.28,-902.66,-1614.53,-1699.36,3.7200355912744207
0,-2023.15,-896.18,-1611.01,-1697.22,3.7250356391121535
0,-2023.36,-904.07,-1614.94,-1707.1,3.7300356869498863
0,-2044.54,-899.95,-1613.66,-1709.67,3.735035734787619
0,-2058.02,-903.82,-1614.91,-1708.09,3.740035782625359
0,-2015.27,-904.07,-1605.05,-1704.31,3.7450358304630917
0,-2034.31,-901.59,-1611.41,-1699.28,3.7500358783008245
0,-1994.94,-904.86,-1603.09,-1695.53,3.7550359261385573
0,-2022.5,-899.46,-1608.37,-1697.63,3.760035973976297
0,-2028.48,-885.67,-1596.96,-1685.53,3.76503602181403
0,-2004.97,-874.89,-1591.33,-1679.85,3.7700360696517627
0,-2025.74,-883.61,-1586.52,-1685.36,3.7750361174894955
0,-2017.45,-875.88,-1588.81,-1672.59,3.7800361653272354
0,-1998.53,-880.39,-1590.22,-1679.93,3.785036213164968
0,-2008.23,-875.77,-1579.56,-1675.51,3.790036261002701
0,-1999.18,-872.74,-1570.1,-1676.52,3.7950363088404337
0,-2007.17,-881.44,-1589.06,-1683.04,3.8000363566781665
0,-2020.19,-885.41,-1594.26,-1687.26,3.8050364045159064
0,-2008.09,-883.57,-1598.24,-1682.76,3.810036452353639
0,-2008.57,-888.51,-1596.47,-1685.17,3.815036500191372
0,-2020.97,-894.25,-1610.95,-1696.81,3.8200365480291048
0,-2018.62,-882.42,-1610.52,-1691.24,3.8250365958668446
0,-2052.59,-908.34,-1622.17,-1715.56,3.8300366437045774
0,-2026.86,-904.34,-1619.1,-1712.03,3.83503669154231
0,-2034.61,-903.42,-1612.35,-1703.46,3.840036739380043
0,-2012.71,-891.55,-1599.27,-1698.25,3.845036787217783
0,-2003.5,-883.27,-1598.29,-1689.76,3.8500368350555156
0,-2019.06,-889.51,-1593.47,-1687.33,3.8550368828932484
0,-2013.37,-889.68,-1601.57,-1684.82,3.860036930730981
0,-2020.31,-886.3,-1585.69,-1679.21,3.865036978568714
0,-2022.06,-893.33,-1596.52,-1684.35,3.870037026406454
0,-2026.14,-891.51,-1593.1,-1684.13,3.8750370742441866
0,-2008.53,-889.76,-1597.89,-1683.82,3.8800371220819194
0,-2014.38,-891.78,-1598.71,-1690.95,3.885037169919652
0,-2012.21,-891.17,-1594.97,-1696.83,3.890037217757392
0,-2016.85,-896.04,-1608.07,-1702.84,3.895037265595125
0,-2013.51,-887.73,-1598.5,-1695.44,3.9000373134328576
0,-2029.09,-896.64,-1618.1,-1697.53,3.9050373612705904
0,-2035.08,-901.16,-1608.81,-1702.09,3.9100374091083303
0,-2031.99,-910.01,-1599.96,-1703.78,3.915037456946063
0,-2017.23,-896.04,-1599.79,-1695.71,3.920037504783796
0,-1998.91,-890.28,-1594.69,-1696.31,3.9250375526215286
0,-2011.74,-894.85,-1601.44,-1695.09,3.9300376004592685
0,-1996.14,-883.68,-1595.27,-1681.59,3.9350376482970013
0,-2015.87,-883.51,-1594.46,-1679.99,3.940037696134734
0,-1999.4,-874.3,-1581.8,-1674.06,3.945037743972467
0,-2000.99,-870.04,-1579.65,-1671.08,3.9500377918101996
0,-1990.42,-861.68,-1563.12,-1656.83,3.9550378396479395
0,-1978.79,-858.34,-1565.96,-1651.41,3.9600378874856723
0,-1989.58,-853.78,-1566.87,-1650.2,3.965037935323405
0,-1986.49,-853.17,-1560.99,-1643.9,3.970037983161138
0,-1973.14,-861.23,-1561.22,-1657.77,3.9750380309988778
0,-1998.83,-868.92,-1574.02,-1671.98,3.9800380788366105
0,-2006.28,-880.07,-1584.71,-1683.43,3.9850381266743433
0,-2002.67,-881.57,-1591.18,-1695.52,3.990038174512076
0,-2019.85,-890.28,-1605.99,-1702.6,3.995038222349816
0,-2024.89,-895.26,-1600.97,-1699.68,4.000038270187549
0,-2026.02,-897.62,-1601.28,-1703.54,4.0050383180252815
0,-2020.52,-902.51,-1617.18,-1708.65,4.010038365863014
0,-2018.51,-893.76,-1602.31,-1706.65,4.015038413700747
0,-2028.55,-904.2,-1599.94,-1713.52,4.020038461538487
0,-2038.39,-916.9,-1616.86,-1720.37,4.02503850937622
0,-2046.24,-910.71,-1627.99,-1715.67,4.0300385572139525
0,-2042.5,-909.56,-1625.82,-1712.58,4.035038605051685
0,-2037.48,-911.12,-1622.18,-1720.86,4.040038652889425
0,-2028.08,-902.29,-1616.76,-1714.25,4.045038700727158
0,-2025.91,-906.06,-1624.85,-1716.23,4.050038748564891
0,-2045.27,-905.19,-1612.35,-1708.67,4.0550387964026235
0,-2025.73,-893.53,-1604.18,-1694.15,4.060038844240363
0,-2009.28,-888.38,-1609.22,-1688.2,4.065038892078096
0,-2006.22,-881.94,-1595.74,-1688.9,4.070038939915829
0,-1990.48,-872.13,-1582.99,-1673.63,4.075038987753562
0,-1999.2,-867.24,-1579.71,-1666.71,4.080039035591302
0,-2000.18,-870.11,-1577.17,-1668.29,4.085039083429034
0,-1999.4,-875.33,-1573.94,-1674.7,4.090039131266767
0,-2014.41,-872.71,-1586.42,-1676.28,4.0950391791045
0,-2017.78,-877.25,-1574.54,-1680.71,4.100039226942233
0,-2023.41,-889.49,-1582.29,-1685.29,4.105039274779973
0,-2019.51,-887.56,-1589.71,-1688.12,4.110039322617705
0,-1999.33,-881.71,-1583.86,-1677.28,4.115039370455438
0,-2011.19,-878.32,-1577.53,-1678.18,4.120039418293171
0,-2010.46,-878.22,-1595.83,-1683.13,4.125039466130911
0,-2006.37,-882.57,-1588.06,-1692.36,4.130039513968644
0,-2009.39,-887.39,-1580.36,-1690.46,4.135039561806376
0,-2027.26,-896.64,-1601.68,-1696.44,4.140039609644109
0,-1998.86,-889.52,-1607.61,-1695.01,4.145039657481849
0,-2022.93,-893.68,-1609.37,-1699.88,4.150039705319582
0,-2000.06,-879.97,-1584.06,-1687.08,4.155039753157315
0,-2007.32,-879.19,-1581.93,-1682.79,4.160039800995047
0,-1992.54,-875.7,-1592.96,-1679.73,4.16503984883278
0,-2010.05,-879.01,-1593.84,-1675.16,4.17003989667052
0,-1992.24,-880.82,-1582.37,-1675.29,4.175039944508253
0,-2007.4,-885.82,-1598.9,-1677.0,4.180039992345986
0,-1995.47,-881.91,-1593.62,-1680.16,4.1850400401837184
0,-2000.35,-880.15,-1573.66,-1677.57,4.190040088021458
0,-1994.96,-874.89,-1577.18,-1673.73,4.195040135859191
0,-2006.67,-878.06,-1582.95,-1675.85,4.200040183696924
0,-2007.4,-883.93,-1590.94,-1681.47,4.205040231534657
0,-2008.95,-878.02,-1593.34,-1682.47,4.2100402793723966
0,-2007.83,-889.1,-1597.35,-1682.63,4.215040327210129
0,-2003.95,-879.26,-1588.85,-1682.07,4.220040375047862
0,-1992.33,-872.26,-1582.46,-1674.15,4.225040422885595
0,-1998.22,-875.11,-1588.95,-1679.36,4.230040470723335
0,-1995.68,-871.19,-1588.24,-1675.61,4.235040518561068
0,-2005.86,-876.78,-1587.14,-1686.37,4.2400405663988
0,-2011.21,-887.63,-1589.95,-1690.12,4.245040614236533
0,-2030.25,-887.34,-1598.78,-1694.17,4.250040662074266
0,-2000.96,-876.66,-1592.0,-1679.22,4.255040709912006
0,-2029.23,-888.47,-1602.58,-1693.51,4.260040757749739
0,-2012.26,-875.92,-1587.98,-1682.14,4.265040805587471
0,-2003.15,-873.17,-1589.83,-1681.43,4.270040853425204
0,-2010.27,-879.21,-1595.03,-1686.6,4.275040901262944
0,-2011.63,-879.79,-1587.24,-1691.01,4.280040949100677
0,-2002.76,-878.66,-1584.83,-1689.02,4.28504099693841
0,-2003.74,-874.33,-1579.92,-1685.31,4.290041044776142
0,-1996.02,-874.89,-1574.17,-1685.87,4.295041092613882
0,-2001.1,-894.08,-1586.04,-1698.94,4.300041140451615
0,-2024.12,-902.31,-1596.18,-1705.89,4.305041188289348
0,-2031.46,-899.79,-1620.69,-1713.95,4.310041236127081
0,-2022.12,-901.34,-1621.44,-1709.17,4.315041283964813
0,-2017.9,-896.2,-1595.85,-1699.44,4.320041331802553
0,-2012.12,-891.72,-1586.49,-1698.81,4.325041379640286
0,-2011.66,-892.56,-1594.45,-1692.22,4.330041427478019
0,-2010.84,-890.84,-1593.4,-1693.62,4.335041475315752
0,-2001.98,-891.0,-1605.08,-1697.02,4.3400415231534915
0,-2007.53,-889.89,-1601.43,-1698.49,4.345041570991224
0,-2016.46,-891.57,-1606.13,-1699.63,4.350041618828957
0,-2029.91,-893.98,-1612.8,-1702.2,4.35504166666669
0,-2018.21,-897.41,-1615.29,-1700.41,4.36004171450443
0,-2027.38,-901.08,-1621.28,-1703.73,4.3650417623421625
0,-2003.33,-896.14,-1613.27,-1705.14,4.370041810179895
0,-2027.83,-891.16,-1601.75,-1703.52,4.375041858017628
0,-2037.46,-891.09,-1608.8,-1701.71,4.380041905855361
0,-2020.55,-884.99,-1597.87,-1697.35,4.385041953693101
0,-2029.51,-888.18,-1596.1,-1689.73,4.3900420015308335
0,-2015.16,-883.84,-1597.09,-1684.99,4.395042049368566
0,-2014.19,-876.56,-1595.63,-1679.33,4.400042097206299
0,-2009.9,-887.47,-1594.59,-1687.78,4.405042145044039
0,-2017.26,-893.95,-1605.1,-1687.91,4.410042192881772
0,-2029.96,-891.29,-1599.16,-1689.53,4.4150422407195045
0,-2016.0,-889.75,-1596.05,-1693.63,4.420042288557237
0,-2009.4,-889.22,-1600.53,-1690.69,4.425042336394977
0,-2008.19,-880.66,-1592.9,-1684.4,4.43004238423271
0,-1993.43,-875.02,-1590.6,-1685.78,4.435042432070443
0,-2006.28,-886.71,-1591.01,-1686.35,4.4400424799081755
0,-2007.45,-880.73,-1577.22,-1678.02,4.445042527745915
0,-1991.53,-877.73,-1581.02,-1672.64,4.450042575583648
0,-1994.43,-880.12,-1586.64,-1682.03,4.455042623421381
0,-2002.08,-879.33,-1594.72,-1685.35,4.460042671259114
0,-2011.27,-887.21,-1588.9,-1686.62,4.4650427190968465
0,-2005.95,-886.85,-1586.57,-1682.59,4.470042766934586
0,-2025.08,-890.91,-1595.52,-1686.12,4.475042814772319
0,-2001.9,-876.9,-1585.78,-1675.74,4.480042862610052
0,-1994.71,-869.45,-1563.2,-1664.32,4.485042910447785
0,-1988.25,-875.84,-1575.46,-1666.38,4.490042958285525
0,-1986.51,-874.13,-1579.14,-1668.19,4.495043006123257
0,-1975.42,-872.82,-1575.33,-1672.53,4.50004305396099
0,-2000.64,-868.74,-1578.68,-1675.43,4.505043101798723
0,-2030.35,-880.26,-1590.63,-1684.68,4.510043149636463
0,-2018.67,-890.8,-1601.26,-1690.41,4.515043197474196
0,-2030.75,-889.55,-1600.08,-1695.97,4.520043245311928
0,-2023.53,-894.13,-1608.23,-1700.01,4.525043293149661
0,-2013.15,-884.54,-1594.76,-1695.69,4.530043340987394
0,-2019.83,-882.35,-1588.65,-1692.12,4.535043388825134
0,-2005.13,-886.6,-1599.65,-1691.55,4.540043436662867
0,-2008.83,-882.59,-1586.33,-1688.75,4.545043484500599
0,-2019.17,-885.37,-1589.44,-1693.06,4.550043532338332
0,-2026.83,-894.35,-1602.88,-1699.29,4.555043580176072
0,-2014.28,-886.89,-1598.8,-1694.91,4.560043628013805
0,-2003.43,-891.81,-1602.59,-1697.5,4.565043675851538
0,-2020.75,-884.89,-1596.81,-1684.24,4.57004372368927
0,-1995.03,-881.06,-1586.6,-1683.09,4.57504377152701
0,-2013.66,-885.99,-1591.43,-1686.06,4.580043819364743
0,-1994.13,-879.84,-1591.79,-1674.79,4.585043867202476
0,-1999.4,-883.37,-1598.34,-1687.13,4.590043915040209
0,-2000.03,-886.58,-1594.53,-1684.75,4.5950439628779485
0,-2010.7,-885.45,-1593.89,-1681.85,4.600044010715681
0,-2000.86,-885.59,-1593.29,-1685.26,4.605044058553414
0,-1998.67,-881.55,-1586.38,-1679.41,4.610044106391147
0,-2027.74,-886.1,-1572.36,-1687.34,4.61504415422888
0,-1990.38,-879.7,-1579.19,-1688.86,4.6200442020666195
0,-1997.11,-882.29,-1598.28,-1694.54,4.625044249904352
0,-2024.3,-886.76,-1607.65,-1693.41,4.630044297742085
0,-2009.17,-897.34,-1614.24,-1693.71,4.635044345579818
0,-2044.54,-898.9,-1606.61,-1692.6,4.640044393417558
0,-2014.03,-900.12,-1604.29,-1699.44,4.6450444412552905
0,-2011.77,-874.01,-1589.7,-1682.37,4.650044489093023
0,-1995.39,-883.56,-1589.98,-1679.12,4.655044536930756
0,-2004.58,-898.32,-1596.26,-1688.12,4.660044584768496
0,-2005.67,-891.92,-1587.49,-1682.18,4.665044632606229
0,-2009.29,-892.94,-1591.17,-1687.18,4.6700446804439615
0,-2011.72,-881.18,-1587.79,-1680.3,4.675044728281694
0,-2006.49,-885.26,-1595.57,-1676.07,4.680044776119427
0,-2013.09,-877.14,-1589.61,-1672.05,4.685044823957167
0,-2008.35,-891.05,-1607.82,-1688.89,4.6900448717949
0,-2008.54,-882.17,-1587.2,-1685.04,4.6950449196326325
0,-1998.22,-874.45,-1587.34,-1678.77,4.700044967470365
0,-2004.64,-876.5,-1587.0,-1673.48,4.705045015308105
0,-2000.55,-877.47,-1587.28,-1685.06,4.710045063145838
0,-2004.64,-889.98,-1589.75,-1698.15,4.715045110983571
0,-2013.98,-885.15,-1597.38,-1692.38,4.7200451588213035
0,-2007.52,-894.62,-1607.44,-1703.31,4.725045206659043
0,-2010.67,-890.16,-1595.97,-1695.72,4.730045254496776
0,-2026.42,-892.4,-1596.38,-1691.73,4.735045302334509
0,-2021.67,-882.87,-1599.67,-1685.15,4.740045350172242
0,-2006.74,-888.58,-1602.19,-1693.87,4.745045398009982
0,-2012.42,-887.46,-1599.58,-1691.55,4.750045445847714
0,-2019.42,-882.49,-1596.16,-1680.49,4.755045493685447
0,-2018.58,-887.79,-1599.31,-1684.4,4.76004554152318
0,-2010.33,-887.28,-1593.18,-1680.45,4.765045589360913
0,-2018.45,-891.26,-1595.65,-1685.91,4.770045637198653
0,-2025.45,-889.66,-1592.52,-1696.43,4.775045685036385
0,-1998.27,-876.23,-1582.03,-1681.52,4.780045732874118
0,-2012.46,-875.04,-1585.6,-1677.18,4.785045780711851
0,-2018.87,-883.76,-1600.37,-1681.48,4.790045828549591
0,-2020.51,-881.91,-1600.31,-1688.98,4.795045876387324
0,-2009.68,-889.78,-1595.96,-1688.23,4.800045924225056
0,-1998.25,-876.2,-1578.3,-1678.76,4.805045972062789
0,-2000.32,-875.21,-1596.76,-1687.17,4.810046019900529
0,-2034.0,-886.92,-1600.21,-1692.01,4.815046067738262
0,-2015.26,-878.39,-1587.38,-1686.99,4.820046115575995
0,-2015.66,-884.03,-1591.55,-1688.55,4.825046163413727
0,-2020.59,-882.37,-1588.43,-1688.4,4.83004621125146
0,-1993.48,-876.82,-1596.94,-1690.78,4.8350462590892
0,-1999.46,-875.27,-1586.88,-1676.85,4.840046306926933
0,-2009.18,-877.19,-1586.39,-1680.72,4.845046354764666
0,-2006.1,-881.04,-1580.74,-1677.85,4.850046402602398
0,-1993.07,-880.49,-1579.56,-1683.62,4.855046450440138
0,-1997.21,-886.74,-1593.27,-1685.58,4.860046498277871
0,-2005.4,-891.28,-1598.49,-1690.88,4.865046546115604
0,-2019.71,-896.07,-1601.84,-1691.68,4.870046593953337
0,-2033.61,-900.18,-1616.61,-1698.78,4.8750466417910765
0,-2026.76,-905.64,-1601.09,-1696.55,4.880046689628809
0,-2030.5,-894.61,-1606.06,-1693.03,4.885046737466542
0,-2018.54,-887.98,-1600.3,-1689.35,4.890046785304275
0,-2014.34,-875.95,-1597.11,-1684.39,4.895046833142015
0,-1993.65,-873.47,-1581.64,-1684.94,4.9000468809797475
0,-2004.73,-868.05,-1583.54,-1676.05,4.90504692881748
0,-2017.66,-877.07,-1578.79,-1680.22,4.910046976655213
0,-2011.3,-881.5,-1588.18,-1684.98,4.915047024492946
0,-2012.69,-895.29,-1591.8,-1693.35,4.920047072330686
0,-2006.75,-892.89,-1599.13,-1696.27,4.9250471201684185
0,-2017.61,-881.73,-1595.85,-1687.71,4.930047168006151
0,-2006.23,-874.78,-1580.35,-1684.67,4.935047215843884
0,-1989.51,-861.28,-1570.48,-1671.63,4.940047263681624
0,-1977.63,-866.31,-1570.28,-1674.24,4.945047311519357
0,-1992.2,-878.23,-1581.73,-1679.62,4.9500473593570895
0,-2020.56,-884.22,-1592.75,-1683.6,4.955047407194822
0,-2019.47,-886.12,-1595.91,-1689.65,4.960047455032562
0,-2014.35,-889.05,-1603.58,-1692.36,4.965047502870295
0,-2003.27,-883.46,-1590.25,-1684.35,4.970047550708028
0,-2003.37,-880.64,-1581.99,-1679.4,4.9750475985457605
0,-1995.08,-884.54,-1593.51,-1683.15,4.980047646383493
0,-2001.01,-869.35,-1575.43,-1670.42,4.985047694221233
0,-1994.04,-880.97,-1589.76,-1677.61,4.990047742058966
0,-1995.54,-871.9,-1576.29,-1671.53,4.995047789896699
0,-2008.01,-884.67,-1588.12,-1690.79,5.0000478377344315
0,-2015.92,-886.55,-1598.09,-1697.04,5.005047885572171
0,-2030.29,-884.79,-1593.66,-1697.73,5.010047933409904
0,-2006.19,-893.81,-1602.55,-1697.71,5.015047981247637
0,-2029.26,-878.7,-1596.04,-1690.88,5.02004802908537
0,-2014.6,-882.65,-1586.21,-1681.56,5.02504807692311
0,-2031.07,-889.62,-1602.02,-1686.74,5.030048124760842
0,-2016.22,-891.9,-1598.95,-1693.81,5.035048172598575
0,-2008.9,-884.65,-1595.74,-1680.36,5.040048220436308
0,-2006.41,-884.66,-1591.94,-1684.99,5.045048268274041
0,-2002.21,-885.2,-1598.77,-1690.2,5.050048316111781
0,-2010.59,-889.71,-1598.55,-1700.73,5.055048363949513
0,-2015.52,-891.0,-1603.23,-1703.03,5.060048411787246
0,-2027.63,-896.03,-1605.8,-1708.84,5.065048459624979
0,-2033.18,-899.59,-1621.79,-1714.1,5.070048507462719
0,-2026.67,-902.65,-1613.74,-1711.78,5.075048555300452
0,-2030.01,-891.22,-1611.59,-1706.19,5.080048603138184
0,-2013.2,-894.75,-1602.87,-1705.43,5.085048650975917
0,-2025.95,-900.12,-1615.17,-1703.43,5.090048698813657
0,-2022.87,-895.13,-1611.04,-1707.8,5.09504874665139
0,-2006.71,-891.52,-1609.59,-1705.91,5.100048794489123
0,-2019.78,-898.31,-1604.85,-1712.22,5.105048842326855
0,-2006.02,-888.56,-1604.74,-1693.67,5.110048890164595
0,-2015.57,-882.74,-1597.14,-1691.9,5.115048938002328
0,-2028.59,-889.18,-1602.87,-1694.8,5.120048985840061
0,-2016.87,-888.79,-1595.63,-1690.84,5.125049033677794
0,-2026.19,-887.77,-1586.18,-1687.04,5.130049081515526
0,-2009.13,-884.25,-1593.36,-1688.1,5.135049129353266
0,-2027.1,-882.87,-1600.74,-1686.91,5.140049177190999
0,-2020.67,-887.32,-1595.62,-1684.07,5.145049225028732
0,-2010.76,-886.35,-1593.8,-1686.49,5.150049272866465
0,-1999.38,-884.52,-1588.84,-1686.3,5.1550493207042045
0,-1997.3,-884.77,-1592.36,-1692.23,5.160049368541937
0,-2006.52,-887.49,-1596.28,-1697.05,5.16504941637967
0,-2009.97,-888.52,-1590.63,-1690.15,5.170049464217403
0,-2002.55,-888.39,-1583.77,-1685.37,5.175049512055143
0,-2017.31,-885.38,-1587.76,-1685.06,5.1800495598928755
0,-1995.52,-874.91,-1583.16,-1683.35,5.185049607730608
0,-2002.07,-882.57,-1591.65,-1691.81,5.190049655568341
0,-2009.87,-892.0,-1613.05,-1699.6,5.195049703406074
0,-2019.43,-889.06,-1600.7,-1692.17,5.200049751243814
0,-2021.63,-887.27,-1596.82,-1697.03,5.2050497990815465
0,-2023.0,-890.11,-1603.27,-1694.04,5.210049846919279
0,-2030.96,-887.01,-1600.31,-1692.48,5.215049894757012
0,-2007.76,-890.17,-1599.7,-1696.59,5.220049942594752
0,-2006.58,-875.95,-1583.49,-1684.39,5.225049990432485
0,-1995.98,-871.25,-1583.64,-1673.74,5.2300500382702175
0,-2013.17,-877.77,-1593.44,-1681.23,5.23505008610795
0,-2006.3,-887.19,-1590.02,-1686.75,5.24005013394569
0,-2001.25,-884.79,-1598.1,-1679.65,5.245050181783423
0,-2018.73,-881.88,-1586.2,-1678.04,5.250050229621156
0,-2023.95,-886.59,-1600.94,-1679.87,5.2550502774588885
0,-1995.66,-881.18,-1593.13,-1677.99,5.260050325296628
0,-2011.06,-893.28,-1595.55,-1694.76,5.265050373134361
0,-2007.24,-887.21,-1588.62,-1687.03,5.270050420972094
0,-2008.29,-881.16,-1584.51,-1683.93,5.275050468809827
0,-2002.76,-880.29,-1583.27,-1685.51,5.2800505166475595
0,-1990.26,-872.18,-1580.49,-1678.23,5.285050564485299
0,-1982.72,-874.83,-1580.78,-1668.94,5.290050612323032
0,-1999.27,-877.09,-1575.48,-1667.35,5.295050660160765
0,-2011.97,-883.85,-1584.7,-1672.43,5.300050707998498
0,-1992.55,-881.97,-1590.26,-1680.2,5.305050755836238
0,-1996.86,-870.78,-1582.88,-1677.68,5.31005080367397
0,-1998.58,-875.45,-1589.41,-1685.88,5.315050851511703
0,-2010.01,-876.13,-1590.72,-1687.43,5.320050899349436
0,-2012.98,-881.84,-1587.49,-1681.11,5.325050947187176
0,-2002.35,-881.81,-1583.25,-1677.13,5.330050995024909
0,-2007.33,-872.22,-1578.83,-1667.85,5.335051042862641
0,-2007.46,-878.63,-1590.32,-1678.48,5.340051090700374
0,-1992.18,-870.05,-1573.05,-1662.87,5.345051138538107
0,-1997.98,-877.56,-1581.89,-1674.7,5.350051186375847
0,-1993.02,-876.6,-1582.92,-1669.73,5.35505123421358
0,-2016.25,-889.39,-1594.88,-1681.13,5.360051282051312
0,-2014.86,-884.26,-1598.03,-1678.85,5.365051329889045
0,-2008.61,-885.31,-1590.94,-1681.23,5.370051377726785
0,-2012.77,-885.27,-1594.35,-1691.37,5.375051425564518
0,-2015.54,-884.86,-1595.6,-1691.82,5.380051473402251
0,-2027.9,-897.29,-1600.25,-1695.35,5.385051521239983
0,-2000.25,-884.81,-1595.02,-1684.62,5.390051569077723
0,-2018.44,-905.55,-1599.5,-1697.7,5.395051616915456
0,-2008.53,-899.25,-1612.06,-1697.9,5.400051664753189
0,-2011.3,-890.8,-1599.89,-1692.61,5.405051712590922
0,-2031.94,-901.04,-1615.55,-1698.72,5.4100517604286615
0,-2023.89,-895.09,-1606.2,-1693.3,5.415051808266394
0,-2021.42,-890.25,-1602.37,-1690.08,5.420051856104127
0,-2001.33,-881.09,-1583.3,-1682.32,5.42505190394186
0,-2010.03,-884.65,-1594.79,-1682.57,5.430051951779593
0,-2000.35,-874.05,-1581.22,-1676.91,5.4350519996173325
0,-2014.2,-880.39,-1594.38,-1679.6,5.440052047455065
0,-2013.65,-883.64,-1593.12,-1685.77,5.445052095292798
0,-1996.74,-881.11,-1581.73,-1685.13,5.450052143130531
0,-2000.76,-878.69,-1593.75,-1683.45,5.455052190968271
0,-2028.09,-888.27,-1597.85,-1689.95,5.4600522388060035
0,-2012.04,-880.74,-1585.45,-1695.65,5.465052286643736
0,-2013.19,-890.77,-1589.07,-1698.43,5.470052334481469
0,-2016.97,-885.29,-1600.9,-1690.53,5.475052382319209
0,-2010.94,-882.57,-1592.89,-1692.44,5.480052430156942
0,-2005.93,-884.51,-1591.68,-1686.2,5.4850524779946745
0,-2028.53,-887.86,-1599.12,-1690.33,5.490052525832407
0,-2016.49,-889.66,-1591.83,-1688.74,5.49505257367014
0,-2012.83,-893.82,-1600.38,-1697.94,5.50005262150788
0,-2010.23,-887.14,-1602.62,-1687.27,5.505052669345613
0,-2017.44,-889.7,-1591.45,-1686.06,5.5100527171833455
0,-2016.37,-887.62,-1594.5,-1690.41,5.515052765021078
0,-2012.92,-885.68,-1607.53,-1686.43,5.520052812858818
0,-2012.59,-883.55,-1604.09,-1689.14,5.525052860696551
0,-2023.84,-890.45,-1585.06,-1689.21,5.530052908534284
0,-2025.66,-890.11,-1596.45,-1689.29,5.5350529563720166
0,-2021.61,-885.94,-1599.45,-1688.1,5.540053004209756
0,-2013.19,-889.49,-1600.03,-1695.48,5.545053052047489
0,-1996.93,-892.18,-1599.96,-1693.73,5.550053099885222
0,-2017.55,-886.16,-1588.83,-1679.79,5.555053147722955
0,-2012.56,-894.83,-1599.73,-1696.3,5.560053195560695
0,-2028.86,-896.96,-1597.59,-1690.43,5.565053243398427
0,-2006.98,-895.44,-1593.24,-1690.3,5.57005329123616
0,-1983.42,-884.45,-1597.73,-1678.81,5.575053339073893
0,-2038.29,-889.03,-1602.09,-1687.7,5.580053386911626
0,-2021.96,-884.44,-1592.36,-1684.23,5.585053434749366
0,-2018.88,-886.84,-1595.84,-1688.79,5.590053482587098
0,-2002.46,-887.54,-1597.77,-1686.14,5.595053530424831
0,-2014.99,-895.24,-1593.62,-1692.36,5.600053578262564
0,-2010.83,-892.99,-1595.47,-1692.36,5.605053626100304
0,-2006.01,-889.75,-1605.65,-1698.06,5.610053673938037
0,-2016.81,-893.36,-1610.48,-1694.9,5.6150537217757694
0,-2017.74,-891.22,-1601.05,-1695.78,5.620053769613502
0,-2009.41,-885.17,-1596.42,-1694.85,5.625053817451242
0,-2000.43,-878.36,-1595.98,-1695.42,5.630053865288975
0,-2003.11,-873.86,-1577.56,-1684.08,5.635053913126708
0,-2001.53,-874.76,-1578.17,-1680.56,5.6400539609644404
0,-2003.98,-871.46,-1582.91,-1680.18,5.645054008802173
0,-2017.14,-875.55,-1581.72,-1682.15,5.650054056639913
0,-2004.33,-884.94,-1593.14,-1693.39,5.655054104477646
0,-1998.4,-884.94,-1591.83,-1694.76,5.660054152315379
0,-2006.68,-889.58,-1594.53,-1693.53,5.6650542001531115
0,-2008.56,-885.93,-1600.05,-1684.53,5.670054247990851
0,-2022.19,-893.61,-1600.89,-1692.93,5.675054295828584
0,-2017.28,-880.81,-1597.7,-1684.38,5.680054343666317
0,-2007.1,-872.29,-1585.35,-1677.97,5.68505439150405
0,-1996.41,-872.36,-1588.27,-1682.69,5.69005443934179
0,-2010.07,-884.69,-1587.46,-1690.65,5.695054487179522
0,-2017.59,-884.31,-1591.9,-1689.04,5.700054535017255
0,-1998.3,-891.15,-1593.87,-1696.13,5.705054582854988
0,-2024.62,-894.21,-1599.99,-1692.23,5.710054630692721
0,-2018.63,-896.93,-1610.04,-1687.17,5.715054678530461
0,-2003.02,-891.79,-1599.45,-1690.26,5.720054726368193
0,-2003.79,-886.48,-1597.18,-1693.2,5.725054774205926
0,-2014.4,-890.52,-1604.12,-1698.14,5.730054822043659
0,-2013.9,-897.02,-1602.35,-1699.78,5.735054869881399
0,-2025.19,-892.9,-1597.22,-1698.49,5.740054917719132
0,-2013.74,-891.05,-1591.32,-1692.94,5.745054965556864
0,-2019.39,-884.11,-1588.4,-1688.54,5.750055013394597
0,-2039.17,-883.39,-1597.02,-1696.45,5.755055061232337
0,-1999.98,-881.68,-1600.53,-1699.09,5.76005510907007
0,-1999.02,-884.63,-1599.48,-1697.28,5.765055156907803
0,-1986.5,-869.37,-1573.33,-1684.31,5.770055204745535
0,-1996.36,-874.81,-1584.96,-1684.64,5.775055252583275
0,-1987.37,-873.29,-1591.86,-1679.53,5.780055300421008
0,-1980.91,-872.78,-1570.98,-1679.91,5.785055348258741
0,-2014.87,-880.45,-1586.94,-1687.48,5.790055396096474
0,-1988.53,-870.68,-1582.35,-1680.05,5.795055443934206
0,-2019.18,-873.55,-1594.24,-1681.39,5.800055491771946
0,-2006.61,-877.95,-1597.76,-1685.13,5.805055539609679
0,-2015.76,-874.68,-1577.12,-1675.4,5.810055587447412
0,-2010.76,-887.95,-1580.56,-1686.75,5.815055635285145
0,-2009.84,-887.75,-1590.64,-1694.0,5.8200556831228845
0,-2009.06,-879.08,-1581.7,-1688.68,5.825055730960617
0,-2013.48,-878.81,-1590.39,-1684.71,5.83005577879835
0,-2014.27,-884.69,-1597.65,-1687.46,5.835055826636083
0,-2019.09,-885.45,-1594.42,-1684.13,5.840055874473823
0,-2024.6,-883.44,-1600.59,-1686.72,5.8450559223115555
0,-2016.32,-888.42,-1595.35,-1695.58,5.850055970149288
0,-2021.95,-881.56,-1592.17,-1683.5,5.855056017987021
0,-2020.28,-886.13,-1598.18,-1688.43,5.860056065824754
0,-2011.5,-877.5,-1585.77,-1686.75,5.865056113662494
0,-1992.68,-878.92,-1594.13,-1691.16,5.8700561615002265
0,-2024.67,-868.82,-1580.32,-1679.35,5.875056209337959
0,-1999.46,-881.34,-1593.95,-1689.95,5.880056257175692
0,-1994.04,-882.31,-1584.28,-1691.26,5.885056305013432
0,-2015.72,-888.68,-1593.95,-1692.42,5.890056352851165
0,-2008.0,-889.63,-1596.14,-1690.27,5.8950564006888975
0,-2014.83,-887.8,-1599.89,-1685.79,5.90005644852663
0,-2021.0,-887.85,-1594.9,-1691.84,5.90505649636437
0,-2018.53,-882.97,-1581.45,-1689.09,5.910056544202103
0,-1995.96,-874.28,-1573.33,-1683.42,5.915056592039836
0,-2014.6,-881.93,-1595.48,-1685.1,5.9200566398775685
0,-1990.25,-878.37,-1594.51,-1679.48,5.925056687715308
0,-2004.61,-884.76,-1594.17,-1691.56,5.930056735553041
0,-1995.2,-878.05,-1585.29,-1681.53,5.935056783390774
0,-2016.04,-876.47,-1595.81,-1687.07,5.940056831228507
0,-2000.45,-879.94,-1585.8,-1685.89,5.9450568790662395
0,-2019.78,-883.9,-1591.6,-1688.27,5.950056926903979
0,-1992.14,-884.56,-1589.67,-1683.32,5.955056974741712
0,-1998.45,-881.86,-1590.88,-1681.82,5.960057022579445
0,-2006.17,-888.96,-1588.89,-1677.17,5.965057070417178
0,-2002.1,-891.99,-1596.28,-1687.17,5.970057118254918
0,-2013.92,-889.54,-1600.37,-1689.17,5.97505716609265
0,-2018.2,-890.76,-1591.71,-1688.12,5.980057213930383
0,-2003.31,-885.42,-1597.87,-1686.73,5.985057261768116
0,-2023.05,-886.74,-1604.58,-1684.45,5.990057309605856
0,-2020.06,-883.7,-1592.4,-1682.99,5.995057357443589
0,-2014.55,-883.59,-1596.11,-1676.41,6.000057405281321
0,-2012.13,-883.29,-1586.53,-1675.23,6.005057453119054
0,-2035.31,-897.99,-1616.51,-1705.44,6.010057500956787
0,-2014.89,-891.97,-1612.73,-1694.57,6.015057548794527
0,-2024.88,-895.77,-1600.35,-1694.56,6.02005759663226
0,-2016.71,-894.59,-1613.47,-1698.4,6.025057644469992
0,-2039.09,-901.21,-1605.02,-1706.55,6.030057692307725
0,-2005.85,-887.21,-1608.05,-1694.24,6.035057740145465
0,-2034.49,-889.39,-1600.19,-1696.08,6.040057787983198
0,-2007.64,-888.13,-1604.94,-1691.77,6.045057835820931
0,-2008.42,-881.0,-1599.98,-1689.03,6.050057883658663
0,-2011.77,-889.52,-1593.2,-1690.09,6.055057931496403
0,-2027.6,-885.89,-1586.19,-1682.64,6.060057979334136
0,-2017.39,-882.27,-1589.02,-1682.6,6.065058027171869
0,-2004.36,-887.79,-1592.44,-1688.29,6.070058075009602
0,-2016.0,-888.05,-1591.6,-1686.68,6.0750581228473415
0,-1997.49,-870.54,-1585.62,-1685.08,6.080058170685074
0,-1991.38,-874.56,-1591.65,-1687.87,6.085058218522807
0,-1979.11,-863.28,-1575.09,-1676.25,6.09005826636054
0,-1999.59,-859.62,-1572.09,-1673.93,6.095058314198273
0,-1970.8,-849.24,-1555.53,-1658.04,6.1000583620360125
0,-1977.23,-839.24,-1552.95,-1659.74,6.105058409873745
0,-1983.69,-847.41,-1570.52,-1674.23,6.110058457711478
0,-1961.14,-840.33,-1561.86,-1671.19,6.115058505549211
0,-1953.65,-836.53,-1545.15,-1656.57,6.120058553386951
0,-1954.31,-850.28,-1549.9,-1671.63,6.1250586012246835
0,-1978.61,-849.45,-1569.28,-1671.74,6.130058649062416
0,-1988.07,-846.27,-1561.38,-1674.93,6.135058696900149
0,-1991.7,-855.91,-1561.78,-1679.19,6.140058744737889
0,-1977.21,-844.35,-1549.53,-1668.6,6.145058792575622
0,-1985.02,-857.67,-1569.6,-1676.84,6.1500588404133545
0,-1992.18,-856.67,-1574.04,-1674.27,6.155058888251087
0,-1989.39,-853.47,-1570.31,-1666.0,6.16005893608882
0,-1994.95,-851.26,-1559.9,-1663.35,6.16505898392656
0,-1959.49,-852.11,-1565.56,-1665.68,6.170059031764293
0,-1994.3,-864.81,-1578.37,-1684.76,6.1750590796020255
0,-2017.49,-884.66,-1591.04,-1701.09,6.180059127439758
0,-2013.22,-878.15,-1597.74,-1691.1,6.185059175277498
0,-1992.81,-875.26,-1593.41,-1686.02,6.190059223115231
0,-1996.7,-879.97,-1590.12,-1687.53,6.195059270952964
0,-2003.69,-877.52,-1576.65,-1679.98,6.2000593187906965
0,-2011.95,-890.42,-1596.19,-1689.01,6.205059366628436
0,-2018.54,-879.99,-1591.89,-1677.97,6.210059414466169
0,-2016.91,-886.17,-1592.39,-1683.69,6.215059462303902
0,-2027.36,-892.42,-1604.93,-1691.69,6.220059510141635
0,-2018.9,-890.34,-1591.05,-1684.93,6.225059557979375
0,-2019.41,-890.93,-1598.77,-1692.45,6.230059605817107
0,-2031.93,-899.17,-1604.36,-1688.27,6.23505965365484
0,-2023.42,-904.5,-1610.61,-1701.39,6.240059701492573
0,-2006.06,-893.39,-1604.07,-1700.02,6.245059749330306
0,-2019.42,-886.42,-1593.43,-1684.5,6.250059797168046
0,-2020.63,-901.22,-1600.45,-1687.83,6.255059845005778
0,-2022.07,-904.63,-1610.97,-1691.58,6.260059892843511
0,-2021.31,-901.79,-1601.09,-1681.94,6.265059940681244
0,-2013.59,-900.72,-1599.2,-1678.49,6.270059988518984
0,-2044.2,-900.75,-1606.28,-1691.27,6.275060036356717
0,-2022.08,-901.24,-1606.23,-1694.05,6.280060084194449
0,-2028.62,-903.25,-1606.39,-1695.1,6.285060132032182
0,-2035.15,-902.9,-1609.19,-1700.3,6.290060179869922
0,-2033.34,-897.96,-1612.62,-1693.46,6.295060227707655
0,-2035.78,-900.04,-1610.63,-1697.03,6.300060275545388
0,-2011.97,-895.96,-1601.34,-1686.13,6.30506032338312
0,-2009.25,-889.42,-1595.21,-1676.57,6.310060371220853
0,-2011.74,-889.47,-1595.74,-1679.2,6.315060419058593
0,-2012.74,-893.33,-1595.4,-1682.21,6.320060466896326
0,-2004.5,-893.22,-1595.07,-1682.57,6.325060514734059
0,-2032.31,-901.73,-1605.72,-1697.8,6.330060562571791
0,-2023.72,-902.01,-1607.85,-1693.77,6.335060610409531
0,-2031.14,-900.19,-1615.85,-1699.29,6.340060658247264
0,-2028.8,-900.86,-1609.08,-1701.07,6.345060706084997
0,-2031.77,-902.05,-1606.86,-1697.81,6.35006075392273
0,-2019.35,-884.36,-1599.39,-1694.08,6.3550608017604695
0,-2021.28,-887.81,-1601.78,-1694.5,6.360060849598202
0,-2020.25,-892.49,-1604.93,-1695.46,6.365060897435935
0,-2019.2,-898.28,-1602.09,-1691.94,6.370060945273668
0,-2016.0,-896.38,-1603.29,-1687.86,6.375060993111401
0,-2016.01,-891.65,-1596.22,-1682.1,6.3800610409491405
0,-2023.49,-898.94,-1606.75,-1692.69,6.385061088786873
0,-1965.89,-891.48,-1597.39,-1691.49,6.390061136624606
0,-2020.49,-887.38,-1592.61,-1693.24,6.395061184462339
0,-2008.77,-884.02,-1589.5,-1689.19,6.400061232300079
0,-2007.4,-889.28,-1593.86,-1688.02,6.4050612801378115
0,-2001.04,-883.86,-1586.62,-1681.78,6.410061327975544
0,-2023.28,-881.98,-1580.51,-1680.25,6.415061375813277
0,-2016.8,-892.52,-1598.49,-1690.85,6.420061423651017
0,-2041.13,-896.07,-1610.11,-1687.52,6.42506147148875
0,-2059.75,-901.63,-1617.44,-1699.34,6.4300615193264825
0,-2037.93,-902.2,-1615.86,-1696.07,6.435061567164215
0,-2028.85,-897.82,-1607.42,-1691.21,6.440061615001955
0,-2025.96,-889.85,-1598.44,-1687.12,6.445061662839688
0,-1996.36,-881.42,-1584.51,-1673.02,6.450061710677421
0,-2003.08,-872.72,-1577.41,-1680.07,6.4550617585151535
0,-1974.95,-875.05,-1576.15,-1683.01,6.460061806352886
0,-1984.1,-870.4,-1571.21,-1676.09,6.465061854190626
0,-1972.96,-860.7,-1567.8,-1665.24,6.470061902028359
0,-2002.58,-872.02,-1576.32,-1671.21,6.475061949866092
0,-1977.03,-877.89,-1586.89,-1682.02,6.4800619977038245
0,-2005.81,-877.88,-1584.99,-1685.28,6.485062045541564
0,-2028.85,-886.14,-1601.24,-1692.79,6.490062093379297
0,-2031.35,-894.84,-1609.13,-1697.12,6.49506214121703
0,-2018.76,-891.21,-1607.51,-1692.97,6.500062189054763
0,-2024.43,-897.91,-1612.94,-1700.17,6.505062236892503
0,-2014.49,-889.53,-1596.47,-1692.07,6.510062284730235
0,-2020.62,-886.02,-1595.5,-1686.06,6.515062332567968
0,-2011.34,-887.92,-1601.14,-1690.26,6.520062380405701
0,-2035.44,-897.52,-1613.07,-1696.82,6.525062428243434
0,-2034.52,-888.88,-1606.22,-1698.86,6.530062476081174
0,-2028.04,-896.77,-1600.2,-1703.08,6.535062523918906
0,-2029.28,-886.27,-1603.77,-1689.35,6.540062571756639
0,-2029.48,-888.45,-1599.96,-1696.5,6.545062619594372
0,-2004.69,-883.74,-1602.25,-1691.17,6.550062667432112
0,-2008.38,-886.12,-1595.39,-1689.19,6.555062715269845
0,-2013.57,-894.55,-1607.29,-1695.96,6.560062763107577
0,-2019.73,-900.86,-1600.81,-1705.21,6.56506281094531
0,-2015.13,-899.55,-1610.96,-1699.06,6.57006285878305
0,-2017.57,-896.69,-1597.57,-1694.59,6.575062906620783
0,-2008.01,-901.95,-1603.81,-1705.58,6.580062954458516
0,-2015.28,-890.53,-1597.4,-1689.52,6.585063002296248
0,-1996.63,-884.89,-1593.37,-1688.8,6.590063050133988
0,-1991.82,-887.04,-1589.44,-1686.38,6.595063097971721
0,-2001.35,-881.12,-1590.92,-1683.5,6.600063145809454
0,-1990.74,-870.46,-1580.72,-1673.11,6.605063193647187
0,-2015.5,-878.1,-1586.82,-1683.91,6.610063241484919
0,-2005.96,-886.71,-1587.85,-1681.36,6.615063289322659
0,-1993.37,-885.45,-1585.95,-1684.72,6.620063337160392
0,-1986.66,-882.0,-1585.95,-1680.14,6.625063384998125
0,-2020.25,-893.54,-1591.26,-1686.17,6.630063432835858
0,-2011.71,-894.48,-1597.1,-1693.52,6.6350634806735975
0,-2027.93,-900.12,-1610.95,-1698.44,6.64006352851133
0,-2001.91,-882.8,-1594.86,-1688.23,6.645063576349063
0,-2004.3,-881.86,-1581.97,-1682.58,6.650063624186796
0,-2005.5,-878.27,-1587.19,-1679.21,6.655063672024536
0,-2012.74,-878.51,-1575.46,-1675.18,6.6600637198622685
0,-2008.77,-877.92,-1585.71,-1679.15,6.665063767700001
0,-2003.13,-879.35,-1589.73,-1680.3,6.670063815537734
0,-2015.98,-886.59,-1598.12,-1686.27,6.675063863375467
0,-2022.36,-886.0,-1595.55,-1686.19,6.680063911213207
0,-2005.82,-884.55,-1593.15,-1684.84,6.6850639590509395
0,-2026.7,-880.07,-1594.89,-1676.66,6.690064006888672
0,-2009.53,-887.92,-1600.2,-1685.39,6.695064054726405
0,-2021.9,-884.51,-1598.05,-1682.12,6.700064102564145
0,-2028.37,-887.14,-1604.03,-1686.47,6.705064150401878
0,-2015.61,-882.41,-1592.77,-1682.58,6.7100641982396105
0,-2002.91,-879.27,-1588.97,-1684.79,6.715064246077343
0,-2019.85,-880.31,-1587.66,-1678.21,6.720064293915083
0,-2022.48,-877.32,-1589.07,-1678.47,6.725064341752816
0,-1990.84,-871.88,-1580.87,-1670.2,6.730064389590549
0,-1991.87,-869.6,-1579.08,-1664.12,6.7350644374282815
0,-1991.5,-872.43,-1579.44,-1672.61,6.740064485266021
0,-2003.03,-876.54,-1591.05,-1677.03,6.745064533103754
0,-2000.95,-876.23,-1591.3,-1680.59,6.750064580941487
0,-2003.67,-879.72,-1597.31,-1689.84,6.75506462877922
0,-2009.56,-885.73,-1596.08,-1692.66,6.7600646766169525
0,-1999.09,-876.7,-1589.18,-1687.48,6.765064724454692
0,-2001.98,-895.07,-1602.89,-1699.08,6.770064772292425
0,-2016.77,-900.06,-1617.67,-1707.94,6.775064820130158
0,-2027.38,-893.0,-1598.3,-1698.08,6.780064867967891
0,-2004.02,-887.84,-1596.3,-1692.46,6.785064915805631
0,-2012.62,-884.05,-1592.57,-1688.14,6.790064963643363
0,-2018.88,-887.73,-1592.49,-1691.52,6.795065011481096
0,-2007.88,-878.77,-1583.94,-1689.02,6.800065059318829
0,-2003.79,-873.78,-1579.66,-1681.97,6.805065107156569
0,-2006.86,-876.46,-1589.86,-1684.63,6.810065154994302
0,-1999.15,-871.62,-1579.12,-1680.39,6.815065202832034
0,-2008.75,-866.19,-1574.69,-1674.36,6.820065250669767
0,-2005.99,-873.3,-1588.27,-1684.62,6.8250652985075
0,-1979.07,-883.16,-1592.69,-1695.3,6.83006534634524
0,-2033.18,-891.06,-1594.95,-1697.77,6.835065394182973
0,-2011.93,-898.34,-1605.0,-1699.92,6.840065442020705
0,-2006.75,-883.24,-1591.66,-1684.4,6.845065489858438
0,-1994.47,-887.61,-1594.4,-1685.38,6.850065537696178
0,-2002.65,-884.2,-1595.95,-1681.18,6.855065585533911
0,-2021.5,-890.69,-1599.88,-1685.34,6.860065633371644
0,-2011.45,-890.23,-1594.47,-1687.16,6.865065681209376
0,-2026.56,-894.36,-1602.78,-1692.81,6.870065729047116
0,-2018.36,-892.6,-1600.12,-1688.91,6.875065776884849
0,-2033.72,-883.51,-1596.43,-1682.56,6.880065824722582
0,-2005.8,-893.06,-1602.58,-1694.12,6.885065872560315
0,-2016.26,-877.58,-1591.58,-1683.11,6.8900659203980545
0,-2036.06,-884.22,-1599.44,-1691.67,6.895065968235787
0,-2010.34,-872.6,-1581.49,-1681.83,6.90006601607352
0,-1993.7,-873.87,-1582.51,-1687.09,6.905066063911253
0,-1988.18,-860.27,-1574.09,-1682.86,6.910066111748986
0,-1977.63,-853.79,-1570.52,-1679.0,6.9150661595867255
0,-1958.68,-846.54,-1561.97,-1678.07,6.920066207424458
0,-1950.97,-839.99,-1553.27,-1669.11,6.925066255262191
0,-1947.49,-835.21,-1552.48,-1677.54,6.930066303099924
0,-1946.98,-817.47,-1540.35,-1665.38,6.935066350937664
0,-1938.81,-806.67,-1531.82,-1655.94,6.9400663987753966
0,-1972.82,-823.57,-1549.87,-1668.47,6.945066446613129
0,-1948.37,-814.56,-1532.75,-1655.24,6.950066494450862
0,-1958.6,-817.45,-1547.1,-1664.09,6.955066542288602
0,-1961.03,-820.72,-1544.12,-1661.88,6.960066590126335
0,-1956.01,-821.89,-1542.71,-1654.05,6.9650666379640676
0,-1964.1,-831.49,-1546.8,-1660.97,6.9700666858018
0,-1978.53,-839.64,-1554.47,-1665.22,6.975066733639533
0,-2002.11,-855.79,-1568.49,-1677.64,6.980066781477273
0,-1991.75,-857.26,-1572.16,-1676.59,6.985066829315006
0,-2000.04,-868.94,-1578.08,-1684.15,6.9900668771527386
0,-2005.66,-882.97,-1593.79,-1692.65,6.995066924990471
0,-2004.99,-874.07,-1585.62,-1681.53,7.000066972828211
0,-1994.49,-871.28,-1579.84,-1676.95,7.005067020665944
0,-2001.6,-886.57,-1594.49,-1689.01,7.010067068503677
0,-1999.49,-883.54,-1594.87,-1688.89,7.01506711634141
0,-2020.02,-893.83,-1606.57,-1694.48,7.020067164179149
0,-2021.86,-888.55,-1610.56,-1691.57,7.025067212016882
0,-2019.24,-895.8,-1604.98,-1696.25,7.030067259854615
0,-2014.47,-896.87,-1603.15,-1698.54,7.035067307692348
0,-2022.24,-894.89,-1596.7,-1689.34,7.040067355530081
0,-2010.28,-900.87,-1605.38,-1691.27,7.0450674033678204
0,-2009.78,-894.69,-1593.17,-1683.39,7.050067451205553
0,-2015.14,-896.72,-1597.56,-1692.23,7.055067499043286
0,-2015.51,-887.6,-1590.5,-1680.25,7.060067546881019
0,-2018.2,-879.85,-1589.63,-1677.94,7.065067594718759
0,-2005.09,-890.22,-1593.92,-1685.43,7.0700676425564914
0,-2022.98,-896.36,-1600.62,-1692.12,7.075067690394224
0,-2026.52,-897.65,-1601.7,-1691.47,7.080067738231957
0,-2021.38,-901.93,-1603.47,-1686.86,7.085067786069697
0,-2019.59,-901.19,-1607.47,-1690.67,7.09006783390743
0,-2012.55,-905.02,-1610.34,-1698.98,7.0950678817451625
0,-2057.44,-911.7,-1608.18,-1701.56,7.100067929582895
0,-2022.27,-896.93,-1605.22,-1692.71,7.105067977420635
0,-2029.38,-896.12,-1602.86,-1684.6,7.110068025258368
0,-2021.33,-902.2,-1610.45,-1693.57,7.115068073096101
0,-2015.27,-898.88,-1608.01,-1687.41,7.1200681209338335
0,-2038.3,-897.8,-1607.66,-1685.76,7.125068168771566
0,-2019.03,-892.01,-1601.21,-1688.29,7.130068216609306
0,-2020.06,-884.33,-1590.4,-1678.45,7.135068264447039
0,-2004.38,-893.8,-1602.32,-1681.94,7.140068312284772
0,-2024.1,-899.89,-1602.52,-1682.79,7.1450683601225045
0,-2025.58,-895.85,-1600.69,-1684.09,7.150068407960244
0,-2001.31,-898.62,-1596.62,-1683.44,7.155068455797977
0,-1999.9,-894.41,-1602.61,-1686.63,7.16006850363571
0,-2013.62,-889.36,-1595.46,-1689.19,7.165068551473443
0,-2005.78,-887.67,-1588.87,-1676.75,7.170068599311183
0,-2017.8,-886.12,-1597.05,-1675.8,7.175068647148915
0,-2009.41,-891.11,-1600.28,-1679.42,7.180068694986648
0,-2041.57,-891.71,-1603.16,-1687.39,7.185068742824381
0,-2028.04,-912.64,-1613.37,-1702.48,7.190068790662114
0,-2037.55,-912.13,-1623.13,-1703.64,7.195068838499854
0,-2053.89,-912.9,-1630.64,-1717.2,7.200068886337586
0,-2056.11,-918.0,-1622.88,-1713.68,7.205068934175319
0,-2049.57,-922.15,-1630.45,-1715.57,7.210068982013052
0,-2050.99,-919.13,-1624.07,-1716.02,7.215069029850792
0,-2049.72,-921.45,-1621.59,-1712.25,7.220069077688525
0,-2041.21,-910.96,-1620.22,-1702.32,7.225069125526257
0,-2031.58,-906.99,-1614.85,-1699.47,7.23006917336399
0,-2031.15,-904.59,-1604.0,-1696.16,7.23506922120173
0,-2014.31,-894.43,-1601.01,-1697.51,7.240069269039463
0,-2013.57,-896.54,-1604.93,-1696.86,7.245069316877196
0,-2018.76,-897.44,-1606.25,-1697.52,7.250069364714928
0,-2022.47,-894.71,-1612.27,-1707.09,7.255069412552668
0,-2033.56,-898.17,-1607.79,-1704.88,7.260069460390401
0,-2028.25,-904.02,-1609.55,-1706.21,7.265069508228134
0,-2032.36,-896.64,-1606.27,-1699.96,7.270069556065867
0,-2012.26,-892.9,-1601.51,-1694.89,7.275069603903599
0,-2018.49,-894.97,-1594.82,-1698.16,7.280069651741339
0,-2018.9,-879.88,-1595.52,-1693.67,7.285069699579072
0,-2014.11,-878.12,-1591.45,-1684.97,7.290069747416805
0,-2009.4,-874.98,-1587.55,-1680.09,7.295069795254538
0,-2003.27,-876.46,-1593.17,-1678.01,7.3000698430922775
0,-1998.66,-874.33,-1580.78,-1678.34,7.30506989093001
0,-2008.99,-877.85,-1586.39,-1681.58,7.310069938767743
0,-2009.03,-878.5,-1586.7,-1681.41,7.315069986605476
0,-2000.59,-873.85,-1583.26,-1678.88,7.320070034443216
0,-1989.97,-877.53,-1583.86,-1680.44,7.3250700822809485
0,-2006.18,-880.0,-1587.89,-1687.52,7.330070130118681
0,-1998.96,-874.31,-1590.62,-1687.28,7.335070177956414
0,-1993.62,-876.47,-1582.37,-1680.73,7.340070225794147
0,-2000.01,-877.78,-1584.47,-1682.1,7.345070273631887
0,-2006.48,-875.93,-1577.76,-1680.86,7.3500703214696195
0,-1990.4,-866.56,-1571.61,-1672.77,7.355070369307352
0,-2007.83,-873.89,-1581.21,-1676.59,7.360070417145085
0,-1992.1,-873.4,-1578.55,-1677.1,7.365070464982825
0,-1991.5,-879.79,-1582.8,-1688.66,7.370070512820558
0,-2001.21,-881.6,-1590.62,-1691.66,7.3750705606582905
0,-1997.88,-877.85,-1589.73,-1690.87,7.380070608496023
0,-1998.22,-882.84,-1596.51,-1694.62,7.385070656333763
0,-2011.57,-886.76,-1596.26,-1690.14,7.390070704171496
0,-2011.46,-892.68,-1601.71,-1699.99,7.395070752009229
0,-2013.07,-892.3,-1601.96,-1696.28,7.4000707998469615
0,-2010.64,-879.74,-1592.03,-1683.32,7.405070847684701
0,-2009.76,-893.09,-1596.47,-1690.93,7.410070895522434
0,-2004.35,-884.67,-1595.39,-1686.17,7.415070943360167
0,-2013.65,-887.17,-1596.22,-1688.28,7.4200709911979
0,-2017.26,-891.64,-1601.28,-1698.61,7.4250710390356325
0,-2013.83,-893.15,-1605.03,-1697.46,7.430071086873372
0,-2025.84,-902.3,-1612.48,-1709.69,7.435071134711105
0,-2007.91,-903.72,-1609.6,-1704.53,7.440071182548838
0,-2029.87,-901.51,-1612.24,-1709.15,7.445071230386571
0,-2029.77,-906.91,-1617.1,-1709.87,7.450071278224311
0,-2034.94,-904.78,-1610.7,-1705.49,7.455071326062043
0,-2016.93,-900.03,-1609.51,-1703.96,7.460071373899776
0,-2014.04,-890.25,-1603.63,-1700.06,7.465071421737509
0,-1997.24,-885.12,-1597.62,-1697.09,7.470071469575249
0,-1998.44,-887.13,-1598.03,-1699.66,7.475071517412982
0,-2015.74,-891.26,-1596.99,-1697.17,7.480071565250714
0,-1993.56,-884.56,-1591.4,-1689.81,7.485071613088447
0,-2023.55,-891.92,-1608.13,-1702.91,7.49007166092618
0,-2025.53,-891.56,-1604.68,-1694.92,7.49507170876392
0,-2022.17,-884.47,-1602.52,-1693.75,7.500071756601653
0,-2006.54,-887.15,-1587.37,-1690.35,7.505071804439385
0,-2009.56,-879.81,-1592.15,-1689.19,7.510071852277118
0,-2027.07,-883.9,-1599.45,-1694.38,7.515071900114858
0,-2010.1,-881.81,-1596.34,-1688.16,7.520071947952591
0,-2016.83,-882.12,-1589.95,-1680.88,7.525071995790324
0,-1982.5,-884.84,-1593.37,-1682.84,7.530072043628056
0,-2022.51,-889.39,-1598.14,-1688.88,7.535072091465796
0,-2020.4,-886.93,-1592.38,-1681.91,7.540072139303529
0,-2017.57,-894.86,-1604.37,-1685.67,7.545072187141262
0,-2016.16,-887.02,-1593.71,-1681.46,7.550072234978995
0,-2005.75,-878.32,-1589.16,-1672.47,7.5550722828167345
0,-2010.06,-873.85,-1587.03,-1670.99,7.560072330654467
0,-2003.44,-865.89,-1575.9,-1661.44,7.5650723784922
0,-2002.14,-868.53,-1583.34,-1671.74,7.570072426329933
0,-1977.44,-867.88,-1574.76,-1675.35,7.575072474167666
0,-2014.27,-874.84,-1584.39,-1678.14,7.5800725220054055
0,-2004.96,-871.69,-1586.37,-1673.45,7.585072569843138
0,-2018.03,-881.94,-1582.7,-1676.96,7.590072617680871
0,-2017.06,-889.48,-1592.52,-1687.78,7.595072665518604
0,-2001.13,-875.95,-1584.27,-1677.53,7.600072713356344
0,-2000.74,-879.52,-1589.29,-1682.74,7.6050727611940765
0,-2014.24,-890.9,-1599.84,-1698.84,7.610072809031809
0,-2018.78,-888.46,-1604.73,-1701.56,7.615072856869542
0,-2024.9,-898.54,-1610.91,-1705.4,7.620072904707282
0,-2034.37,-895.09,-1611.91,-1704.98,7.625072952545015
0,-2019.04,-892.13,-1602.25,-1697.22,7.6300730003827475
0,-2014.12,-887.63,-1598.69,-1689.85,7.63507304822048
0,-2009.41,-895.56,-1598.11,-1698.52,7.640073096058213
0,-2004.46,-886.88,-1597.34,-1691.2,7.645073143895953
0,-2024.3,-892.0,-1594.93,-1693.62,7.650073191733686
0,-2015.58,-888.1,-1601.49,-1692.9,7.6550732395714185
0,-2025.4,-887.95,-1601.57,-1695.54,7.660073287409151
0,-2006.35,-888.67,-1597.87,-1693.51,7.665073335246891
0,-2014.94,-888.76,-1596.88,-1689.5,7.670073383084624
0,-2023.36,-892.45,-1598.85,-1696.65,7.675073430922357
0,-2014.35,-887.4,-1608.4,-1697.77,7.6800734787600895
0,-2044.6,-894.18,-1604.2,-1704.13,7.685073526597829
0,-2019.04,-899.23,-1609.34,-1706.44,7.690073574435562
0,-2013.53,-890.97,-1598.78,-1697.02,7.695073622273295
0,-2000.61,-891.47,-1598.28,-1691.03,7.700073670111028
0,-2008.45,-890.32,-1602.54,-1691.26,7.705073717948768
0,-2021.41,-894.39,-1597.04,-1686.84,7.7100737657865
0,-2010.48,-889.49,-1595.75,-1682.81,7.715073813624233
0,-2004.03,-889.3,-1593.48,-1682.72,7.720073861461966
0,-2017.3,-882.28,-1588.49,-1676.19,7.725073909299699
0,-2010.79,-879.61,-1586.49,-1671.82,7.730073957137439
0,-1996.89,-878.6,-1582.38,-1672.6,7.735074004975171
0,-2010.36,-885.0,-1592.76,-1679.12,7.740074052812904
0,-2037.23,-880.58,-1593.77,-1679.72,7.745074100650637
0,-2015.34,-880.21,-1590.28,-1681.22,7.750074148488377
0,-2010.42,-886.09,-1593.61,-1678.59,7.75507419632611
0,-2016.43,-878.27,-1601.82,-1686.75,7.760074244163842
0,-1973.77,-861.72,-1574.58,-1663.32,7.765074292001575
0,-2000.64,-873.5,-1588.07,-1693.26,7.770074339839315
0,-1990.47,-878.53,-1600.41,-1698.2,7.775074387677048
0,-1999.03,-868.06,-1578.98,-1683.02,7.780074435514781
0,-2004.36,-877.28,-1583.29,-1693.3,7.785074483352513
0,-1998.8,-879.18,-1587.71,-1686.33,7.790074531190246
0,-1984.16,-882.23,-1592.92,-1695.84,7.795074579027986
0,-2022.41,-889.75,-1597.92,-1698.62,7.800074626865719
0,-2030.91,-889.61,-1595.69,-1697.98,7.805074674703452
0,-2036.22,-892.1,-1604.82,-1694.84,7.810074722541184
0,-2030.93,-898.3,-1608.47,-1700.68,7.815074770378924
0,-2030.95,-894.08,-1604.21,-1691.08,7.820074818216657
0,-2052.5,-895.39,-1604.73,-1695.41,7.82507486605439
0,-2015.95,-893.77,-1608.24,-1697.08,7.830074913892123
0,-1987.17,-891.33,-1605.44,-1692.77,7.8350749617298625
0,-2039.33,-890.55,-1604.29,-1689.36,7.840075009567595
0,-1997.03,-881.49,-1592.81,-1681.55,7.845075057405328
0,-2013.75,-879.08,-1591.4,-1667.12,7.850075105243061
0,-2002.9,-872.31,-1580.83,-1664.08,7.855075153080794
0,-2010.69,-875.65,-1575.89,-1677.24,7.8600752009185335
0,-1979.39,-871.84,-1587.1,-1686.03,7.865075248756266
0,-1983.83,-876.95,-1589.16,-1689.55,7.870075296593999
0,-2008.84,-874.61,-1582.32,-1678.53,7.875075344431732
0,-1988.0,-873.65,-1583.85,-1680.57,7.880075392269472
0,-2014.21,-871.76,-1584.44,-1677.53,7.8850754401072045
0,-2001.05,-876.95,-1579.3,-1685.16,7.890075487944937
0,-2001.1,-878.35,-1583.42,-1683.66,7.89507553578267
0,-1994.29,-875.32,-1576.5,-1677.21,7.90007558362041
0,-1989.73,-877.48,-1583.83,-1680.76,7.905075631458143
0,-2022.22,-883.92,-1594.2,-1681.29,7.9100756792958755
0,-2006.96,-883.46,-1595.66,-1678.6,7.915075727133608
0,-2017.55,-886.92,-1589.53,-1687.94,7.920075774971348
0,-2032.01,-886.0,-1597.75,-1692.65,7.925075822809081
0,-2022.54,-893.03,-1607.0,-1699.01,7.930075870646814
0,-2010.82,-893.12,-1607.31,-1694.85,7.9350759184845465
0,-2031.97,-895.42,-1607.0,-1697.38,7.940075966322279
0,-2024.04,-895.34,-1604.98,-1693.21,7.945076014160019
0,-2027.99,-908.68,-1611.33,-1703.79,7.950076061997752
0,-2016.85,-886.14,-1591.14,-1687.76,7.955076109835485
0,-2021.27,-882.21,-1589.22,-1691.09,7.9600761576732175
0,-2019.61,-884.77,-1593.9,-1690.17,7.965076205510957
0,-2016.06,-883.5,-1595.2,-1691.34,7.97007625334869
0,-2002.79,-880.59,-1589.56,-1688.06,7.975076301186423
0,-1994.74,-873.61,-1577.92,-1677.97,7.980076349024156
0,-2015.08,-869.7,-1577.1,-1676.46,7.985076396861896
0,-1986.89,-874.01,-1582.0,-1678.17,7.990076444699628
0,-2004.69,-879.92,-1584.94,-1686.78,7.995076492537361
0,-1999.31,-876.44,-1585.77,-1690.42,8.000076540375094
0,-1989.8,-881.64,-1585.56,-1687.48,8.005076588212827
0,-2002.36,-882.32,-1581.54,-1680.88,8.010076636050567
0,-1995.14,-877.58,-1583.72,-1682.04,8.0150766838883
0,-2012.78,-883.27,-1585.98,-1686.56,8.020076731726032
0,-2004.12,-878.95,-1588.23,-1685.08,8.025076779563765
0,-2018.41,-882.08,-1592.39,-1693.69,8.030076827401505
0,-2042.07,-889.32,-1601.83,-1697.4,8.035076875239238
0,-2037.81,-894.25,-1602.6,-1698.01,8.04007692307697
0,-2018.5,-893.11,-1604.57,-1701.55,8.045076970914703
0,-2010.3,-888.59,-1603.77,-1697.52,8.050077018752443
0,-2009.2,-889.4,-1599.27,-1694.02,8.055077066590176
0,-2020.05,-890.55,-1601.68,-1696.46,8.060077114427909
0,-2005.33,-887.04,-1601.17,-1698.12,8.065077162265641
0,-2007.03,-881.85,-1596.65,-1687.7,8.070077210103381
0,-2017.65,-880.31,-1591.41,-1685.18,8.075077257941114
0,-1990.35,-879.27,-1583.31,-1687.81,8.080077305778847
0,-1979.02,-875.72,-1596.26,-1685.94,8.08507735361658
0,-2027.38,-884.4,-1594.07,-1694.33,8.090077401454312
0,-1984.21,-870.35,-1587.35,-1677.93,8.095077449292052
0,-1986.28,-870.48,-1572.0,-1672.81,8.100077497129785
0,-1976.48,-868.7,-1578.31,-1666.0,8.105077544967518
0,-2014.98,-880.57,-1584.09,-1680.47,8.11007759280525
0,-2020.24,-880.68,-1594.08,-1684.31,8.11507764064299
0,-2009.75,-881.06,-1585.04,-1683.44,8.120077688480723
0,-2012.7,-883.56,-1593.31,-1684.18,8.125077736318456
0,-2015.34,-885.94,-1596.31,-1685.95,8.130077784156189
0,-2009.62,-884.34,-1594.48,-1680.08,8.135077831993929
0,-1993.47,-876.92,-1583.92,-1681.2,8.140077879831662
0,-2011.67,-894.02,-1599.37,-1689.12,8.145077927669394
0,-2009.53,-893.82,-1602.19,-1695.01,8.150077975507127
0,-2016.17,-898.69,-1611.54,-1700.24,8.15507802334486
0,-2021.4,-892.03,-1600.56,-1697.64,8.1600780711826
0,-2031.81,-893.25,-1598.37,-1698.81,8.165078119020333
0,-2011.12,-887.26,-1598.34,-1696.44,8.170078166858065
0,-2023.87,-888.52,-1600.26,-1700.78,8.175078214695798
0,-2017.26,-893.89,-1610.53,-1709.44,8.180078262533538
0,-2019.67,-878.77,-1590.74,-1695.8,8.18507831037127
0,-2006.45,-881.52,-1586.75,-1693.61,8.190078358209004
0,-2010.53,-875.53,-1591.5,-1692.51,8.195078406046736
0,-2003.82,-876.34,-1587.91,-1689.58,8.200078453884476
0,-2005.6,-879.74,-1585.41,-1686.65,8.205078501722209
0,-1998.89,-892.7,-1595.87,-1691.23,8.210078549559942
0,-2003.16,-888.39,-1589.56,-1686.53,8.215078597397675
0,-2024.04,-894.81,-1595.26,-1689.43,8.220078645235414
0,-1998.33,-891.16,-1597.05,-1695.73,8.225078693073147
0,-2009.21,-887.37,-1594.65,-1686.47,8.23007874091088
0,-2022.49,-888.75,-1598.26,-1690.23,8.235078788748613
0,-2004.78,-883.72,-1592.89,-1684.07,8.240078836586346
0,-2034.21,-889.58,-1599.94,-1684.6,8.245078884424085
0,-2018.59,-893.58,-1603.95,-1689.69,8.250078932261818
0,-2018.15,-895.5,-1606.69,-1695.66,8.255078980099551
0,-2026.29,-901.14,-1613.86,-1702.1,8.260079027937284
0,-2025.08,-895.63,-1609.38,-1692.86,8.265079075775024
0,-2027.88,-893.65,-1607.34,-1688.39,8.270079123612756
0,-2025.8,-904.2,-1615.14,-1696.25,8.27507917145049
0,-2022.66,-898.6,-1603.76,-1692.49,8.280079219288222
0,-2016.67,-887.11,-1596.61,-1693.01,8.285079267125962
0,-2009.58,-879.88,-1590.48,-1687.66,8.290079314963695
0,-2005.04,-876.59,-1587.07,-1684.27,8.295079362801427
0,-2012.87,-885.48,-1593.35,-1692.63,8.30007941063916
0,-2013.88,-887.13,-1604.1,-1690.05,8.305079458476893
0,-2015.6,-884.79,-1597.88,-1686.54,8.310079506314633
0,-2009.97,-885.54,-1595.15,-1688.05,8.315079554152366
0,-2004.11,-879.64,-1585.77,-1684.36,8.320079601990098
0,-2000.83,-877.78,-1585.16,-1679.15,8.325079649827831
0,-2008.07,-875.11,-1589.47,-1684.36,8.330079697665571
0,-1997.24,-877.88,-1583.65,-1678.38,8.335079745503304
0,-2002.63,-882.47,-1587.13,-1683.12,8.340079793341037
0,-2014.47,-888.15,-1594.43,-1687.96,8.34507984117877
0,-2027.09,-888.61,-1598.28,-1690.42,8.35007988901651
0,-2015.16,-887.65,-1596.08,-1685.91,8.355079936854242
0,-2025.05,-899.59,-1608.92,-1695.95,8.360079984691975
0,-2022.49,-902.69,-1604.28,-1691.7,8.365080032529708
0,-2006.2,-889.94,-1603.42,-1692.1,8.370080080367448
0,-2014.82,-892.8,-1603.27,-1695.41,8.37508012820518
0,-2023.74,-886.79,-1601.87,-1696.67,8.380080176042913
0,-2025.75,-884.35,-1595.89,-1691.43,8.385080223880646
0,-2010.39,-885.61,-1591.42,-1682.89,8.390080271718379
0,-2009.21,-893.92,-1603.99,-1701.19,8.395080319556119
0,-2018.64,-893.31,-1605.65,-1700.78,8.400080367393851
0,-2014.18,-888.22,-1598.23,-1692.57,8.405080415231584
0,-2008.51,-887.56,-1596.41,-1689.21,8.410080463069317
0,-1995.55,-874.88,-1589.08,-1679.14,8.415080510907057
0,-2005.69,-876.9,-1586.95,-1682.36,8.42008055874479
0,-1992.9,-874.89,-1587.55,-1681.75,8.425080606582522
0,-1996.15,-874.76,-1586.89,-1681.83,8.430080654420255
0,-2003.29,-877.07,-1580.82,-1686.77,8.435080702257995
0,-2004.71,-880.43,-1593.68,-1686.49,8.440080750095728
0,-2004.45,-881.19,-1599.3,-1685.14,8.44508079793346
0,-2012.05,-883.49,-1590.72,-1684.83,8.450080845771193
0,-2018.4,-890.51,-1604.36,-1685.36,8.455080893608926
0,-2012.61,-888.3,-1594.18,-1686.65,8.460080941446666
0,-2019.65,-891.48,-1603.19,-1689.24,8.465080989284399
0,-2025.87,-890.47,-1589.1,-1682.26,8.470081037122132
0,-2004.53,-883.28,-1589.2,-1679.82,8.475081084959864
0,-2014.66,-883.76,-1590.75,-1685.43,8.480081132797604
0,-2009.77,-885.26,-1592.83,-1682.27,8.485081180635337
0,-2017.63,-884.85,-1595.75,-1683.5,8.49008122847307
0,-1994.87,-879.39,-1588.26,-1682.76,8.495081276310803
0,-2002.85,-879.58,-1581.84,-1677.45,8.500081324148542
0,-2009.35,-881.56,-1586.77,-1678.63,8.505081371986275
0,-2006.75,-874.69,-1581.14,-1673.12,8.510081419824008
0,-2016.27,-882.19,-1595.21,-1682.91,8.51508146766174
0,-2004.22,-878.01,-1579.44,-1679.23,8.520081515499474
0,-2000.56,-876.87,-1580.36,-1674.11,8.525081563337213
0,-2001.42,-882.86,-1593.66,-1687.26,8.530081611174946
0,-2010.68,-877.92,-1584.63,-1681.12,8.535081659012679
0,-1999.31,-873.29,-1585.71,-1680.15,8.540081706850412
0,-2004.05,-877.56,-1588.9,-1685.71,8.545081754688152
0,-2001.32,-875.68,-1581.25,-1678.53,8.550081802525884
0,-2008.32,-879.15,-1585.22,-1683.93,8.555081850363617
0,-2017.39,-884.36,-1596.51,-1690.69,8.56008189820135
0,-2003.61,-890.27,-1601.79,-1691.97,8.56508194603909
0,-2019.4,-899.51,-1612.44,-1711.79,8.570081993876823
0,-2021.77,-899.81,-1610.03,-1705.89,8.575082041714555
0,-2019.08,-892.37,-1600.84,-1701.56,8.580082089552288
0,-2036.39,-896.32,-1610.22,-1706.42,8.585082137390028
0,-2021.41,-890.2,-1598.59,-1693.22,8.590082185227761
0,-2008.18,-882.04,-1588.48,-1686.61,8.595082233065494
0,-2011.31,-879.17,-1591.79,-1685.82,8.600082280903226
0,-2005.18,-883.42,-1591.99,-1687.03,8.60508232874096
0,-2007.45,-882.11,-1594.88,-1691.98,8.6100823765787
0,-2027.48,-876.94,-1586.41,-1684.42,8.615082424416432
0,-1995.56,-873.27,-1586.81,-1677.43,8.620082472254165
0,-1992.98,-871.83,-1584.27,-1677.93,8.625082520091897
0,-1995.63,-879.3,-1580.94,-1678.08,8.630082567929637
0,-2012.16,-879.59,-1585.14,-1674.98,8.63508261576737
0,-2003.12,-880.95,-1581.42,-1673.36,8.640082663605103
0,-2019.35,-880.57,-1602.26,-1679.97,8.645082711442836
0,-1997.49,-884.6,-1595.12,-1682.11,8.650082759280576
0,-2007.05,-888.59,-1593.44,-1688.79,8.655082807118308
0,-2005.76,-884.3,-1600.57,-1686.52,8.660082854956041
0,-2006.52,-880.72,-1595.4,-1685.07,8.665082902793774
0,-2008.05,-883.07,-1587.27,-1688.38,8.670082950631507
0,-1988.62,-874.52,-1577.13,-1682.7,8.675082998469247
0,-2005.9,-879.07,-1580.13,-1687.12,8.68008304630698
0,-2021.18,-881.57,-1592.31,-1687.41,8.685083094144712
0,-2012.85,-884.71,-1593.02,-1688.74,8.690083141982445
0,-1999.14,-874.67,-1574.97,-1683.7,8.695083189820185
0,-2005.47,-881.16,-1595.81,-1692.03,8.700083237657918
0,-2009.08,-886.17,-1594.84,-1695.36,8.70508328549565
0,-2030.07,-893.08,-1594.5,-1693.36,8.710083333333383
0,-2028.86,-889.32,-1597.33,-1691.34,8.715083381171123
0,-2008.83,-888.66,-1599.56,-1696.33,8.720083429008856
0,-1995.38,-882.38,-1595.63,-1691.95,8.725083476846589
0,-2016.77,-886.51,-1588.97,-1685.88,8.730083524684321
0,-2003.1,-878.74,-1592.56,-1675.34,8.735083572522061
0,-2007.19,-887.08,-1588.55,-1677.67,8.740083620359794
0,-2014.01,-898.75,-1607.36,-1692.61,8.745083668197527
0,-2019.1,-894.79,-1598.25,-1690.72,8.75008371603526
0,-2035.58,-903.4,-1603.83,-1694.4,8.755083763872992
0,-2012.21,-894.85,-1604.32,-1690.0,8.760083811710732
0,-2008.81,-882.01,-1586.96,-1681.26,8.765083859548465
0,-1998.72,-877.46,-1585.34,-1677.18,8.770083907386198
0,-1995.33,-879.24,-1586.51,-1682.92,8.77508395522393
0,-2010.34,-877.18,-1589.39,-1687.98,8.78008400306167
0,-2014.91,-887.53,-1600.48,-1693.23,8.785084050899403
0,-2008.88,-883.01,-1591.29,-1688.24,8.790084098737136
0,-2022.92,-893.39,-1600.49,-1692.38,8.795084146574869
0,-2016.42,-883.61,-1594.82,-1687.84,8.800084194412609
0,-2021.57,-884.55,-1595.41,-1689.27,8.805084242250341
0,-2018.96,-887.46,-1597.01,-1691.06,8.810084290088074
0,-2013.4,-882.92,-1598.42,-1692.1,8.815084337925807
0,-2009.26,-878.87,-1592.78,-1689.28,8.82008438576354
0,-1993.05,-876.88,-1589.89,-1688.59,8.82508443360128
0,-2009.3,-883.22,-1597.68,-1682.66,8.830084481439012
0,-2013.1,-879.28,-1599.42,-1683.46,8.835084529276745
0,-2001.63,-875.84,-1588.16,-1679.04,8.840084577114478
0,-2008.76,-874.61,-1580.76,-1675.34,8.845084624952218
0,-1999.41,-871.1,-1583.15,-1674.48,8.85008467278995
0,-2019.74,-885.25,-1592.3,-1687.89,8.855084720627683
