labels,F4,F3,Fz,Cz,timestamps
0,-16.46394570643026,-16.326636622661923,-17.719113266617285,-8.784060139526453,-2.000008766739043
0,-6.473438009793547,-9.88653676460121,-5.477963069011312,-2.013526983043035,-1.9950087448221936
0,-12.522933507752604,-12.566439324374727,-12.556815454913366,-2.0829964862181263,-1.9900087229053476
0,-9.3524322096711,-12.996344312270345,-17.335670433771448,-6.442468652235916,-1.985008700988498
0,-0.42193412396691937,-3.6562517374377754,2.1154719860752746,2.3080565160410145,-1.980008679071652
0,-14.221439258275153,-13.546161608014609,-9.703388202732377,-4.321420983981684,-1.9750086571548024
0,-20.16094761944234,-15.9860739311843,-18.6222510067823,-12.32090115463274,-1.9700086352379564
0,-7.00045921319473,-6.035988713041431,-2.0511164317883175,0.6996160021957987,-1.9650086133211104
0,-12.96997404392392,-12.44590595852185,-10.789984482444494,-4.259869514838064,-1.9600085914042609
0,-9.91949211481187,-14.685825671476548,-16.078855162497028,-3.2293577066520807,-1.9550085694874149
0,-11.539013427961743,-11.745747854628364,-11.20772847467495,-0.49884857386873654,-1.9500085475705653
0,-9.508537984417071,-12.565672509461349,-5.226604420539692,-5.568342116847024,-1.9450085256537193
0,-14.658065784158522,-13.815599636207093,-12.415483000583574,-7.277838335643216,-1.9400085037368697
0,-16.877596826018237,-17.835529233817528,-21.854364214301217,-14.577337229812464,-1.9350084818200237
0,-16.407131107480375,-16.725461299826456,-10.163248059944737,-10.676838798085361,-1.9300084599031742
0,-11.666668624527077,-13.705395830212234,-16.772134534283314,-15.376343038095339,-1.9250084379863281
0,-17.356209371651175,-18.60533281937705,-20.451023632575357,-15.675849946216532,-1.9200084160694821
0,-5.485753341960893,-12.785272260175416,-8.299915348536327,-12.275359517456263,-1.9150083941526326
0,-5.725300527378004,-12.355214143960342,-5.26880967443078,-6.974871745468266,-1.9100083722357866
0,-11.874850918918623,-16.32515846068066,-13.517706601409186,-12.524386622736566,-1.905008350318937
0,-7.784404506813819,-5.435105198978846,-7.436606119728506,-4.393904140764181,-1.900008328402091
0,-4.283961280472235,-5.535054346356203,1.1144917812015773,-0.8534242902398581,-1.8950083064852414
0,-5.7535212285549875,-7.0650058894650085,-5.134412887392102,-4.112947061298641,-1.8900082845683954
0,-5.743084339129874,-8.564959814299325,-9.00332011388009,-5.392472443728078,-1.8850082626515459
0,-4.062650599737997,-4.634916106190393,-5.8222298861722255,1.92799957300169,-1.8800082407346999
0,-7.032219997402709,-5.534874749804487,-6.491142191550054,-4.02153100029982,-1.8750082188178503
0,-10.191792518591004,-9.524835729194043,-14.010057016588693,-6.041064152602154,-1.8700081969010043
0,-2.5113681491152926,-1.4947990278031695,-0.8289743470832387,0.7894001273999884,-1.8650081749841583
0,-4.040946874134221,-8.434764628477488,-7.227894168059318,-1.710138148689892,-1.8600081530673087
0,-4.080528678300362,-8.064732513487726,-8.576816463903322,-7.249678969039851,-1.8550081311504627
0,-1.0101135458899588,-5.07470266447498,-6.16574121838578,-2.239222321547688,-1.8500081092336131
0,-0.1197014608911311,0.015324937552293028,6.10533158533027,1.5312318062356658,-1.8450080873167671
0,-4.849292407098696,-6.324649687942882,-6.083598035551895,-7.17831657296561,-1.8400080653999176
0,-2.1288863681227124,-5.664626521137135,-6.002530063664973,-1.947867446197804,-1.8350080434830716
0,3.6515166726428085,6.89539445815053,10.528535518551339,6.572579199738594,-1.830008021566222
0,1.7019167319009139,0.20541327029277778,3.199598728712113,3.033023378101387,-1.825007999649376
0,-4.1676861737133475,-6.494570064378556,-2.7093404158306615,-0.5565348980711866,-1.82000797773253
0,-5.917292027565479,0.27544447448372766,-1.7382818979851649,-4.53609561595857,-1.8150079558156804
0,-2.436900812773594,0.2354569074091819,4.512774299312477,-1.245658762715869,-1.8100079338988344
0,-7.116512512045781,-8.944532744877254,-13.126171806794332,-7.765224325259703,-1.8050079119819848
0,5.47387289230834,7.415475538546344,5.464879801018883,10.565207709777471,-1.8000078900651388
0,-3.025744581780401,-2.6545182212431606,2.8059291403060334,-2.22436264413898,-1.7950078681482893
0,-0.5953649163157971,3.0354859968226493,0.9969762286393924,2.1960646263078427,-1.7900078462314433
0,-2.854988093249122,-2.5045117862755495,-3.5519789165672004,-2.0035104657351503,-1.7850078243145937
0,3.9053859055763174,3.675488450390096,3.6490637220267015,3.6769120928148924,-1.7800078023977477
0,0.8157570983541125,1.6154867276817635,-3.499895838218395,3.4473323149636643,-1.7750077804808981
0,-5.503874496777767,-5.194516933637611,-7.9588575798601084,-3.2422497864463318,-1.7700077585640521
0,1.0864911383383578,5.32547748715548,5.022178514766808,1.8081658012921205,-1.7650077366472061
0,1.4468540219824209,2.1854700107696856,5.303212463527523,6.258579090816131,-1.7600077147303566
0,-2.332785827497392,-9.654539342158618,-7.005755715768283,-8.701009905344662,-1.7550076928135105
0,1.3875716082497624,-1.4545505509270904,2.0952739945799994,3.909398825274656,-1.750007670896661
0,2.1679263475709973,4.085436405444297,3.796301612294558,2.199805295184623,-1.745007648979815
0,-7.9517215911935715,-10.02457845182801,-7.622672844886596,-9.699790483067602,-1.7400076270629654
0,1.0986278103843663,3.115404898642489,4.218350640787748,2.4106115031641133,-1.7350076051461194
0,4.398974570908788,9.385386478384817,9.909372087078694,11.851011266671847,-1.7300075832292698
0,4.499318708989378,5.525366308771553,4.490391511487012,9.881408820033759,-1.7250075613124238
0,-0.770339757007892,3.4253444106618094,-5.648591068979517,3.281804175134833,-1.7200075393955743
0,1.1799991910162448,1.5753208043725428,5.132424362362128,3.332197343095629,-1.7150075174787283
0,-1.1696644289688614,-1.1547044901273698,-0.44656217789062336,3.5325883345014426,-1.7100074955618823
0,-4.159330598991746,-3.5147314529944502,-6.2455506731688555,0.2829771595878946,-1.7050074736450327
0,4.041000699014534,4.035239935659168,3.3154588931540907,3.303363828333531,-1.7000074517281867
0,0.7613294831870612,5.085209695738713,4.636466537803565,7.5537483504737875,-1.6950074298113371
0,-5.798344228359657,-4.284822153002957,-4.392527722547319,-4.485869264561575,-1.690007407894491
0,-1.7080204174602005,0.8951444090232474,-3.651523871308525,-3.6754890075693494,-1.6850073859776415
0,6.512300934221361,6.565109401352876,9.059478108171206,7.08488913065995,-1.6800073640607955
0,-3.6773801549164022,-3.974927156573742,-3.5295217674441735,-4.6347348406110855,-1.675007342143946
0,-1.367063666537755,-6.874965245412886,-4.948523481589364,-4.404360912122094,-1.6700073202271
0,0.7132504177079251,0.4749951543233535,6.332472982312745,0.6160109255097987,-1.665007298310254
0,-2.086437883733593,0.654954062415354,5.183467640865981,0.14638068188238318,-1.6600072763934044
0,-2.996128552317626,-1.4650885011891739,-3.545539489520765,-2.873251633279809,-1.6550072544765584
0,0.1741784306393277,5.074867483468456,6.0654516072983204,7.707113989777351,-1.6500072325597088
0,3.314483083952271,8.49482203620657,13.096440947205249,9.337477560661128,-1.6450072106428628
0,-0.18521457356391802,-1.6452248235073283,-0.46257145439974706,-2.9821609114430037,-1.6400071887260133
0,-4.2149145231713145,-0.48527307658753915,-7.121585582667061,-1.5218014177788755,-1.6350071668091672
0,7.655383253848942,4.684677295857231,8.38939857703658,5.60855605024719,-1.6300071448923177
0,3.6956787761450625,-1.7453736873790975,3.270381039311876,1.4189115011550009,-1.6250071229754717
0,0.7859720620948503,-3.36542600758891,-6.008638181413601,-7.8607350566719285,-1.6200071010586221
0,-0.6937368702347859,-0.03547964602976106,-0.007659070846845251,-2.2703836148240377,-1.615007079141776
0,5.006551997044193,5.344465416146041,3.193318385375491,1.8599658353706428,-1.61000705722493
0,-5.793161318283128,-6.665590802209592,-12.705705798257899,-7.38968669715046,-1.6050070353080805
0,1.4871232015295988,2.394351717729236,-1.2947316070200836,-0.9693412032289159,-1.6000070133912345
0,-3.5725944256918436,-3.855707005132961,-3.7037590257439392,-7.47899767339866,-1.595006991474385
0,-0.49231418197535737,-4.0757669517305075,-4.232788038809332,-6.65865609776695,-1.590006969557539
0,-3.5220360491857896,-10.085828102714078,-12.94181863016982,-11.418316465867495,-1.5850069476406894
0,0.5882399909898928,-3.525890438239037,2.159149216775692,-0.8879787665193678,-1.5800069257238434
0,-2.2114860429735224,-9.605953937825255,-5.579884480792111,-8.897642987841035,-1.5750069038069938
0,5.378785867486986,2.0239814196283072,-2.9789197052761986,-4.357309117356722,-1.5700068818901478
0,7.089055740848524,8.273915655621071,8.002043561174238,1.353022857923404,-1.5650068599733018
0,5.629323595234586,4.293848791606308,6.713005336405752,-0.2666470486609709,-1.5600068380564522
0,2.629589448239479,1.8137808486286522,0.1939656379144501,-5.026318823622097,-1.5550068161396062
0,16.869853316879635,18.433711847205736,14.584924482681,6.624007546613121,-1.5500067942227567
0,19.070115217368176,19.723641807064993,20.805881886984988,10.444332075574717,-1.5450067723059107
0,18.330375164627803,23.413570746567295,18.43683786590882,12.92465477634175,-1.540006750389061
0,27.83063317184192,27.9334986821529,17.087792432865346,13.644975661083281,-1.535006728472215
0,30.89088925009136,34.63342562792313,31.778745599388884,22.015294740735243,-1.5300067065553655
0,33.56114340792142,36.36335159520385,29.659697374859643,19.05561202470464,-1.5250066846385195
0,33.05139565094111,38.24327659211477,30.33064776606139,22.765927520580735,-1.52000666272167
0,32.48164598160912,37.463200623274375,32.89159677687768,18.85624123396826,-1.515006640804824
0,38.51189439914594,42.45312368963694,33.29254440816509,21.836553168450063,-1.510006618887978
0,27.892140899468828,33.913045788395486,24.663490657698322,7.086863325675029,-1.5050065969711284
0,42.09238547516044,47.80296691293004,39.624435520208365,20.247171705600618,-1.5000065750542824
0,41.812628115369286,43.77288705268938,38.155378987317306,22.217478306650555,-1.4950065531374328
0,30.59286880558827,34.89280619301345,25.856321047309862,14.457783125574386,-1.4900065312205868
0,34.0631075276356,32.412724315225596,25.927261685174344,14.198086157335347,-1.4850065093037372
0,35.063344259894514,36.602641397005236,32.4082008829555,18.358387395246744,-1.4800064873868912
0,25.44357897749569,23.252557412698817,20.859138619972793,14.748686831078933,-1.4750064654700417
0,20.923811652526087,21.842472333614808,16.350074872965386,9.64898445508011,-1.4700064435531957
0,19.854042254451723,23.73238612844697,21.92100961643189,14.069280256105488,-1.4650064216363496
0,12.504270750581489,21.422298763594043,20.951942822907387,13.319574221763261,-1.4600063997195
0,16.68449710642855,13.772210203308665,8.362874463039194,9.639866338439784,-1.455006377802654
0,11.484721285962218,10.012120409953804,5.71380450583818,6.860156591357097,-1.4500063558858045
0,8.314943251786541,9.792029344419554,10.634732919161838,9.620444964749343,-1.4450063339689585
0,-2.564837034583043,-2.918063033456118,-5.254340329899285,-2.8792685579325035,-1.440006312052109
0,-4.694619612225172,-5.318156764417032,-6.363415274666274,-0.19898399374322673,-1.435006290135263
0,-5.46440452024957,-3.378251889249995,-1.6324919483975373,1.0512986400898732,-1.4300062682184134
0,-7.274191797405308,-7.968348448405145,-8.941570383961361,-5.34842067363467,-1.4250062463015674
0,-14.843981481844457,-14.758446481778186,-11.990650613688457,-10.558141951939852,-1.4200062243847178
0,-7.223773610886054,-9.738546028440235,-4.2197326691872945,-2.52786521140513,-1.4150062024678718
0,-13.353568220839618,-13.518647126389205,-8.258816581247363,-4.7475904680100856,-1.4100061805510258
0,-19.643365346899895,-18.618749812417093,-16.027902379858705,-8.877317737182512,-1.4050061586341762
0,-13.893165022944851,-13.118854121961476,-10.036990094082826,-4.317047033808583,-1.4000061367173302
0,-7.402967281382196,-7.988960089023424,-0.8560797519189303,2.1632216277728933,-1.3950061148004806
0,-19.732772153252142,-16.5990677462933,-13.505171380456026,-8.036511766377961,-1.3900060928836346
0,-19.822579668265238,-16.249177125233903,-16.78426500597893,-11.626247229854316,-1.385006070966785
0,-27.762389854494824,-24.719288255880812,-19.323360653670836,-16.395984775599295,-1.380006049049939
0,-23.842202737943026,-24.189401166474084,-21.02245834716881,-16.295724415450234,-1.3750060271330895
0,-26.15201834225537,-20.999515883137065,-23.61155810825805,-19.50546615979794,-1.3700060052162435
0,-17.77183668866456,-16.109632429799223,-12.050659956733982,-11.865210017420704,-1.3650059832993975
0,-12.27165779619089,-14.389750828403248,-9.479763910549208,-9.57495599554034,-1.360005961382548
0,-12.241481682050214,-11.879871099222386,-10.478869986218472,-10.604704100073262,-1.355005939465702
0,-14.651308362030477,-10.62999326112975,-11.257978199149086,-5.684454335885672,-1.3500059175488524
0,-8.511137850657168,-7.700117331810224,-2.6570885637714245,3.205793292967969,-1.3450058956320063
0,-8.740970161287178,-8.550243327944075,-7.046201093684015,-0.5239612171174606,-1.3400058737151568
0,-9.040805306267131,-8.820371265337108,-10.845315801812323,-0.09371786964791298,-1.3350058517983108
0,-12.160643297033806,-13.220501158935349,-7.414432700382343,-4.223476668125615,-1.3300058298814612
0,-6.170484144095384,-9.840633022725605,-2.6735518008390216,1.3767623840382417,-1.3250058079646152
0,-14.83032785700176,-11.480766869635408,-12.942673113905883,-3.6130007164191733,-1.3200057860477656
0,-10.200174444303101,-12.500902711501407,-3.0817966496281564,-3.952765972595654,-1.3150057641309196
0,4.129976086439604,2.8489594408663073,6.739077582566046,10.127466612569906,-1.3100057422140736
0,-0.6298762716598142,-5.30118042258347,-6.960050426429271,-2.422302963869426,-1.305005720297224
0,-6.1397315252470595,-6.661322311461808,-1.4291806856337863,-0.8820747050477286,-1.300005698380378
0,-7.729589680786995,-5.41146623498443,-0.8283132039188538,1.4781513857791777,-1.2950056764635285
0,-15.159450744249078,-18.24161220176915,-15.457447989860754,-11.371624694581719,-1.2900056545466825
0,-14.999314720706797,-13.311760219516106,-15.7165850514563,-9.661402949005343,-1.285005632629833
0,-6.499181614049455,-10.321910294700068,-7.485724395680239,-5.071183379715869,-1.280005610712987
0,-15.33905142695043,-13.662062432497509,-13.114866028289876,-10.730965988127663,-1.2750055887961373
0,-23.12892416087401,-24.51221663679102,-26.77400995380989,-19.640750774784557,-1.2700055668792913
0,-12.838799815832916,-14.292372909947444,-12.173156175281449,-6.39053773913875,-1.2650055449624453
0,-14.43867839018161,-16.39253125259523,-13.822304694022407,-9.620326879418693,-1.2600055230455958
0,-12.698559880719596,-17.272691663655973,-14.151455509751488,-9.280118192784943,-1.2550055011287498
0,-10.088444282895288,-13.622854140451674,-12.600608620801204,-9.209911675489437,-1.2500054792119002
0,0.12166840898160114,-3.863018678832017,-0.4597640242673331,2.8802926770348547,-1.2450054572950542
0,-2.6182217986197465,-5.703185273499635,-11.268921716276628,-5.749505130059192,-1.2400054353782046
0,-13.658114898765092,-10.143353918378802,-12.568081692194802,-12.049305091229812,-1.2350054134613586
0,-6.468010883993581,-5.513524606727743,1.0327560534114504,-0.999107200439691,-1.230005391544509
0,-6.887909746083618,-10.073697331076053,-11.426408473243782,-5.438911451031539,-1.225005369627663
0,-8.087811476011389,-6.833872083183278,-12.285575265256242,-7.278717835806299,-1.2200053477108135
0,-5.707716064029147,-5.434048854045653,-3.2947443149339235,-4.96852634706113,-1.2150053257939675
0,4.66237650022379,4.88577236597183,5.846084386180649,10.421663023368888,-1.2100053038771215
0,-7.897533772509737,-1.1644084131812957,-2.5230891530929114,-0.7681497162086681,-1.205005281960272
0,5.192553128691583,3.1554088184486537,1.7777350760572883,2.792035442300123,-1.200005260043426
0,-5.487362785134106,-2.124775929291446,2.158557082356097,0.8122185067207364,-1.1950052381265763
0,1.1127184971522919,0.9350373533744272,-1.9806231255507991,-0.11760051528710835,-1.1900052162097303
0,-5.08720301318405,-5.205151323760837,-3.569805539054778,-1.1874216161466058,-1.1850051942928808
0,4.662872695278756,4.134658049195553,9.121009850493424,8.062755211666424,-1.1800051723760347
0,-1.9070543659471082,-0.6155345177800983,5.6218230516518375,-0.9570700244731033,-1.1750051504591852
0,-4.566984185328327,-4.255729014700775,-8.937365927337968,-4.93689731740174,-1.1700051285423392
0,-3.6369167512113028,-2.695925431505747,-1.0665570784160001,-3.2767266599700973,-1.1650051066254896
0,-3.126852051649967,-1.0461237579171159,-0.9557503933564536,0.24344195520408063,-1.1600050847086436
0,-2.2067900743527824,-3.7263239834029123,-7.69494586364105,-4.656391464228591,-1.1550050627917976
0,-10.54673080668,-2.9965260971924015,-7.884143480400894,-11.726226910332073,-1.150005040874948
0,-2.3366742355415653,-5.156730088232354,2.526656765720484,-3.616064374678331,-1.145005018958102
0,-7.956620347284339,-15.466935945043446,-15.06254511540912,-12.935903848132483,-1.1400049970412525
0,-6.156569127668106,-9.107143655430022,-10.47174911334482,-8.435745320747145,-1.1350049751244065
0,0.24347943810747896,-0.10735320626532907,2.239044783136291,1.9044112182507786,-1.130004953207557
0,-4.486474634702995,0.19243541631956051,-4.900163414033485,-0.965434219760757,-1.1250049312907109
0,3.35356866943334,-3.2277777734713897,-9.039373692482453,-4.015281623141417,-1.1200049093738613
0,-1.1263906338299658,-0.817992761300007,0.15141396056826795,0.3748690198850211,-1.1150048874570153
0,1.2736474711655732,1.951790467294189,5.842199558294007,6.395017721205144,-1.1100048655401693
0,3.2236830000147405,4.491571926803843,5.192983113941207,6.955164492597605,-1.1050048436233197
0,0.5637159681905526,2.9213516315628953,1.6637646404572402,0.6053093454496297,-1.1000048217064737
0,2.7737463909938036,6.241129595589492,12.474544150340238,6.28545229068335,-1.0950047997896242
0,-3.276225716429217,2.0309058325093616,4.2853216555356815,1.5655933388278953,-1.0900047778727782
0,-3.6862003389650004,-4.429319644400666,-4.133902832618038,-4.1342674998872475,-1.0850047559559286
0,1.5238225386296462,4.170453177974728,8.236870696797606,5.475869784620878,-1.0800047340390826
0,-2.1061570682291273,-5.159775687244871,-2.772357745511823,0.9360052023706245,-1.075004712122233
0,-0.5861391440161878,-1.260006226863501,-2.101588148986705,0.9461387632431026,-1.070004690205387
0,3.3838763268494416,5.109761572428262,5.579179496875356,5.3462704769214024,-1.0650046682885375
0,-0.5061106400670001,-1.2604722760304217,3.9999452025110136,1.8364003528564976,-1.0600046463716915
0,-4.866100029254872,-3.6007077589726277,-6.5992910218362795,-3.1934715997498464,-1.0550046244548454
0,1.473908174845556,-1.6809448631041155,-1.8285291660203464,-1.4633453718123262,-1.0500046025379959
0,-0.34608601207031153,-1.9111835749467618,4.0822307802344575,2.4367790458145753,-1.0450045806211499
0,-5.006082574200234,-4.261423880793509,-7.207011172648642,-7.053098337619909,-1.0400045587043003
0,2.0839185043734925,3.758334233276475,-1.5762550141259584,-3.1429775127097526,-1.0350045367874543
0,8.523917239648203,6.3380907812662635,7.574499266513662,0.9971415302289408,-1.0300045148706047
0,1.0439136474552986,-3.0021542229790734,-4.944748319964706,-1.582741198862967,-1.0250044929537587
0,-8.15609225668133,-7.182400765794502,-10.82399776280409,-7.172625689879339,-1.0200044710369092
0,-2.9361004572794895,-1.0826488334013258,-0.14324905097758067,-7.442511932441375,-1.0150044491200632
0,0.5438890614316245,-1.0028984116913744,2.7774978269984785,-1.0323999156882278,-1.0100044272032171
0,-8.33612368444021,-10.813149486233392,-14.581757117072838,-9.202289628221777,-1.0050044052863676
0,-5.116138678451694,-5.733402042191284,-1.9210138710530358,-2.352181058142828,-1.0000043833695216
0,-0.5061559037225843,-3.1036560641444235,5.369727577675664,1.6779258069014613,-0.995004361452672
0,-8.546175342921867,-7.833911536070045,-8.35953275793981,-3.781969020437583,-0.990004339535826
0,-6.206196978278775,-5.524168441402254,-7.1387948647665125,-4.491865527337168,-0.9850043176189764
0,3.2237792084647197,4.035573236931718,3.3219412706687113,7.668236299199785,-0.9800042957021304
0,4.933753235895826,3.2053135162980917,2.582675662173502,5.898336472193666,-0.9750042737852809
0,-2.9862748774147043,-2.4549475859652587,-3.73659167638059,2.138435004360555,-0.9700042518684349
0,8.723694886902647,0.704789947353677,7.564139268790887,5.338531907957009,-0.9650042299515853
0,6.553662546934183,9.374526133379128,9.024868511286524,13.688627194757968,-0.9600042080347393
0,-0.3663718796670258,2.304260989008136,-2.384403935701287,2.7887208759049047,-0.9550041861178933
0,3.8335916243040593,6.433994530697377,9.12632194053107,7.288812961784007,-0.9500041642010437
0,4.473553075732465,4.923726774400319,12.077046152213097,10.1689034620743,-0.9450041422841977
0,1.7235124912126971,5.633457735568015,4.017768710924891,3.888992385766076,-0.9400041203673482
0,-1.6965301129468007,1.3631874291552495,-0.6915103724953078,-0.1709202588100754,-0.9350040984505021
0,6.913425279366418,6.022915869682343,9.099208912255211,7.139165536203166,-0.9300040765336526
0,2.2333786840756034,3.232643071286076,4.679926575083316,2.10924977832601,-0.9250040546168066
0,0.7733301168231446,-2.187630952249424,-3.8893573745346433,-6.860667525211244,-0.920004032699957
0,-1.106720407000274,-3.117906187340984,-0.8686429274106684,-3.9505863672370043,-0.915004010783111
0,0.053227127897943594,-3.058182620346359,2.3220699256232917,1.0494932596658857,-0.910003988866265
0,-3.466827263161785,-5.718460237366562,-8.187218806173798,-9.320428636755736,-0.9050039669494154
0,-1.3568835647461124,-3.488739024140975,-0.08650911338280454,-4.060352048403574,-0.9000039450325694
0,1.0030582387374294,-2.5190189660066267,0.724199013660799,-5.330276966709129,-0.8950039231157199
0,-5.1270018369783035,-4.109300047928608,-6.685094415167204,-3.69020338258274,-0.8900039011988738
0,-2.1370637760050655,-6.63958225451978,-7.23438938975832,-7.120131286451112,-0.8850038792820243
0,-5.157127562200187,-2.049865569986234,-1.3836858995925092,2.469939331706585,-0.8800038573651783
0,-3.0471931790798976,-4.470149978098997,-6.582983933653246,-3.859991517742932,-0.8750038354483287
0,5.542739390151784,6.669564537700848,0.7677165194985183,4.510076175739197,-0.8700038135314827
0,8.04267016235646,7.879277994015479,5.178415471570826,6.770142422664952,-0.8650037916146331
0,4.122599154078257,3.3789904071122088,2.0791129342726795,0.9702072332897493,-0.8600037696977871
0,-0.4274736186468741,-5.761298207211878,-11.260191080836217,-10.299729382425507,-0.8550037477809411
0,6.532451859807484,7.768412166577517,5.690503437836565,2.360332585488708,-0.8500037258640916
0,3.722375604752231,0.7481215439010471,5.7011965020389885,0.3903931472535127,-0.8450037039472456
0,1.3322976311461923,-3.1821700599833576,-0.8681118765604243,-6.869547686719007,-0.840003682030396
0,-4.287782046350321,-4.122462629896825,-8.80742168649678,-2.859489905841037,-0.83500366011355
0,4.912136586818047,3.8272438494673553,13.733267083683845,0.6905665007676556,-0.8300036381967004
0,2.532053545173209,-5.453050606420468,5.463954445376038,-2.5593784557444748,-0.8250036162798544
0,-7.528031156861643,-6.833345981935642,-11.735359590369399,-7.119324764037175,-0.8200035943630049
0,3.5118824951124212,-1.593642261146285,-1.9246750126844814,-2.0692724124901143,-0.8150035724461588
0,-6.268205484369618,-7.0739394276795,-6.30399181040393,-7.909221389066239,-0.8100035505293128
0,-5.428295080547483,-10.214237464670243,-16.673309971784644,-10.46917168120751,-0.8050035286124633
0,-9.368386278282196,-8.844536354611922,-10.482629484265068,-11.92912327564576,-0.8000035066956173
0,-5.30847906184494,-6.724836079186728,-3.3519503342335812,-4.179076158209293,-0.7950034847787677
0,-4.748573414836125,-8.915136619243778,-7.941272507121167,-2.92903031386785,-0.7900034628619217
0,-2.048669320273,-2.4954379548766603,-11.460595987616967,-3.7289857269903073,-0.7850034409450721
0,-0.9287667607573514,-2.2557400655614157,4.490079240277941,0.9410576184209434,-0.7800034190282261
0,-7.398865718600636,-8.33604293031887,-8.329246806864393,-5.668900261391915,-0.7750033971113766
0,-9.858966175761319,-9.976346527708817,-12.698574112028028,-4.60885934994628,-0.7700033751945305
0,6.600931886307459,7.233349164282409,9.812097342317134,14.751180369469637,-0.765003353277681
0,-0.07917151346188889,4.433044168046609,-1.207232425891275,4.32121891348293,-0.760003331360835
0,0.6107236439054091,-2.9072614940852732,-5.496563398650661,3.2012562982036643,-0.755003309443989
0,3.1606173772521062,4.652432199982963,2.0241044420448926,6.57129253913515,-0.7500032875271394
0,8.010509705234501,5.10212527215721,8.58477111427058,8.511327651256684,-0.7450032656102934
0,-1.7695993538048613,-4.098182255881983,-6.424563364001342,-1.5586383509943822,-0.7400032436934438
0,-6.6697097818134585,-7.158490362592738,-9.493898974913458,-7.958605453584694,-0.7350032217765978
0,-0.609821560722102,-2.128799026248643,3.846764299612691,-2.298573642463559,-0.7300031998597483
0,-3.649934672186494,-4.019108224716906,-0.34257352198531976,-0.3185429032454667,-0.7250031779429023
0,-3.980049097554051,-6.279417935451518,-6.7719124210903505,-1.278513221242104,-0.7200031560260527
0,-3.4501648178651294,-0.09972813551060233,2.798747621038995,-1.0684845816113837,-0.7150031341092067
0,3.08971818614282,2.949961198372276,7.029406623265921,7.89154303053514,-0.7100031121923571
0,-1.2204000660898955,2.11965008955983,0.20006460434565776,0.9915696299597723,-0.7050030902755111
0,1.9794804448895338,4.179338561270738,3.720721582722245,7.621595231099878,-0.7000030683586651
0,5.649359738442152,8.07902663642384,9.52137757649571,8.161619847935595,-0.6950030464418155
0,3.6292378337077293,4.708714337490612,1.8020326033395881,7.091643493854564,-0.6900030245249695
0,1.8991147494789589,-2.3915983135676466,-5.2873133195238395,0.12166618158123199,-0.68500300260812
0,13.67899050413687,10.768088704808978,15.923339824839,15.21168792324018,-0.680002980691274
0,-1.3611348844547067,-2.7122245861417373,0.40399205306302033,1.3917087303503264,-0.6750029587744244
0,-7.501261398920807,-6.132538165442548,-10.455356618627146,-2.4682713861900893,-0.6700029368575784
0,4.288610977974915,6.227147987846629,10.245293825815061,2.281747584141361,-0.6650029149407288
0,3.398482263567665,8.50683389468714,12.385943402386577,7.05176565173227,-0.6600028930238828
0,-2.521647524840515,1.036519575765013,-2.793407873322268,4.061782826742071,-0.6550028711070368
0,4.498221629903403,10.676205051251236,11.337240013638946,2.621799118917166,-0.6500028491901872
0,9.638089744767827,13.365890340692252,12.73788707760572,5.701814537571462,-0.6450028272733412
0,7.317956836317945,5.485575462808604,-0.8414666678134215,3.0118290916239956,-0.6400028053564917
0,5.167822920463168,7.245260435388919,6.7491787902452955,1.8718427896122392,-0.6350027834396457
0,8.987688012402895,11.7549452753825,13.619823464049752,12.391855639687806,-0.6300027615227961
0,-0.8124478733029816,2.3246299989589625,-2.5095326347521123,1.1518676495171167,-0.6250027396059501
0,-2.7525847225568087,-2.6456853783920673,-7.2388894950640434,1.3118788262139285,-0.6200027176891005
0,5.327277478553001,2.2639991584546855,4.611752894077748,1.15188917649782,-0.6150026957722545
0,-4.852861256096476,-3.9963163754380195,-4.627605456205024,-4.92810129306109,-0.610002673855405
0,-6.223000912594734,-5.866631964906812,-10.93696453458799,-7.508092575808033,-0.605002651938559
0,-3.1931414767960438,-4.486947594511113,-3.606324329357542,-5.76808466472625,-0.600002630021713
0,-2.4332829341490414,-2.657263248387216,3.664315171749089,1.8419224477174843,-0.5950026081048634
0,-4.233425269719525,-8.697578910222399,-4.215046018641963,-4.338071230538473,-0.5900025861880174
0,-9.873568468205507,-5.2478945632183756,-8.674407887729,-8.418065691279972,-0.5850025642711678
0,1.6962874861582988,2.701789809944303,2.986229577569488,0.4919390740577799,-0.5800025423543218
0,-0.33385739042332835,-1.618525773051035,-3.973133609316379,-5.168056925538918,-0.5750025204374722
0,-7.684003081486737,-6.238841294361872,-8.842497434678009,-9.338053680687677,-0.5700024985206262
0,-2.8341495703326554,0.25084326403024115,-2.251861884452401,-2.2780511815366964,-0.5650024766037767
0,0.19570316008444655,-1.1094720796047786,5.59877305584562,4.871950582255529,-0.5600024546869307
0,-5.034444872871353,-9.179787306761614,-11.750592599041983,-3.468048378725001,-0.5550024327700847
0,2.0954063483824057,-1.740102398628359,-2.5499588341670227,5.781951946091459,-0.5500024108532351
0,6.495256841534235,5.189582663978512,10.840674365721412,11.59195156708512,-0.5450023889363891
0,2.3151066241450895,-2.630732099573856,2.0113070159425943,9.111950494142029,-0.5400023670195395
0,-13.18504428645775,-9.20104666988976,-3.7080608684722773,-1.8680512636054225,-0.5350023451026935
0,1.184804127111358,0.8086389726259962,5.542570727242448,1.6019463023605263,-0.530002323185844
0,-6.06534811736829,-5.43167515204932,-3.4867981822412104,-7.1880567996618545,-0.5250023012689979
0,-7.875501001657941,-10.0719890235343,-11.45616758222072,-10.8280605612017,-0.5200022793521484
0,2.57434549293036,0.9276973790266323,-1.1455374576923993,0.11193502670961886,-0.5150022574353024
0,3.1441913854307524,-1.7426159230274192,2.45509220682954,-0.8980700263956138,-0.5100022355184528
0,1.6840366949252927,-0.5629289080671885,-4.854278572856956,-1.5980757106501422,-0.5050022136016068
0,1.0838814403188526,3.6767584456303797,3.3663502191517667,-1.9380820160400056,-0.5000021916847608
0,1.7437256403254704,-2.2335538402303134,4.756978598772455,-2.948088932406524,-0.4950021697679112
0,-4.84643068645345,-5.9838657439639436,-5.852393418177242,-8.378096449353105,-0.4900021478510652
0,-4.766587521369898,-6.814177243702502,-8.721765815910974,-10.578104556049983,-0.48500212593421566
0,1.2932551544604611,2.275511682824498,5.358861421615243,-4.268113240994261,-0.48000210401736965
0,-3.2769026398082866,-2.1347989417464017,-2.03051168924098,-6.538122491930969,-0.4750020821005201
0,-8.867060884789618,-1.3451090945994235,-5.949885131983697,-6.088132295944208,-0.4700020601836741
0,0.682780439231671,5.254581247146252,1.230741110017294,-1.698142639552402,-0.4650020382668245
0,0.24262135234876947,1.5742721063208607,0.3813670535932945,-2.6081535088091656,-0.4600020163499785
0,-12.277538125065458,-7.70603649438261,-12.948007284241625,-13.358164889373171,-0.4550019944331325
0,-2.797697972293771,-0.2263445322597364,-4.3773818861395295,-3.4781767663828744,-0.45000197251628293
0,2.772141831871055,2.793348015593813,0.3232432658081612,4.171810875644413,-0.4450019505994369
0,-9.438018690974413,-6.85695882775779,-9.086131809969354,-6.738201947401089,-0.44000192868258736
0,-11.728179518890569,-7.927265039084475,-9.47550709459053,-9.368215219394266,-0.43500190676574135
0,-4.668340629329702,-1.7175705947691222,0.9551174314021538,-2.9982289237979884,-0.4300018848488918
0,1.4814980010023469,1.4721245292780978,4.4257417879811385,-1.4882430435120864,-0.4250018629320458
0,-8.568663604071022,-3.8281796425681036,-13.873634004653066,-7.858257560973688,-0.4200018410151962
0,1.1511745796064474,2.591516914180496,4.886990073880558,4.381727541729302,-0.4150018190983502
0,5.261012576436197,3.2312142240441943,6.167614044200033,9.871712282683532,-0.41000179718150065
0,1.9708504108374127,3.3809123114332365,-3.7617620730715364,2.6116966797598913,-0.40500177526465464
0,-0.23931189298569477,1.520611200508681,-0.1711382574784307,-4.818319249624514,-0.40000175334780863
0,5.98052568893366,6.4803109151370695,6.679485511356244,6.4216645116631685,-0.39500173143095907
0,1.5103631803359971,0.5700114788661033,-1.0898907462865306,2.1916479806383284,-0.39000170951411306
0,2.320200604686356,-1.7502870850539365,1.0507329896776316,-0.45836882586724986,-0.3850016875972635
0,-4.709962014777302,2.509415246466446,4.5513567391578285,2.9816141087640253,-0.3800016656804175
0,-1.880124654849125,-1.2108815035261866,2.831980521882577,-4.298403198972363,-0.3750016437635679
0,-5.0902872921397915,-3.1311773119894726,-10.747395642608076,-7.658420732540771,-0.3700016218467219
0,1.969550097021036,-0.7914721558059109,2.023228265254289,2.9915615248499465,-0.36500159992987236
0,3.1293875364972363,7.888233988241666,9.603852265226225,8.351543590233552,-0.36000157801302635
0,-2.4807749498451064,-4.852058856679636,-3.3955236229778376,-1.748474519445621,-0.35500155609618034
0,0.9690626617833908,3.5576493324442175,5.235100620072316,2.5915072124523744,-0.3500015341793308
0,5.548900395117114,2.2973585785163504,2.685725013540912,5.401488802313647,-0.34500151226248477
0,1.1487382737544354,2.8770689043066193,-1.8636504236286537,-0.7585297337054202,-0.3400014903456352
0,2.858576321036902,5.266780332341927,1.0069743273409786,-1.9285483796680993,-0.3350014684287892
0,11.398414559984316,8.686492884785084,12.64759928509654,6.12143288025247,-0.33000144651193963
0,12.978253013093536,12.066206583237694,13.1382244678895,6.151414061752663,-0.3250014245950936
0,15.318091701959215,18.605921448431076,8.368849893124684,8.57139518015486,-0.32000140267824406
0,16.87793064693114,20.74563749983263,13.039475577129831,5.32137625017822,-0.31500138076139805
0,18.297769866891784,19.725354755258365,18.70010153509875,7.331357285867531,-0.3100013588445485
0,15.157609379117048,15.735073230663637,8.130727780960354,3.0713383006298636,-0.3050013369277025
0,24.417449199192387,29.674792940100964,23.01135432725353,11.73131930727637,-0.3000013150108565
0,35.017289340793496,37.744513895488865,34.701981184914,23.98130031786346,-0.2950012930940069
0,37.077129815145085,37.92423610600873,28.612608362705643,17.501281343209012,-0.2900012711771609
0,25.756970630446087,35.453959577505216,26.89323586665458,12.111262392450708,-0.28500124926031134
0,38.886811791675676,47.58368431218481,39.77386369985935,24.371243472987995,-0.28000122734346533
0,38.256653300576204,42.623410308387314,35.12449186234556,17.831224590503762,-0.27500120542661577
0,42.116495155428474,44.95313756030847,33.98512035079454,21.711205748822763,-0.27000118350976976
0,39.326337350747,41.14286605786714,40.2557491584,26.31118694976226,-0.2650011615929202
0,33.32617987717891,39.15259578677229,35.36637827482039,21.90116819298978,-0.2600011396760742
0,22.636022721726768,22.74232672878366,13.977007686256322,9.441149475983552,-0.2550011177592282
0,20.3758658682865,20.04205886227961,19.267637375971717,10.191130794357065,-0.2500010958423786
0,23.70570929823571,21.481792162984693,18.478267325031442,16.371112142337395,-0.2450010739255326
0,12.315552990801086,11.171526604508317,4.128897512766212,8.461093512965974,-0.24000105200868305
0,5.075396923378704,8.121262158726777,1.5895279171667571,2.021074898162272,-0.23500103009183704
0,4.925241072059835,10.030998796204804,6.300158515429212,9.161056288970862,-0.23000100817498748
0,1.1550854121791645,-0.7292635134327417,1.5207892843152218,0.33103767583184235,-0.22500098625814147
0,-10.515070081271425,-7.539524801129087,-9.608579799685439,-2.688980951241982,-0.2200009643412919
0,-3.9152254332127727,-1.409785097902497,0.4620512399291019,4.941000397550328,-0.2150009424244459
0,-5.365380668112154,-9.360044434448037,-1.1773176200674258,1.1309817119167476,-0.21000092050759633
0,-16.485535809813406,-19.220302840875988,-16.396686402565447,-9.179037018523383,-0.20500089859075032
0,-14.525690881315453,-15.890560346309929,-9.766055129905814,-8.159055804022847,-0.20000087667390432
0,-8.66584590445375,-16.250816978448803,-10.175423823505174,-7.889074654309887,-0.19500085475705475
0,-17.396000899782354,-22.401072763353863,-21.904792503635797,-17.489093578299606,-0.19000083284020874
0,-16.86615588655804,-19.001327725327684,-18.874161189211943,-12.729112583860896,-0.18500081092335918
0,-7.346310882647439,-12.661581886822102,-3.0735298975625693,-0.4991316776689835,-0.18000078900651317
0,-10.746465904580347,-12.231835268567867,-12.822898644578494,-2.5591508654324757,-0.1750007670896636
0,-14.896620967748978,-11.812087889863939,-15.192267445040812,-6.719170152322072,-0.1700007451728176
0,-14.17677608642263,-9.402339768793825,-5.691636312667736,-6.589189543121597,-0.16500072325596804
0,-11.646931273603638,-8.332590922354873,-2.961005260134812,-2.719209042126969,-0.16000070133912203
0,-9.287086541008318,-9.542841366577886,-9.54037429933179,-7.1492286531046005,-0.15500067942227247
0,-12.657241899188213,-10.423091116592282,-7.399743441531365,-4.559248379318239,-0.15000065750542646
0,-6.057397357640692,-6.123340186627901,-1.2191126973634356,-1.2792682235453552,-0.14500063558858045
0,-13.887552924871583,-10.803588590035709,-8.61848207685551,-4.9092881881451875,-0.1400006136717309
0,-8.867708608408524,-9.493836339310226,-9.397851589484652,-3.9893082751318847,-0.13500059175488488
0,-1.7278644148206697,-4.284083446081431,1.7327787558797363,2.130671513802828,-0.13000056983803532
0,-11.418020349866849,-12.794329921150206,-8.906591049059097,-2.649348822795443,-0.1250005479211893
0,-15.318176418570895,-17.304575774446487,-17.795961012054672,-9.969369286206641,-0.12000052600433975
0,-9.408332625012948,-16.254821014750835,-13.535331140004551,-8.419389877347509,-0.11500050408749374
0,-8.37848897214518,-9.015065649423077,-5.874701438584131,-3.3394105964938134,-0.11000048217064418
0,-17.48864546182284,-15.945309684413585,-13.24407191226323,-3.259431443253539,-0.10500046025379817
0,-7.398802094802002,-6.395553124414676,-5.093442564505569,-0.9194524167620713,-0.10000043833695216
0,-8.048958870709253,-10.10579597300067,-6.092813397904752,-6.729473515839843,-0.0950004164201026
0,-9.289115788171571,-13.306038232741983,-9.07218441430597,-6.55949473897011,-0.09000039450325659
0,-15.589272844914019,-15.426279905168927,-16.28155561480766,-10.959516084121626,-0.08500037258640702
0,-1.8394300376905217,-0.2465209906635802,3.759073000376506,4.050462451388158,-0.08000035066956102
0,-2.329587362351318,-6.516761488613537,-6.450298568166502,-3.7295591292331087,-0.07500032875271145
0,-5.609744814152415,-8.877001397727664,-9.359670319321916,-5.189580822496461,-0.07000030683586544
0,-4.649902387960193,-3.2772407161409367,-0.22904225150157329,-1.489602624673179,-0.06500028491901588
0,-0.5400600782514725,-0.4374794414212516,3.241585637343902,1.8003754682464728,-0.060000263002169874
0,-7.510217879123631,-10.88771757068414,-10.637786650474421,-10.499646539504166,-0.05500024108532031
0,-8.300375784273532,-10.627955100565298,-10.927159112375607,-3.419668643413151,-0.0500002191684743
0,-3.2605337868603144,-5.238192026981627,-0.49653174519876203,0.8503091614583513,-0.04500019725162829
0,-1.170691879467021,-5.908428345030135,-2.5659045451168123,5.740286880363154,-0.04000017533477873
0,-5.210850054249763,-9.398664049090584,-4.895277507861274,-4.339735481443212,-0.03500015341793272
0,-13.941008302979961,-13.048899132826223,-7.76465062882499,-8.429757918757641,-0.03000013150108316
0,-10.111166616789351,-14.019133588978026,-9.354023902910383,-10.07978042609701,-0.02500010958423715
0,-11.141324985852439,-13.119367409124365,-17.373397324267522,-11.519802997283803,-0.02000008766738759
0,-6.751483399290547,-9.0096005835819,-5.292770886031104,-6.079825625223061,-0.01500006575054158
0,-8.861641845268652,-6.589833101507925,-4.6821445802685755,-7.109848301910942,-0.010000043833692018
0,-13.211800311076066,-13.660064951082132,-15.63151839816481,-10.799871018540701,-0.005000021916846009
0,-4.891958783094536,-7.440296119566127,-3.510892330096823,-6.069893765527706,0.0
0,-3.322117246826945,-5.920526593289896,-1.9902663656266362,-1.0599165325284572,0.005000021916849562
0,-4.872275687111343,-10.640756357730309,-10.669640493665895,-5.599939308611461,0.010000043833695571
0,-5.442434088312877,-12.420985397548481,-14.009014702527502,-9.88996208239638,0.015000065750545133
0,0.4474075656216674,-7.731213696477984,-1.388388979715062,-0.06998484199441557,0.020000087667391142
0,-14.602750708838885,-18.381441237203333,-18.867763311800108,-13.150007574930688,0.025000109584240704
0,-5.732908894689278,-7.251668001267447,-11.547137684367382,-6.040030268095986,0.030000131501086713
0,2.016933025758717,4.528106030870948,7.083487918044763,4.839947092278871,0.035000153417936275
0,5.416775070673609,6.307880879364138,11.10411351154756,7.149924520342934,0.040000175334782284
0,-0.31338274175127945,-1.3723434356577706,-0.535260887877604,-9.796987853705197e-05,0.045000197251631846
0,0.166459606471983,0.907433105666773,0.245364735254326,1.0698796352909772,0.050000219168477855
0,1.2663021331865956,4.1472105230208545,10.415990396065503,5.639857349264005,0.055000241085323864
0,3.8361448561502236,7.336988835903579,1.4766161093511196,6.959835185190768,0.060000263002173426
0,9.905987792918577,7.876768063422542,3.977241889463489,5.929813155783799,0.06500028491901944
0,6.915830960591799,9.076548224063512,10.977867750282124,7.749791273166027,0.070000306835869
0,8.205674375588886,7.126329335556085,6.038493705137712,6.5797695488110985,0.075000328752715
0,0.9855180536056856,-0.7438885851068028,-5.79088023325799,1.7997479935515641,0.08000035066956457
0,5.245362009753707,1.0558944785498947,4.759745947407271,3.4297266176901857,0.08500037258641058
0,5.955206258702539,-0.8043214572212968,1.1903722593198787,1.7397054311624287,0.09000039450326014
0,1.2250508147035195,5.315463623755696,-1.1590012854253724,4.869684443622554,0.09500041642010615
0,2.864895691609703,5.795249737500403,5.611625325136414,4.769663664419174,0.10000043833695216
0,9.144740902926937,11.065036899642621,10.832252102751909,4.899643102513763,0.10500046025380172
0,-2.1954135382192526,4.104825125181871,-1.3371209412719929,-4.320377233528511,0.11000048217064773
0,-2.225567619047127,-0.5053855715572593,-2.476493796106029,-6.040397335325412,0.11500050408749729
0,2.4542786731039485,3.1644048232884394,3.9841335488659193,3.489582805640684,0.1200005260043433
0,-2.3658746490714435,-1.5558036766345211,-1.2352388957722478,-1.0704368018950672,0.12500054792119286
0,-5.546027572809529,1.1039889422234603,-4.9846111194533815,-5.630456149091197,0.13000056983803887
0,3.293819914808709,10.673782693302918,10.306016888411543,8.339524772970929,0.13500059175488843
0,1.1936678268601268,3.1935775897431835,2.2266451383346832,5.0695059731866365,0.140000613671738
0,-4.49648382355109,1.7133736441883056,-1.5927263594636185,0.8694874601613043,0.14500063558858045
0,1.6733649766885925,1.9631708688450487,0.5079024049705988,3.0594692421066703,0.15000065750543
0,5.8232142407316445,7.022969275624577,9.918531441459834,6.529451326914208,0.15500067942227957
0,6.263063981591597,0.6327688761301467,-4.650839240379966,-1.4605662778386037,0.16000070133912203
0,-5.577085788062569,-4.407430318338468,-1.4102096311763128,-5.590583564822863,0.1650007232559716
0,9.192764944137279,11.682371703348826,13.510420278321035,7.449399473256808,0.17000074517282115
0,6.252616190312884,8.342174952089666,8.53105049708571,4.009382843689907,0.17500076708967072
0,-3.7575320377814303,2.5319794382397784,-2.098318966534642,1.2893665535334071,0.18000078900651317
0,1.4323202712731735,6.851785171489203,8.602311895174488,4.819350609489787,0.18500081092336274
0,-1.9778268711982447,2.521592160978869,3.782943089481364,0.3793350179516365,0.1900008328402123
0,-5.207973453789748,-3.5885995845524286,-5.356425376719899,-4.360680214902943,0.19500085475706186
0,5.341880535059229,3.481209943425887,3.454206503239201,-0.20069508292741642,0.20000087667390432
0,10.481735106944932,8.851020753333552,14.494838735905551,11.099290420082713,0.20500089859075388
0,1.6515902731421235,1.0208328533135251,0.7054713274507367,1.4192763001641346,0.21000092050760344
0,0.5814460444006355,-4.799353748873075,-3.7138957165298754,-3.5807374370331373,0.2150009424244459
0,2.811302431090644,5.740460954342758,4.436737609223057,5.6592492138727515,0.22000096434129546
0,-5.128840556579999,-2.1897230294999432,-3.7126286900863854,-0.4707637418426244,0.22500098625814502
0,-4.8289829083760525,-0.05990569290738085,-9.431994609182071,-6.660776298979899,0.23000100817499458
0,-3.1291246138102315,0.899912971579546,1.4286398574828594,-4.50078845224889,0.23500103009183704
0,-4.809265662005725,-2.050267028568945,2.159274715816091,-2.390800196014988,0.2400010520086866
0,-2.9994060416871133,-4.370445685824083,-9.680090028068946,-5.890811524219949,0.24500107392553616
0,-5.199545741193149,-4.320622992471073,-6.789454367837842,-3.5908224304027536,0.2500010958423786
0,-4.739684748461094,-1.8907989404742374,1.451181703292618,-4.6108329076860075,0.2550011177592282
0,0.09017694897847928,1.8290264785136476,-0.9181818074532825,1.7591570511983492,0.26000113967607774
0,2.8400393638940042,4.4088532729693,1.6524551073319802,4.84914745373777,0.2650011615929273
0,7.039902509085381,7.658681451221164,8.003092455006932,7.619138307325177,0.27000118350976976
0,2.3997663970894876,0.5285110212137613,-3.396269757291467,-3.6008703810020553,0.2750012054266193
0,0.11963104005712633,-1.47165800951069,-6.135631522632751,-7.440878604480734,0.2800012273434689
0,7.439496449814581,4.308174366367213,3.7050071659592234,1.379113643741715,0.28500124926031845
0,0.5493626378977482,-0.12199184394310525,0.9556463156226731,-0.7608936291981377,0.2900012711771609
0,-3.2707703844399907,-5.002156633323636,-3.413714066471688,-3.550900415970645,0.29500129309401046
0,-0.920902606062039,-2.6523199946096896,3.6569260268197095,-2.730906709103655,0.30000131501086
0,9.458965984193688,5.3475180795545505,11.107566602562862,7.5790874990352055,0.3050013369277025
0,1.8388353973579261,-0.9126424033800464,-1.7117923324929547,1.4190822160759937,0.31000135884455204
0,-3.0112943558682814,-1.8528014360295053,-4.161150772004841,-2.4309225505597754,0.3150013807614016
0,7.138576734953969,8.867040988900639,8.46949129018893,7.399073206343845,0.32000140267825117
0,3.6784486800750082,1.6468848785362549,-0.9398661398240191,-2.4209305061545856,0.3250014245950936
0,-6.0216785105062804,-4.973269760279985,-8.949223056076264,-10.570933681092882,0.3300014465119432
0,8.488195173013992,3.1365770791318894,4.351420547444523,5.779063688636395,0.33500146842879275
0,-1.6419302596701573,1.2164254034555457,1.652064676932347,0.4890616103970621,0.3400014903456423
0,-4.95205479898015,-7.793724780610756,-5.527290661359841,-3.4109399083772365,0.34500151226248477
0,1.727821564662377,1.0061265337240082,-0.39664546115458976,-1.4909408602548049,0.35000153417933433
0,-1.782301159026149,-0.6640206465333574,1.5940002839611112,-0.2809412376885686,0.3550015560961839
0,-5.242422960186591,-7.8541663141664655,-10.485353419435981,-7.290941032945547,0.36000157801302635
0,-6.66254382873829,-6.124310461683255,-10.734706564463185,-5.4209402380149605,0.3650015999298759
0,-8.532663754162034,-7.014453081102877,-5.884059143593813,-3.6809388444493605,0.37000162184672547
0,-3.442782725327984,-5.474594163821139,-6.913411148478354,-1.6909368433240677,0.37500164376357503
0,-6.392900730477729,-7.334733700602889,-10.022762569997564,-5.630934225328024,0.3800016656804175
0,-1.4130177573144636,-2.9648716816081415,-0.022113398326740197,-5.870930980792943,0.38500168759726705
0,-2.323133793123465,-0.03500809648042841,-2.7214636230540354,-2.7809270996213815,0.3900017095141166
0,-6.923248824862912,-8.095142934493227,-9.350813233356984,-6.920922571244136,0.3950017314309662
0,-3.743362839141797,0.9447238153899387,-5.140162217993377,-5.140917384613284,0.40000175334780863
0,6.746524177799546,4.784592164467591,7.950489434763494,3.969088471776261,0.4050017752646582
0,5.976412239839189,3.9644621240607103,-0.8288582631156519,3.019095009688024,0.41000179718150775
0,-1.4736986393942149,0.6843337052410257,-5.528205299714912,-1.5708977591563114,0.4150018190983502
0,6.026191553367132,2.1942069187832294,8.242448336833736,6.139110176790322,0.4200018410151998
0,7.586082831065493,5.764081775222674,6.7231026583309585,7.7191188288381545,0.42500186293204933
0,-1.5940247937526115,-2.3060417151525896,-3.1462423237289863,-3.5808717920731046,0.4300018848488989
0,5.845868691047676,10.133836457671928,7.774413401765033,5.089138324630514,0.43500190676574135
0,8.775763297242225,11.243716303325805,10.245069845573454,10.93914918923789,0.4400019286825909
0,3.805659036149125,5.993597830779428,0.7557270179541451,8.499160811574153,0.4450019505994405
0,6.395555918501716,6.943481048171425,7.376384928557542,8.639173200703048,0.45000197251629004
0,20.335453954365327,20.083365962794485,22.8370435863907,20.88918636474296,0.4550019944331325
0,2.4653531529153554,-2.246747419001922,1.5877029995449077,4.269200310688442,0.46000201634998206
0,-3.164746477635174,0.7831409082422146,-3.8916368249221764,-1.1407849555881213,0.4650020382668316
0,3.415155070358729,3.4830309494975387,9.489024119425105,4.929230571066105,0.4700020601836741
0,-2.4649421955943627,-4.4370772904194355,-0.23031416124261572,-4.040753104480892,0.47500208210052364
0,-11.24503826792,-11.747183806645186,-11.169651660942932,-14.120735977355052,0.4800021040173732
0,1.2548668612485299,-2.4972885939423977,2.3110116263657643,1.8192819576850128,0.48500212593422276
0,2.99477320017915,1.3826083534945606,3.091675707005913,-1.2106992935720915,0.4900021478510652
0,-9.175319242634256,-12.027492958084885,-14.457659412498927,-11.56067972493582,0.4950021697679148
0,-6.175410458508177,-9.927592521995848,-8.506993725321626,-3.3306593298278817,0.5000021916847643
0,-0.10550043835367798,-2.907690330873524,-1.4163272239813611,-4.100638101123376,0.5050022136016068
0,-8.505589172596359,-7.447786376589548,-14.795659900227955,-6.950616031144497,0.5100022355184564
0,-11.545676651174665,-9.017880650358022,-11.15499174503649,-7.7205931116959965,0.5150022574353059
0,0.7642371366005833,2.0620268572170435,0.6656772515119989,-0.4705693340176532,0.5200022793521555
0,-3.5658477979488405,-4.648063843961683,-0.9136528998973074,0.4094553111359662,0.5250023012689979
0,-2.9259314430916867,-3.838152743665341,-6.2729821881813965,-6.710519166711295,0.5300023231858475
0,-1.6760137868330607,-0.43823983139433575,4.617689397952223,0.03950724217103985,0.5350023451026971
0,-0.9560948169425656,1.3816749035937863,4.1683618699056115,0.2995345477486998,0.5400023670195466
0,2.353825478973591,-1.098408527847653,-5.100964760999791,-4.23043723983461,0.5450023889363891
0,-0.8262528866498605,2.5215098851298614,0.9597095164491616,4.679591889668265,0.5500024108532386
0,9.093670098534275,14.001430153237111,18.87038471338436,24.439621946388765,0.5550024327700882
0,-3.5164055533482257,-6.358647713191115,-5.358939159426221,-0.8803470602012479,0.5600024546869307
0,-8.316479830361628,-9.488723704173461,-15.548262091670193,-16.050315121491714,0.5650024766037802
0,6.803447279502731,2.4712021903632704,5.382415927040545,-1.330282229065088,0.5700024985206298
0,7.133375788378783,4.221129980822696,6.833094907505099,-1.1502483740054963,0.5750025204374793
0,9.763305708142358,6.021059677648488,2.9437748605529213,3.3197864530555408,0.5800025423543218
0,11.76323704998456,6.6509912909406586,9.344455796599085,2.889822261560218,0.5850025642711714
0,15.553169824143446,7.330924830254649,11.97513772545125,4.809859060765917,0.5900025861880209
0,-1.0668959602259278,-1.0591396954411638,-4.514179343801491,-4.260103140340579,0.5950026081048705
0,9.013039705088287,5.420797722347652,4.126504597331635,1.2999356670570292,0.600002630021713
0,11.95297682759451,10.790737091737771,11.167189556989277,5.739975491729396,0.6050026519385625
0,-0.5570845858845297,0.4406784203633548,0.8478755429194298,0.44001634233162046,0.6100026738554121
0,2.1828554708246277,3.850621715304731,-1.6414374376213514,-2.3399417726930305,0.6150026957722545
0,-1.137202996476583,-0.14943301676240597,3.629250622312968,-1.5998988449983176,0.6200027176891041
0,-2.7472599820810615,-7.719485769328993,-2.0600602704358852,-4.089854866134351,0.6250027396059536
0,-1.0173154802168973,-5.139536535757663,-4.489370109046375,-5.489809827405502,0.6300027615228032
0,3.752630515004475,-1.1795853090163004,2.751321113392152,1.3502362802120034,0.6350027834396457
0,-5.767421990473767,-4.8796320816380305,2.272013403901727,-1.029716533974881,0.6400028053564952
0,-9.457472990605725,-12.619676845744884,-12.457293230453462,-11.589668260454216,0.6450028272733448
0,2.1724775209968135,-1.3497195929052044,0.05340121757069849,-0.9296188893880437,0.6500028491901944
0,6.042429551095638,6.5402396858927965,10.754096755534864,5.860431589488701,0.6550028711070368
0,-3.3576168934882906,-5.039799000081391,-6.385206608935907,-5.969516813342771,0.6600028930238864
0,-6.887661806026339,-3.169835641545402,-5.71450886834439,-7.819464087329109,0.6650029149407359
0,-0.9477051796539363,4.36012977086671,10.116189984855271,4.050589778329711,0.6700029368575784
0,-2.7777470071700407,-0.6499027533824442,-1.5831100417295838,1.0706447947239226,0.675002958774428
0,-6.237787281045286,-2.309933204852006,-5.862408940608035,-5.359299026970874,0.6800029806912775
0,-0.007825993431676392,0.7300384258877056,4.508293295671658,2.180758324447988,0.6850030026081271
0,0.5021368638170666,-0.5399878516744867,8.538996674591193,2.5308168602597583,0.6900030245249695
0,-2.4778987009808864,-2.6300120279869525,-1.3302987965801985,-0.649123408269729,0.6950030464418191
0,3.8120673205497724,4.739965906552962,5.1904068890414985,6.410937529989217,0.7000030683586687
0,5.462034936736451,-0.7700540384579567,5.561113737993287,7.030999685916202,0.7050030902755111
0,2.2720041556778248,-2.2200718534964494,-1.5381782435229878,2.081063069973168,0.7100031121923607
0,-0.42802501485749295,0.649912470939387,-0.8274690495845023,3.2911276921422803,0.7150031341092102
0,6.811947432628931,9.509898944349,8.803241325587168,9.251193561982967,0.7200031560260598
0,4.181921505371136,2.029887576022753,0.16395288758921656,5.811260688580369,0.7250031779429023
0,1.1118972102423046,5.279878374819654,1.9046656417110683,4.041329080422704,0.7300031998597518
0,6.831874553731179,1.7598713491499403,13.01537959290103,7.061398745399129,0.7350032217766014
0,3.8318535419525244,5.269866507048519,6.346094745624661,3.9314696908575177,0.7400032436934509
0,-8.218165819324081,-3.3701361437626454,-9.783188896270136,-7.598458076295477,0.7450032656102934
0,3.311816475537803,4.44986340422587,3.957528670718265,3.42161545067079,0.750003287527143
0,3.8118004322358896,4.4098651583722575,6.588247450078733,4.401690278515676,0.7550033094439925
0,4.331786056404698,3.879869125791345,-3.2910325547853145,7.881766413879519,0.760003331360835
0,1.341773353395119,1.2098753132469238,0.5896886593284537,2.111843862999875,0.7650033532776845
0,3.6717623282319116,4.539883727169655,3.68041109552152,6.801922631605757,0.7700033751945341
0,6.731752985631601,6.889894373672073,-0.5988652431721406,8.072002724915315,0.7750033971113837
0,-1.3182546700382938,-2.25009274150611,-7.868140353785097,-0.9179158523920283,0.7800034190282261
0,11.011739365211325,9.959922386999065,12.372585766695128,20.612166903786548,0.7850034409450757
0,-0.1582649050358703,-0.7000602357996891,5.383313121227036,4.822250996818209,0.7900034628619252
0,-13.44826747752153,-14.200040605137334,-17.99595828750993,-15.4176635707333,0.7950034847787748
0,-9.778268348854477,-15.48001871601181,-13.285228456766529,-13.477576796519152,0.8000035066956173
0,-13.24826751489704,-14.289994562482228,-11.344497382950502,-7.587488677495868,0.8050035286124668
0,-19.1082649703867,-16.919968137241018,-22.82376506116352,-15.867399209500114,0.8100035505293164
0,-14.268260708704933,-11.939939431510524,-10.923031485037079,-11.237308387214696,0.8150035724461588
0,-3.838254721782114,-6.299908435123602,-0.2822966467445669,-2.7572162041853576,0.8200035943630084
0,-4.778247000358807,-8.699875136771654,-6.181560537390647,-7.447122653002315,0.825003616279858
0,-12.418237534379788,-14.669839524220833,-17.23082314740936,-13.467027725521534,0.8300036381967075
0,-5.19822631310083,-4.099801584311312,-1.6600844665061836,-4.696931412834722,0.83500366011355
0,-7.378213325012711,-7.60976130295103,-8.22934448351381,-7.68683370518249,0.8400036820303995
0,-12.178198557831369,-9.729718665243334,-13.44860318646535,-9.186734592017268,0.8450037039472491
0,-4.668181998475573,-3.359673655566991,-6.277860562581641,-9.866634062030712,0.8500037258640987
0,-4.328163633068254,-8.089626257604149,-4.7271165982005074,-4.956532103092606,0.8550037477809411
0,-14.818143447024477,-17.79957645432546,-15.846371278841362,-15.37642870222745,0.8600037696977907
0,-8.978121424998132,-10.269524227769233,-12.475624589153858,-14.17632384552173,0.8650037916146402
0,-3.938097550725024,-3.4894695588345948,-0.5848765127484676,-3.4362175179534153,0.8700038135314827
0,-13.588071807047527,-11.279412427409348,-12.554127032274717,-12.916109703415584,0.8750038354483323
0,-13.308044175943067,-10.459352812556867,-13.53337612957191,-8.576000384870271,0.8800038573651818
0,-8.498014638366662,-5.599290692492382,-4.0826237855765655,-3.715889544406269,0.8850038792820314
0,-7.3779831741802315,-12.589226044539997,-10.08186998026067,-0.6957771633688392,0.8900039011988738
0,-11.667949762277841,-16.189158845090738,-23.111114692654535,-9.685663222604209,0.8950039231157234
0,-5.77791438067673,-8.349089069430793,-6.140357900638506,-4.745547702525622,0.900003945032573
0,-5.337877006563305,-5.489016691677512,-6.039599580791932,-2.185430583024165,0.9050039669494225
0,-8.877837616399846,-13.248941684958005,-11.048839708631574,-7.46531184347879,0.910003988866265
0,-1.2277961860182731,-0.9188640215687478,-0.15807825889278604,3.6248085371457117,0.9150040107831146
0,6.222247309231028,4.671216326856053,8.092684794231092,8.464930580099413,0.9200040326999641
0,12.122292894065936,8.86129938890422,12.883449476583248,11.20505430642085,0.9250040546168066
0,4.642340592737231,5.001385192849834,-1.9257841865195973,4.035179736499004,0.9300040765336561
0,5.172390428764641,2.8414737663956826,4.6949838295904165,6.785306889945892,0.9350040984505057
0,4.962442425008957,-0.29843486324932045,5.9057535491385025,5.1254357857051165,0.9400041203673553
0,0.6224966038304705,-2.528340669133523,0.8265249959979206,1.4055664421726761,0.9450041422841977
0,10.052552987177522,8.781756375614432,3.9572981936796623,4.3356988773069185,0.9500041642010473
0,6.0026115965424705,8.481856297682446,13.198073165315018,9.255833108686708,0.9550041861178968
0,-0.4973275471385348,-0.7980408767004502,-0.9111500664812898,-1.9740308465461953,0.9600042080347393
0,2.992735576596854,3.3420648781853766,0.9096285203391306,3.406107028325031,0.9650042299515889
0,6.772800987907673,8.862173587693512,9.210408947433564,5.666246749720004,0.9700042518684384
0,8.752868706601085,10.062285276746229,7.811191236096601,3.526388333766345,0.975004273785288
0,1.86293875194225,7.392399969575255,1.5719754070699246,2.0765317962150442,0.9800042957021304
0,8.773011142594921,17.742517689520668,11.872761480469194,9.286677152422582,0.98500431761898
0,14.213085896600013,18.34263845880997,17.833549475708935,8.546824417271088,0.9900043395358296
0,13.903163031148777,15.71276229823857,10.844339411183501,3.1569736050038757,0.9950043614526791
0,15.353242562256142,22.362889226936222,13.235131303992713,1.4971247292274692,1.0000043833695216
0,27.393324504489,28.463019262186123,24.19592516986417,13.1872778030515,1.0050044052863711
0,25.013408870608902,23.82315241912205,16.806721022977467,7.647432839034413,1.0100044272032207
0,27.25349567114308,28.92328871044143,19.94751887570972,3.9275898489870347,1.0150044491200632
0,39.40358491404119,35.543428146221785,35.508318738451976,18.117748843904707,1.0200044710369127
0,39.01367660428413,39.403570733624896,30.019120619262733,20.617909833805978,1.0250044929537623
0,28.933770743471296,33.323716476502604,22.329924523448437,11.918072827330787,1.0300045148706118
0,41.16386732969635,42.80386537515338,36.420730453467314,15.398237831516866,1.0350045367874543
0,42.76396635754327,47.524017426151026,38.61153840889234,25.528404851823648,1.0400045587043039
0,33.184067817906666,37.82417262206659,28.032348386128927,16.58857389200977,1.0450045806211534
0,35.71417169791512,40.174330951324144,34.20316037825842,14.208744953963318,1.050004602538003
0,43.48427798105845,44.46449239829944,38.53397437510829,21.868918037771866,1.0550046244548454
0,36.25438664717373,35.19465694339297,29.49479036322138,19.829093141791276,1.060004646371695
0,25.55449767239956,31.384824563124194,24.445608325861794,12.849270262570357,1.0650046682885446
0,29.784611029470064,30.704995230448457,30.776428243287192,18.34944939489012,1.070004690205387
0,26.94472668814903,26.395168915138417,25.4072500930051,13.60963053191627,1.0750047121222366
0,16.714844615511247,17.115345584119602,11.278073849936888,4.819813665349905,1.0800047340390861
0,14.414964776271392,12.475525201921771,10.918899486835828,6.129998785715257,1.0850047559559357
0,10.875087133279083,7.165707731272372,7.359726974927004,7.210185882724137,1.0900047778727782
0,0.9352116480156194,2.4058931336763685,0.15055628442678026,3.590374945466721,1.0950047997896277
0,-4.734661718881691,-1.5139186300803034,-3.218612615035714,1.950565962491948,1.1000048217064773
0,2.455466992938084,-1.373727599504734,3.292220245975577,8.740758921903993,1.1050048436233268
0,-12.404402256074402,-11.453533814048024,-11.836945163042003,-4.059046188583798,1.1100048655401693
0,-14.064269505060857,-12.27333731273494,-17.016108872242153,-6.4788493815082955,1.1150048874570189
0,-9.324134792341797,-8.393138133779301,-4.255270910966709,2.011349330662563,1.1200049093738684
0,-20.303998155085825,-16.572936314354074,-10.714431307498847,-6.448450064266471,1.1250049312907109
0,-25.9238596290511,-15.552731890458752,-13.913590089133749,-9.498247578166907,1.1300049532075604
0,-18.1237192481994,-14.892524896738838,-11.582747282159483,-8.658043222400103,1.13500497512441
0,-10.393577044489941,-13.352315366373093,-5.711902911751346,-3.3778370076042763,1.1400049970412596
0,-17.883433048102717,-15.582103331096608,-17.101057002014684,-6.937628943706381,1.145005018958102
0,-6.303287287765221,-10.241888821257684,-7.1402095760193465,-4.617419040044233,1.1500050408749516
0,-9.913139790974443,-10.661671865905141,-1.2893606558195394,-3.9272073054307937,1.1550050627918012
0,-8.952990584202274,-10.951452492926679,-12.16851026265151,-6.456993748186083,1.1600050847086436
0,-9.502839693020185,-14.241230729122684,-11.457658417060664,-9.486778376116865,1.1650051066254932
0,-2.762687142144908,-3.8310066002016887,5.443194861173414,4.673438803532284,1.1700051285423427
0,-13.06253295552051,-15.160780130834613,-15.535950447044844,-6.3163422160309315,1.1750051504591923
0,-23.812377156241403,-24.960551344618022,-24.37509436012953,-18.056121441235412,1.1800051723760347
0,-10.302219766156922,-9.890320263746245,-2.6942368953803406,-1.6058988778859113,1.1850051942928843
0,-8.062060805611639,-14.090086908783018,-11.923378068722457,-5.205674530931437,1.1900052162097339
0,-16.771900293616238,-21.229851298758064,-22.24251789486979,-10.655448404592493,1.1950052381265834
0,-13.521738247999897,-13.219613451196196,-14.771656387254277,-5.475220502457686,1.200005260043426
0,-8.021574685342353,-9.119373382065922,-1.96079355781748,1.8450091725323612,1.2050052819602755
0,-12.97140962099738,-12.179131105954003,-10.88992941723249,-0.8547593821115353,1.210005303877125
0,-11.691243069207312,-16.048886636268463,-10.729063975275755,-3.84452616870367,1.2150053257939675
0,-12.031075043104995,-5.818639985243567,-5.178197240895071,2.4657088105401512,1.220005347710817
0,-5.230905554706758,-4.5383911640059855,-2.7373292222263186,7.715945553446916,1.2250053696276666
0,-15.170734615005921,-14.238140182807731,-16.346459926722957,-7.623815942289054,1.2300053915445162
0,-9.710562234012105,-8.60788705109637,-4.535589361120711,1.5164243208845198,1.2350054134613586
0,-5.3503884207109795,-6.627631777403554,-3.6147175313280786,1.7466663405479632,1.2400054353782082
0,-13.590213183119264,-8.507374369358809,-15.42384444249101,-6.903089885635756,1.2450054572950577
0,-14.23003652831166,-16.817114833743858,-13.782970098953735,-8.802844359836163,1.2500054792119073
0,-8.39985846227961,-7.506853176360533,-4.692094504017561,-0.9925970838020122,1.2550055011287498
0,-9.499678989868622,-6.8865894019241525,-9.361217659911297,-2.7023480587623863,1.2600055230455993
0,-3.659498114934604,-4.4563235142195765,-6.930339567992632,-2.9620972855699548,1.2650055449624489
0,0.23068415939247464,-0.026055516386265853,3.6005397710678326,3.4481552351503417,1.2700055668792913
0,-5.389132169573863,-6.9557854111445865,-3.688579642956556,-5.991590497093934,1.275005588796141
0,-10.188947104188562,-8.925513200839603,-9.997697810046684,-6.861334482644924,1.2800056107129905
0,-7.208760646300758,-0.3952388873149807,-0.79681472984661,-0.5610767215213147,1.28500563262984
0,-4.598572797054275,-1.5749624718994033,3.4840695984314496,1.1491827866404523,1.2900056545466825
0,0.21161644306220112,0.33531604438877993,0.964955175779266,2.3494440423856457,1.295005676463532
0,0.7618070739556843,2.305596660630581,7.625842003071547,7.249707046171721,1.3000056983803816
0,5.341999095630261,8.095879375830146,12.886730080804016,9.16997179811326,1.3050057202972312
0,-4.5778074920172624,0.306164188709538,0.6476194088311311,2.960238297754588,1.3100057422140736
0,0.5123873108035333,-0.1335489023694249,-2.6714900136545383,1.5905065440324353,1.3150057641309232
0,1.2325835038952428,1.0767401007292552,5.399401812188303,1.3407765354609338,1.3200057860477727
0,0.512781087087979,-0.782968803931831,0.7902948850672238,2.281048270321765,1.3250058079646152
0,-11.047019939763427,-10.062675618247622,-10.668810796400152,-9.718678253205514,1.3300058298814648
0,-5.346819576554112,-1.1423803438576883,-0.5579152334769206,-1.258403036822707,1.3350058517983143
0,-0.2166178226643708,-2.9120829819762215,-0.9570184270694904,-0.7081260819052775,1.3400058737151639
0,-8.43641467695656,-13.19178353337454,-11.866120377713182,-7.367847389497887,1.3450058956320063
0,-0.0562101378816747,-2.401481998292574,-4.945221085510978,-3.9375669603261496,1.350005917548856
0,1.3139957964481597,-1.021178376345894,-2.5043205499694947,-2.157284794712564,1.3550059394657055
0,-2.7357968718851624,-6.3508726666598045,-10.233418769997158,-3.317000892579426,1.360005961382555
0,-5.695588140694193,-3.1905648680095253,-7.642515743922283,3.183284746432032,1.3650059832993975
0,-6.365378007545337,-8.280254978770502,1.1983885305705375,-4.776427877170189,1.370006005216247
0,-15.39516646948983,-18.85994299672439,-14.840705943598497,-16.49613876268386,1.3750060271330966
0,-15.014953522724621,-13.989628918689718,-17.26979916283799,-11.92584790881516,1.380006049049939
0,-3.7247391623063866,-10.21931274017173,-7.188891122532991,-8.505555313228495,1.3850060709667886
0,-0.7245233822343661,-5.688994455371956,-1.257981816900496,-4.715260972486096,1.3900060928836382
0,-2.904306175877208,-5.818674057488611,-8.647071239301088,-6.704964882292977,1.3950061148004878
0,-6.804087536282746,-3.368351539016382,-0.9661593825522581,-5.804667037703603,1.4000061367173302
0,7.066132543770059,6.9719731080033105,6.064753760904827,5.965632566744233,1.4050061586341798
0,3.616354071632227,5.9822998916219445,2.4856681987200053,5.715933936736645,1.4100061805510293
0,-9.133422945452638,-6.397371180352768,-10.933416061596393,-3.0837629221964424,1.4150062024678718
0,0.6068014997150224,-0.4370401003225239,-0.7324990124953799,1.2865419952234238,1.4200062243847213
0,-2.6829725854611546,-0.1567068606318962,-6.491580646069597,0.15684869417959205,1.425006246301571
0,-11.872745193261563,-11.896371453413916,-18.900660953859976,-14.062842820069555,1.4300062682184205
0,0.9474836844556016,-2.7460338704397174,1.9502600733623012,-3.342532541920986,1.435006290135263
0,-2.352285943681492,-3.2256941029530757,-1.2388175543608173,-1.9822204651763133,1.4400063120521125
0,-4.102054068691308,-5.6753521416936525,-8.737893826475823,-0.5119065831220679,1.445006333968962
0,2.4981793186274275,-1.0450079769992653,2.5730312678812166,5.238409111175191,1.4500063558858116
0,-2.691585772367102,0.13533840111929296,4.6439577398203875,1.8987266245971273,1.455006377802654
0,-5.751349332193236,-2.7443129971392337,-2.845114399517487,-2.730954036171056,1.4600063997195036
0,-7.3811113511217865,-7.493962161408671,-5.284185139069122,-6.060632864534539,1.4650064216363532
0,7.589128180970296,5.706390918928308,10.956745532265568,10.659690146205829,1.4700064435531957
0,-2.5906307255368746,-5.303253745277883,-3.4623223744244878,-2.399984997219587,1.4750064654700452
0,-4.150388060237244,-2.6928961430406413,-9.311388848164103,-10.449658288183315,1.4800064873868948
0,4.059856187306323,3.4074637367719207,8.489546122089099,3.4406702800405387,1.4850065093037443
0,4.2701020275746435,-1.832174094587341,5.840482547492819,4.051000714444625,1.4900065312205868
0,10.110349470851402,1.5281903741431473,2.6314204389842684,2.4113330220517506,1.4950065531374364
0,5.370598526911935,3.468557154166848,-2.36764019291254,-0.588332790338649,1.500006575054286
0,13.560849204820261,12.07892625649732,15.143300662001964,8.852003283825658,1.5050065969711355
0,0.9211015128359208,3.469297691680279,2.8942430135277846,2.792341250802382,1.510006618887978
0,-0.6486445414875441,7.849671469593867,3.085186870864049,-0.07731888354184989,1.5150066408048275
0,1.0216110490164731,2.04004759947084,5.066132242644098,-0.8769771136473349,1.520006662721677
0,-6.648131708551341,1.0704260900429077,-1.5329208628884374,-3.116633434032943,1.5250066846385195
0,-4.527872806927759,-0.5391930502676865,-2.851972437712766,-4.84628783909542,1.530006706555369
0,0.7823877614776934,1.3511901868295257,4.868977526145118,-2.0859403229649196,1.5350067284722186
0,3.502650004536347,4.911575809543461,5.939929036615684,4.164409120511893,1.5400067503890682
0,-0.8870860698381872,-7.16803617403579,-2.689117898598214,-5.955239502363416,1.5450067723059107
0,-2.836820453813167,-2.407645755837641,-2.51816327203127,-6.454886185176887,1.5500067942227602
0,-1.0765531395375416,1.112747072393864,1.5427929237581135,-2.444530921213613,1.5550068161396098
0,-3.7362841190074607,-0.13685768087851105,-9.036249303650065,-4.644173703315432,1.5600068380564593
0,-0.48601338401153904,-0.43646000712467464,-4.085289946409523,2.7361854760549367,1.5650068599733018
0,4.714259073824964,7.953940102140356,7.265671003689294,8.436546624585343,1.5700068818901514
0,2.144533262864254,-1.7356573447690349,0.4166335550363832,1.5369097497768116,1.575006903807001
0,0.82480919127334,-2.7552523397585538,-1.7624022840889075,-3.902725141229806,1.5800069257238434
0,-2.3849131329761133,-1.9848448747825387,3.4085634944481247,-4.212358041451285,1.585006947640693
0,2.7953662980173153,3.5255650583263023,5.299530898676348,5.498011056218576,1.5900069695575425
0,-3.434352507838089,-5.024022532169839,-6.519500063548314,-0.19161784100729135,1.595006991474392
0,6.275930457362403,0.6363923620456708,3.8314706154994846,2.6487552739981766,1.6000070133912345
0,1.0062152014362327,1.986809749372021,11.952442943467098,6.339130408157642,1.605007035308084
0,1.4865017320050158,1.317229638229469,4.523416927669995,1.4495075681049996,1.6100070572249336
0,3.016790056466811,1.3776520369402594,-3.0456074251583667,5.919886760108038,1.615007079141776
0,5.527080181995653,2.9280769536751,6.785369891269242,6.860267990025004,1.6200071010586257
0,3.947372115454396,3.048504396420099,4.78634888297328,6.390651263218127,1.6250071229754752
0,8.287665863275105,4.318934372912394,3.7473295556338924,14.581036584401607,1.6300071448923248
0,3.417961431369652,8.819366890539314,7.758311914471691,5.221423957466264,1.6350071668091672
0,3.768258825111635,-0.020198043776443148,-2.9407040357590706,0.4918133854427842,1.6400071887260168
0,-0.2914419505663166,1.6902395764320794,-3.439718290615436,-2.8077951292178547,1.6450072106428664
0,3.8388591089808917,4.400679757323735,1.6612691543152784,4.592598415741992,1.650007232559716
0,-2.090837991784263,0.3011225048334558,7.882258303506949,1.602994022516984,1.6550072544765584
0,-1.7505332484940381,-5.768432175278141,-3.0167508386989432,-2.5866083068236767,1.660007276393408
0,-5.8402266567174,-1.317984277230033,-5.845758268159163,-2.2862085702873465,1.6650072983102575
0,-0.10991821178944677,6.51246620492755,10.505236019255971,3.5241932341804314,1.6700073202271
0,-0.6696079087693867,-0.437080722824435,-0.463767972338163,-3.845402891291621,1.6750073421439495
0,-3.9492957425194826,-1.0166250546592264,-5.78277023900259,-11.824996944466438,1.680007364060799
0,-4.3289817077166735,-1.8061667848487561,0.6182292231358448,-4.244588922724603,1.6850073859776487
0,1.871334201217415,3.2642940923673462,1.3392304180852739,-2.674178822822835,1.690007407894491
0,-5.628348009891779,-5.535242417203128,-13.459766649975588,-11.123766640918667,1.6950074298113407
0,-5.998028334984266,-5.834776307650844,-6.978761976527016,-12.383352372550243,1.7000074517281902
0,1.6722932323224022,0.7056924272045989,2.3922444435623227,-3.8729360124333496,1.7050074736450398
0,-6.557383301245562,-4.5938362061171,-6.8967473840187665,-6.032517554413104,1.7100074955618823
0,1.7329420713067343,0.16663779916432916,-0.22573745324737676,0.8279030083178645,1.7150075174787318
0,-0.37673064283082475,-2.6528855499725243,-0.2747257578571954,0.3083256829350609,1.7200075393955814
0,-4.386401436345816,-7.792406246335453,-9.123712291358338,-6.141249523215917,1.7250075613124238
0,-6.176070301770252,-8.521924282369909,-9.04269704692559,-9.540822602576547,1.7300075832292734
0,2.344262768659064,2.478560350019389,-0.011680017172787605,-3.2103935471246086,1.735007605146123
0,1.054597782976296,-1.5109523406061351,0.8693388058359104,-1.329962348255446,1.7400076270629725
0,-3.3450652506980045,-5.970462345447896,-4.189640569683347,-4.989528996914603,1.745007648979815
0,-4.5747263241921505,-0.26996965551295904,-2.61861813537294,-0.8590934837361047,1.7500076708966645
0,-2.5543854291250945,4.180525738412257,5.122406117289401,1.2113442008938573,1.755007692813514
0,-1.6240425568016856,3.0410238455852,-1.5965678030966506,3.2117840667009316,1.7600077147303637
0,-1.9236976982503922,0.7115246750755513,-3.685539887967938,1.4222261233310345,1.7650077366472061
0,5.516649155662937,3.742028235701518,4.745489871248576,8.022670380204913,1.7700077585640557
0,0.7569980140589588,-4.287465463909425,-2.533478516830994,-0.2868831535877341,1.7750077804809052
0,-8.062651114055996,-11.14695641512971,-11.96244504353056,-7.9364344692492175,1.7800078023977477
0,3.3477017803503464,-1.6464446089893712,1.7885903001062387,-0.885983557976805,1.7850078243145973
0,4.32805670644458,-2.5059300359741967,6.449627523422272,4.264469589276045,1.7900078462314468
0,-4.061586326617569,-5.955412686115171,-4.249333364129048,-3.0350750183022495,1.7950078681482964
0,-2.8812273097548013,-4.4248925490715045,-0.3882923531949602,1.8153826284538777,1.8000078900651388
0,3.549133766185562,6.88563038585176,10.032750565513076,9.065842538622773,1.8050079119819884
0,2.489496910432363,-0.6638438704920386,4.553795401089869,6.466304721004462,1.810007933898838
0,-1.6801378678708365,-4.383315307314113,-2.1351578377987384,0.4767691838816358,1.8150079558156804
0,0.9002294402952411,4.897216086134535,6.235890857118739,5.927235935021239,1.82000797773253
0,2.790598843890258,1.407750320609603,3.986941493843733,10.607704981751237,1.8250079996493795
0,-7.18902964815782,-4.0317125932111,-3.3920059199025414,-0.9718236691202995,1.830008021566229
0,-6.698656026818382,-13.451172644613777,-15.390951376506635,-17.881350011187475,1.8350080434830716
0,-0.9082802827033456,-3.690629822451167,-2.5898948679759886,-4.900874037838072,1.8400080653999211
0,-7.267902405955192,-10.860084114839406,-16.70883638553252,-11.750395741656682,1.8450080873167707
0,-7.607522386253334,-4.449535509115812,-8.067775919452039,-6.0899151142842545,1.8500081092336202
0,-1.8171402127521799,1.7610160080482782,3.603286540931025,0.55056785344057,1.8550081311504627
0,1.6132441258886185,4.591570450360034,1.014351006905943,5.101053171173211,1.8600081530673123
0,-1.7963693587232155,-1.1278721684679835,-3.914582510072216,-1.7184591513450704,1.8650081749841618
0,4.0540193450710085,4.622688165092475,7.276486001426414,6.952030895464068,1.8700081969010043
0,-2.4455897511167883,-2.2767485356104826,1.9675565527394898,-0.6374766790514615,1.8750082188178538
0,-9.135196635673339,-6.606182257302168,-7.791370844972958,-5.016981865740732,1.8800082407347034
0,-5.164801296730147,-4.855612986540148,2.2597038194002597,-1.9664846554542843,1.885008262651553
0,0.23559627807424066,0.6349592905010045,5.000780557077281,2.304014961147813,1.8900082845683954
0,-4.744003898449476,-0.9244654120109985,-5.3681406207180675,-4.435483006425928,1.895008306485245
0,-2.9836018131842144,5.486112920215956,0.8529402971736886,0.8150214514304803,1.9000083284020945
0,2.866802547241313,5.166694301356807,2.594023321935662,1.2155283444135963,1.905008350318944
0,-1.6027908036385423,1.4972787452696854,-2.404891535228086,4.526037682227031,1.9100083722357866
0,-9.002381852198713,-5.242133734508275,-10.743804263072617,-8.773450525519639,1.9150083941526361
0,-1.0419705845818565,3.9184568754495075,5.807285149892841,1.937063730785212,1.9200084160694857
0,-3.831556986531191,1.849050588586953,0.5483767154497715,1.487580460899691,1.9250084379863281
0,-2.421141043415249,1.3296474182700657,-5.630529554535423,-2.1519003253258178,1.9300084599031777
0,2.3392772596626386,5.500247377667827,4.400566351817482,2.518621381948148,1.9350084818200273
0,2.1396979377171257,2.920850479680302,3.8416644464157743,-0.2608544074682714,1.9400085037368768
0,2.1301210056945368,-2.328543263094089,-9.967235258893375,-6.090327683770105,1.9450085256537193
0,-2.6994535216144544,4.8920661617212895,0.623867247763099,-3.229798437023005,1.9500085475705689
0,-3.2690256294777393,3.632678766342169,5.454971978453109,-3.329266656980376,1.9550085694874184
0,-0.018595303050011724,2.053294562743479,-1.6139210546812666,-3.258732333026752,1.960008591404268
0,5.461837472653705,-3.216086437367569,-1.782811839602096,-5.318195454197578,1.9650086133211104
0,3.262272712562194,1.1445357775940537,6.41829963565568,-0.18765600917780312,1.97000863523796
0,-1.2572895686468302,-2.784838780752308,1.369413382963231,-1.9371139863422817,1.9750086571548096
0,-0.03684935651680027,-2.2242101006815433,-3.92947058599868,-2.6165693738464797,1.980008679071652
0,7.933593363294758,4.2464218296529035,5.111647740320196,4.173977840300241,1.9850087009885016
0,6.354038604910334,-2.3429429778493542,1.282768373408138,5.604527668096472,1.9900087229053511
0,-7.915513617935217,-2.9823045112974866,-5.65610867534214,-3.644919878650293,1.9950087448222007
0,2.104936708247771,-0.7216627587279875,-4.504983394520383,-2.1943647883209447,2.000008766739043
0,0.9353895969782657,0.09898229197975206,-0.6538557724584403,-2.81380704925455,2.0050087886558927
0,-6.604154938130451,-2.3503693469283387,-1.2227257971700598,-1.6932466495765686,2.0100088105727423
0,-2.733696883324612,-4.519717663089776,-7.061593456428751,-3.462683577171722,2.015008832489592
0,4.596763775393565,3.6209373560341986,5.29954126222054,8.97788218024874,2.0200088544064343
0,2.367227052150748,-6.318404276845952,2.2006783713813163,0.8584506349344718,2.025008876323284
0,-0.4023070390429925,1.4022574511177845,1.0918178835830887,-0.23097820111771064,2.0300088982401334
0,4.008161515626385,3.902922552885598,7.33295981111767,3.7095956838433333,2.035008920156976
0,9.588632729745655,7.893591041355244,7.604104165926211,7.080172301367855,2.0400089420738254
0,2.789106616500257,-1.395737070897578,0.31525095945500436,0.08075166269838963,2.045008963990675
0,0.8295831885572158,3.2949382283249466,3.076400202660508,1.721333778717344,2.0500089859075246
0,11.400062458134121,12.785616950897458,19.337551906065716,15.11191865997519,2.055009007824367
0,6.080544436977316,11.176299108180816,5.538706079522395,10.902506316480187,2.0600090297412166
0,4.421029136204603,9.696984710665872,6.469862731924733,11.093096757313033,2.065009051658066
0,10.351516566258333,12.487673767791605,12.051021871244577,12.003689990434488,2.0700090735749086
0,14.352006736862403,10.788366287923083,14.842183504580179,14.014286022664994,2.075009095491758
0,2.382499656853812,2.579062278386389,-3.726652361939628,4.54488485968104,2.0800091174086077
0,6.242995334170401,9.829761745627987,11.554514276958647,7.065486506133615,2.0850091393254573
0,6.943493776055974,2.6904646954055953,7.4256834259237445,10.326090965858404,2.0900091612422997
0,4.633994989183778,1.281171132915818,-0.9231449109927744,2.056698241972998,2.0950091831591493
0,-0.7355010203014938,-0.34811893702687835,0.37802926975116136,2.5273083369526246,2.100009205075999
0,7.905005753338044,9.882594490167897,16.83920597136811,13.647921252758298,2.1050092269928484
0,-2.944484684462314,-3.076688581166105,-6.639614803335446,-1.9414630091748721,2.110009248909691
0,-2.9439723284768697,-5.975968146944267,-4.638433051981501,-3.7208444479143727,2.1150092708265404
0,5.956542826475115,5.1247557969062765,6.302751227712277,6.119776937248856,2.12000929274339
0,-0.9829392144334255,-2.2945167454194513,-2.376061961882007,0.9004011469693229,2.1250093146602325
0,-3.502418446112519,-2.1137857696805296,-10.094872618349596,-1.7089718182309164,2.130009336577082
0,2.428105136507168,7.626948728364253,10.116319260869666,6.001658042015823,2.1350093584939316
0,0.05863153855122819,3.737686752849647,0.6975136784739019,1.8522907279232526,2.140009380410781
0,-4.350839234827287,-5.681571692359237,-10.801289362899531,-5.0570737604925515,2.1450094023276236
0,-3.7803071783863493,0.009173396431687242,3.0099101394214642,-2.3164354232815585,2.150009424244473
0,3.1402277133320036,2.479922022971266,4.3911121883248665,0.28420573966405666,2.1550094461613227
0,1.7007654459423167,0.6806741910588163,-4.617683213232038,-3.93515027133438,2.1600094680781723
0,0.09130602502118326,2.801429904404242,-4.446476062319326,-4.4845034557556165,2.1650094899950147
0,3.55184945600566,4.792189166534347,9.104733644088476,7.216146187137784,2.1700095119118643
0,1.8723957441712207,2.9729519807074047,2.025945909031196,-0.9632013418287186,2.175009533828714
0,-3.1970551053754184,-7.816281650090726,-5.512839264663552,-4.502546041909092,2.1800095557455563
0,6.38349691235629,5.994488277037429,9.108378125642579,-0.3018879123591879,2.185009577662406
0,5.144051802219412,5.055261764996418,5.379598082429285,4.368773047689924,2.1900095995792555
0,-8.38539043117375,-8.293961183428456,-9.06917939210975,-6.990563160830151,2.195009621496105
0,4.755170216640608,5.316819434434694,4.622045704026532,6.140103463020365,2.2000096434129475
0,9.935733750091783,14.037603621185996,14.183273372785798,15.550772920087702,2.205009665329797
0,5.936300173330471,5.718391379026091,1.9045036157773731,6.721445210717807,2.2100096872466466
0,-1.3131305100570545,2.7991827094075252,-2.2642635659971413,-0.1878796655807622,2.215009709163496
0,9.137441703004225,7.339977613086672,10.416971828012716,10.312798289980602,2.2200097310803386
0,-3.711983184767799,-1.449223909676468,0.45820979805000767,2.9534790756699576,2.225009752997188
0,-6.1714051708651345,1.101578141034894,-7.340549655944544,-4.155837310704408,2.2300097749140377
0,6.0691757472545635,2.802383764951566,3.4506934658700548,0.36484912840698086,2.23500979683088
0,7.199759572202297,12.263192961611116,10.451939163381429,8.30553839051122,2.2400098187477298
0,-2.8796536936177395,1.8840057301211177,-4.146812563702779,-0.6037695270132615,2.2450098406645793
0,1.0609359518893973,6.234822068982187,4.9444382839752,1.7969253729287054,2.250009862581429
0,6.2815285106473215,5.285641976126413,6.79569170548699,7.007623087163537,2.2550098844982713
0,-1.4678760155770838,4.636465448980766,2.1369476995825933,3.2983236122252793,2.260009906415121
0,0.8627223747762294,4.137292484477621,1.6882062646066405,7.619026944225318,2.2650099283319705
0,7.093323683097079,5.298123079080295,11.509467398518401,6.759733078746175,2.270009950248813
0,-3.26607208941161,-5.871042771137168,-3.019268901139601,-4.729557989166619,2.2750099721656625
0,-12.215464941664093,-10.900205070214282,-15.858002637129317,-12.48884626472894,2.280009994082512
0,-1.004854872329849,-1.5793638218549,-4.476733811979587,-2.73813175287412,2.2850100159993616
0,-2.3042418795570967,1.8714809707729483,-1.2754624275197335,3.252585542041614,2.290010037916204
0,-10.62362596101935,-9.70767069512647,-15.184188484887306,-10.31669438392138,2.2950100598330536
0,-7.063007113905341,-5.056818822044981,-10.162911984536454,-11.745971534356107,2.300010081749903
0,2.9476146652004265,-1.7959634120220596,-0.27163292605894707,-4.085245912230375,2.3050101036667527
0,-0.16176061982634193,-0.9151044666377575,0.32964869170706956,-4.524517519724434,2.310010125583595
0,-7.671132964930542,-6.52424198716247,-9.119067129679838,-11.443786358340638,2.3150101475004448
0,2.9194976340890726,-0.42337597459706955,7.992219611569356,-3.213052428946724,2.3200101694172943
0,3.4401311816081446,-0.35250642965854784,2.6435089173592354,-1.8423157317680356,2.3250101913341368
0,-0.6592323179964318,-0.7516333528708623,-6.425199210502238,-6.14157626652401,2.3300102132509863
0,-4.908592860451883,-3.9407567446527425,-4.773904770257946,-10.340834032506239,2.335010235167836
0,-1.3779504414350112,-0.009876605288029916,-1.5926077599023896,-0.6000890284622585,2.3400102570846855
0,-3.4573050563934773,-2.4589929348812967,-6.531308177037246,-2.399341252571709,2.345010279001528
0,-2.746656700500275,-2.068105733363545,-4.600006018863485,-5.31859070261244,2.3500103009183775
0,2.853994631311019,5.732784999463789,5.291298717804357,8.112162623883238,2.355010322835227
0,2.244648944216364,-1.4463207361961856,-3.5473939636189837,-1.1270812705515019,2.3600103447520766
0,4.495306243293462,2.734577059734209,1.3239159403177414,1.5736776164823119,2.365010366668919
0,15.115966533283753,10.805478387126023,17.705228432955128,13.244439287140622,2.3700103885857686
0,8.746629818271039,6.066383245450723,8.36654351715722,7.935203743129126,2.375010410502618
0,8.717296101397812,11.207291633511396,8.12786119487739,11.2759709853764,2.3800104324194606
0,13.137965384799237,11.268203549268033,16.639181467025125,13.806741013830367,2.38501045433631
0,0.8686376696619011,-0.5008810102135983,6.67050433345548,3.247513827397162,2.3900104762531598
0,-0.6006870435906732,-3.3399620485564463,-6.728170206954728,-6.341710575884762,2.3950104981700093
0,-3.4700087549038012,-4.33903956960031,-6.3868421558239294,-4.700932198317393,2.400010520086852
0,-2.389327464203122,-6.148113576976139,0.7944884853616931,-2.7401510420031205,2.4050105420037013
0,-3.1586431712005907,-3.9871840738980984,-3.304178284526389,-6.599367108630973,2.410010563920551
0,-5.767955875320887,-2.796251063115618,-2.9328424663508006,-4.298580399449925,2.4150105858374005
0,2.2027344243331766,-1.5453145469788228,4.648495939208683,-2.0277909152555935,2.420010607754243
0,-1.1365722710856825,-4.014374527539174,-1.2501630684500937,-3.336998656439355,2.4250106296710925
0,-7.365875960273279,-6.9334310065591325,-6.708819489936555,-7.886203623044442,2.430010651587942
0,0.3948233582748973,-2.4624839854162452,-1.1274733257392415,-2.6654058147083908,2.4350106735047845
0,-7.144474313619763,-0.9315334650619689,0.763875423922878,-1.4646052306132293,2.440010695421634
0,-12.103768973716116,-7.340579446096905,-8.854773240921272,-3.363801869575043,2.4450107173384836
0,-3.103060619163155,-1.8196219287959772,1.696580680002658,-3.272995730141734,2.450010739255333
0,-1.5723492464111108,2.0213390869040135,3.5879371872177255,3.307813189373235,2.4550107611721756
0,-4.401634851393593,-3.70769639870963,-4.760703718662271,-2.4613751091989444,2.460010783089025
0,-2.4509174297151666,-4.556728385216459,-7.839342036978817,-1.8905606239760928,2.4650108050058748
0,2.469803023281912,9.244243127956192,8.642022233141637,9.140256646943536,2.4700108269227243
0,4.47052651237452,3.4452181413790575,5.703389092707363,3.6510767053257944,2.475010848839567
0,1.1812530422197844,0.7761966553303388,-2.4552414574923573,1.16189955256755,2.4800108707564164
0,13.00198261715818,7.197178669701946,9.68613058296071,10.422725189629666,2.485010892673266
0,5.1727152410152515,2.228164184028871,8.907505214093572,9.073553616976868,2.4900109145901084
0,3.393450916938681,1.8191531974776611,3.758882435364124,6.034384834384885,2.495010936506958
0,6.694189647440332,8.530145708857429,13.800262245508701,12.255218840815639,2.5000109584238075
0,3.804931434516632,2.641141716588738,6.461644642475069,8.35605563437679,2.505010980340657
0,-13.924323720202683,-13.477858781259325,-13.276970376515735,-12.32310478760224,2.5100110022574995
0,-7.543575815025245,-10.786855786539194,-10.615582814449269,-8.272262428081975,2.515011024174349
0,2.4171751522853167,-4.0158493004399896,-1.4141926738007689,-0.6914172896453534,2.5200110460911986
0,-2.092070815489175,-3.304839323326924,-4.432799956311831,-2.4605693742919197,2.525011068008041
0,-3.8313137153125245,0.3961741450043924,-5.401404663192768,-4.149718683634539,2.5300110899248907
0,5.989446455971961,2.90719110501518,4.659993204710937,1.7411347809616597,2.53501111184174
0,4.860209701521354,3.428211557165533,5.461393646720301,4.271991018278766,2.54001113375859
0,-8.14902397568839,-4.300764498237775,-4.937203337958065,-4.007149972928326,2.5450111556754322
0,-4.2582545727570915,-5.429737060948197,-4.005797750252785,-4.646288193951965,2.550011177592282
0,5.75251791342682,-1.668706130521125,4.925610408993487,4.734576354031422,2.5550111995091314
0,-0.20670651383952438,-5.607671706154986,-0.2029788609467047,-3.7845563300054144,2.560011221425981
0,-6.355927851271832,-8.83663378663842,-7.211565560804462,-9.753686246973649,2.5650112433428234
0,-1.0551460955314484,-6.725592370225445,1.7298503087660597,-4.612813397467589,2.570011265259673
0,-5.514361243018281,-5.584547454502665,-10.01873125263234,-9.25193778149332,2.5750112871765225
0,-12.14357328972929,-13.00349903634663,-13.717310244955193,-7.8310593983547925,2.580011309093365
0,-4.902782231070059,-1.7524471118850176,-2.2558866674430935,-6.550178246615783,2.5850113310102145
0,1.8580119382461018,0.908608323443735,-1.674460518536423,-0.31929432413903913,2.590011352927064
0,-10.61119077596622,-11.280332725337718,-17.363031796051885,-9.71840762823424,2.5950113748439136
0,0.469609632488375,0.09072974715622695,0.888399502810687,-1.6875181557450845,2.600011396760756
0,2.6304131701501814,1.1417957467024873,-0.8501666184761438,-1.8266259030605803,2.6050114186776057
0,-1.8587801562633395,-5.837134720648526,-6.7487301559771575,-3.795730866201789,2.6100114405944552
0,-8.10797033998307,-11.096061648611647,-12.257291105403128,-7.534833040884518,2.615011462511305
0,0.8128426259537807,-0.5649850304434249,7.23415053805113,0.866067577547138,2.6200114844281472
0,1.6436587488053163,0.10609514115324085,1.325594779624126,5.716970994071813,2.625011506344997
0,-6.8055219639895395,-2.322821126186502,-4.422958375375952,0.9078772136985126,2.6300115282618464
0,1.175300495135831,0.2782661753047816,8.718491078264078,0.538786241226714,2.635011550178689
0,0.8761261339181509,2.679357053457104,8.9899431455753,2.859698081247757,2.6400115720955384
0,-6.313045039776294,-5.919548483883011,-7.018602168806141,-4.5693872617654785,2.645011594012388
0,2.0877869820408446,3.0315495711661846,0.6228551394093986,1.8715302166367065,2.6500116159292375
0,7.558622207462964,4.692651226533434,10.89431507441431,5.222450520920574,2.65501163784608
0,-2.400539355513662,-4.5962435099219325,-6.3842223597318695,-0.08662634454873558,2.6600116597629295
0,-5.139697699091674,-0.3151346304356982,-3.8527571591613996,-6.965700375570076,2.665011681679779
0,10.141147184480761,10.91597787273258,15.618710679956756,10.20522843202984,2.6700117035966286
0,-1.5780046970819366,-0.2929059928457182,-3.6498188386748485,-2.523839917584237,2.675011725513471
0,-5.417153336224239,-0.3017862199535399,-8.98834571164798,-8.342905420337786,2.6800117474303207
0,0.7837012745781801,4.829337198351096,1.973130064428948,-1.401968072058548,2.6850117693471702
0,3.204559142985874,6.380464268805358,4.424608493194854,2.7389721317472064,2.6900117912640127
0,-3.8945797232822708,-0.5884050021725007,-4.993910421620126,-0.4000848042211844,2.6950118131808622
0,0.26628468348285295,1.1927293914936568,1.7075733236709905,1.2808611247223967,2.700011835097712
0,-2.4628476289418035,0.9038674556825306,-0.0609402672236784,-0.24819007680921945,2.7050118570145614
0,-5.111976652622468,-2.7949908038006233,-6.919451190520108,-3.9572384042267577,2.710011878931404
0,-1.9811023793816849,-3.3438453811204387,-3.5179594422531606,-1.83628385285295,2.7150119008482534
0,2.3597751992368394,-1.0326962702809572,0.6335349818676973,0.8146735821718002,2.720011922765103
0,-2.1693439081427424,2.9984565349052765,-1.2049679135773543,-1.1243660941408087,2.7250119446819454
0,-1.4284596928417181,-2.9803869592928844,-3.2134681238551197,0.656597123283332,2.730011966598795
0,3.1224278538681944,9.960773253341237,9.14803435584086,7.097563239491562,2.7350119885156445
0,-1.7966812592591181,3.031937178805517,-0.3504604697612766,1.4385322593479921,2.740012010432494
0,-10.335787023429141,-3.1968951772662986,-7.458952596127595,-2.730495812570007,2.7450120323493366
0,-3.324889429577238,-1.8957238094857827,3.352557981246219,0.8104790281470192,2.750012054266186
0,2.316011531830518,-1.084548712429954,3.9140712669845383,3.071456785891739,2.7550120761830357
0,0.886915870650357,2.7866301194626395,-1.5944127343124241,1.3424374650017894,2.7600120980998852
0,-1.4321764032152207,0.7878126917857239,-2.762894018168266,0.6434210696630538,2.7650121200167277
0,2.4487347200877503,4.208999010024559,10.038627419842207,3.174407603897503,2.7700121419335773
0,0.019649250370230714,-1.7798109205171757,-1.8898484159728106,-1.0946029284182845,2.775012163850427
0,-5.8394328025818085,-4.968617094652448,-7.548321521502819,-7.383610523476002,2.7800121857672693
0,-0.9385114288863298,-4.007419507090782,-0.1167918926115514,-1.4526151773198908,2.785012207684119
0,10.942413381493303,6.493781847715497,7.244740475056956,4.638383114289907,2.7900122296009684
0,0.4433416385005875,-3.5550130245443428,-6.013724414082214,-9.690615644221053,2.795012251517818
0,3.844273351703658,1.7261958817857956,-3.7421865556598206,-5.759611448245367,2.8000122734346604
0,5.805208530264582,5.277408572283729,9.36935405477099,3.4613957071934616,2.80501229535151
0,0.4261471829837874,-1.8213749476057912,-6.509102578292346,-7.1175941725508665,2.8100123172683595
0,-9.502910681599207,-3.2501546725874157,-8.447556450357242,-9.586581081820189,2.815012339185209
0,-3.031965054875463,4.971069402610824,7.573992443261631,4.114434985462865,2.8200123611020516
0,-4.461015927833345,-3.2277027167096373,-2.4644558925107356,-6.914545964179915,2.825012383018901
0,-3.210063290993941,-2.296471025246178,-4.972901452689552,-3.013523923913717,2.8300124049357507
0,0.8308928654897194,0.4247644823740185,5.498655767754056,5.907501113344634,2.835012426852593
0,-7.158147448267675,-1.4839961883457045,-2.0297842260767323,-4.401470845185449,2.8400124487694427
0,-4.097184221877219,-6.772753031764275,-8.208221429044173,-10.180439792215608,2.8450124706862923
0,-5.196217444557832,-3.6915060419953276,-6.206655835802245,-5.729405720139548,2.850012492603142
0,7.924752894868686,7.2297447871740195,9.884912559401803,6.991631379189227,2.8550125145199843
0,8.285726807670322,5.700999462055046,6.506483762478917,10.732671514165517,2.860012536436834
0,-0.5232956952213781,-0.8177420113079823,-1.7619422209669244,3.123714692849816,2.8650125583536834
0,-0.8523146033211199,-1.416479627204171,2.5396346142545267,2.874760922681732,2.870012580270533
0,4.338670093619814,2.6347866199431094,-1.0887857268756014,-0.8041897893823197,2.8750126021873754
0,-9.110341594206453,-4.383943264290144,-6.7672032393981585,-5.923137436576742,2.880012624104225
0,3.690650343456941,9.447330725664296,6.444382081760208,0.9579179879428187,2.8850126460210745
0,2.851645916991884,4.23860859522376,6.685970241733581,4.13897649119071,2.890012667937917
0,2.5626451367559593,2.309890349433717,0.6675612454253178,-0.01996191980532003,2.8950126898547666
0,5.443648012872578,-0.7588240070701914,4.439155097335204,0.5911027618409472,2.900012711771616
0,5.804654555111763,6.142465530083692,11.65075180155776,5.722170542860574,2.9050127336884657
0,1.0356647728171235,-4.576241034909206,-1.5476486383061325,-4.276758570174932,2.910012755605308
0,3.7366786749243532,1.6850563020281288,-2.0560462191426816,-2.5356845707978377,2.9150127775221577
0,6.837696270023914,8.306357544902987,6.405559061918538,8.265392547484339,2.9200127994390073
0,-1.0712824336505848,1.287662697525062,-0.5728327923630658,0.08647279112412358,2.925012821355857
0,0.18974257181209336,-0.8110282366388761,-4.321221779361913,-2.1424438336290144,2.9300128432726993
0,8.85077129411482,5.540284745604463,5.00039210349973,5.2686426793053815,2.935012865189549
0,-0.4081962592751731,1.5816016472513936,0.5620088588072625,2.2097323358918355,2.9400128871063984
0,-2.277160081188329,-6.757077528889614,-7.9463715108934565,-5.259174858067645,2.945012909023241
0,5.153879835367295,1.7842472199559483,-2.3147490029644167,-0.3280788968370454,2.9500129309400904
0,4.814923497268074,6.165575896656043,9.186876385478358,12.633020225357047,2.95501295285694
0,-0.7740290888526017,-0.6930914959774492,0.00850465737019901,3.5141225140855257,2.9600129747737896
0,-0.9629779166239363,-2.521754955327926,-2.2798641845709464,-4.72477202555896,2.965012996690632
0,1.5880770202181202,4.139585521121567,6.811769862176952,3.916336611173476,2.9700130186074816
0,-0.20086427207521845,-0.5290700641379799,1.573406799987768,1.917448428935687,2.975013040524331
0,-7.009801787234805,-4.937721708658353,-10.494953368932432,-3.3814365676948572,2.9800130624411736
0,8.381264481102706,8.883630590008929,9.536689357610305,7.409681625759787,2.985013084358023
0,5.112334539316485,5.904986834227937,6.488334981841771,5.240803013618198,2.9900131062748727
0,-2.966591606454669,-6.573652973942165,-10.100016494210909,-7.418072400083338,2.9950131281917223
0,3.744486049629127,1.2277111673085979,-0.8283650686750661,-0.2569446114778078,3.0000131501085647
0,-0.06443248675012431,-1.810920740186623,-1.0267107394989512,-0.4758136165906999,3.0050131720254143
0,-3.633347209982497,-6.549548694431122,-8.545053504316774,-4.784679411248714,3.010013193942264
0,-3.0822581144213697,-4.078172693167871,-5.133393360404378,-7.593541991046997,3.0150132158591134
0,5.748834805731239,3.223207266215848,6.0782696953925655,2.0675986487796605,3.020013237775956
0,12.679931556257575,10.004591186512851,7.159935666438957,8.568742513290537,3.0250132596928054
0,5.371032142485756,8.205979070243654,0.06160455587924403,3.059889607456283,3.030013281609655
0,7.592136568982282,8.277370919259674,5.783276366443621,5.881039935820201,3.0350133035264975
0,14.643244839499648,17.45876673454136,12.224951100432866,12.722193502371635,3.040013325443347
0,13.424356956866893,21.01016651595292,9.156628759538528,10.923350310382373,3.0450133473601966
0,17.225472922728517,19.711570261837604,20.118309344518252,10.02451036217037,3.050013369277046
0,29.436592737237333,25.412977968661075,27.349992854806363,17.08567365896097,3.0550133911938886
0,24.797716398632954,22.734389630793473,18.981679288023084,14.736840200763984,3.060013413110738
0,21.52884390284368,25.565805240359655,13.553368639698906,12.67800998621845,3.0650134350275877
0,35.68997524332843,37.117224787066604,37.045060903327276,27.769183012470183,3.0700134569444373
0,41.34111041085622,47.43864825778622,37.926756070144506,28.160359274891295,3.0750134788612797
0,35.45224939299413,36.22007563589781,32.54845412846642,18.261538766644172,3.0800135007781293
0,38.54339217370107,44.16150690083756,42.700155063185896,23.88272147851894,3.085013522694979
0,45.594538733200736,47.56294202797221,47.42185885552982,29.243907399024256,3.0900135446118213
0,37.04568904785786,42.56438098846708,33.853565482780134,22.775096514329356,3.095013566528671
0,44.82684309004222,45.30582374914189,37.3252749181974,27.24628880812191,3.1000135884455204
0,45.548000828056395,45.317270272455055,43.31698713121772,32.19748426154066,3.10501361036237
0,37.92916222604582,34.72872051656904,26.818702087582842,21.4986828530814,3.1100136322792125
0,22.48032724411419,23.100174435642153,17.490419749577107,11.11988455867037,3.115013654196062
0,26.981495838885994,27.741631980453217,31.452140076606277,22.871089352088468,3.1200136761129116
0,22.29266796417086,26.003093098981736,20.003863025631908,15.32229720534066,3.125013698029761
0,8.843843571417647,7.454557736741094,3.5855885513693018,3.8335080887982924,3.1300137199466036
0,10.33502261018867,15.106025837205356,12.817316606764669,10.544721971490791,3.135013741863453
0,5.376205028731692,8.047497342357323,9.259047143586264,8.785938821484866,3.1400137637803027
0,-1.9026092255535172,-2.411027806893427,-6.459219887260871,-7.712841393891588,3.145013785697145
0,-3.4914202057015187,-1.4695496702765682,0.9325154646075453,2.438381292261238,3.1500138076139947
0,-3.5702279647643067,-2.248068307672474,1.2142531494780455,3.1296068467684357,3.1550138295308443
0,-14.019032555480706,-8.646583778790449,-7.0340068822824335,-1.6091647635663393,3.160013851447694
0,-25.907834029863174,-20.875096142869694,-18.122264680053544,-14.437933571938823,3.1650138733645363
0,-12.366632438597732,-6.883605458219629,-0.5505202925478341,-1.4666996112166522,3.170013895281386
0,-18.595427830646642,-18.082111781885132,-15.508773767544998,-12.50546291360804,3.1750139171982354
0,-23.96422025320527,-23.850615169513034,-25.557025151786554,-18.57422351048858,3.180013939115078
0,-15.493009751652941,-20.529115675089276,-18.305274490590353,-17.07298143209722,3.1850139610319275
0,-20.201796369465356,-23.18761335060515,-18.863521827398902,-16.661736707163747,3.190013982948777
0,-17.33058014825773,-22.826108245907363,-24.341767203661565,-14.210489362773489,3.1950140048656266
0,-22.819361127823427,-25.524600408639387,-24.740010658794066,-17.149239424423925,3.200014026782469
0,-20.11813934605823,-26.3130898841395,-17.958252230040127,-11.567986916095585,3.2050140486993186
0,-17.05691483888542,-23.051576715335248,-23.306491952453243,-13.446731860331662,3.210014070616168
0,-18.85568764030213,-27.35006094270461,-25.074729858959664,-18.07547427831103,3.2150140925330177
0,-17.55445778248756,-14.618542604332436,-10.152965980374006,-10.73421418982976,3.22001411444986
0,-17.293225295861408,-17.457021736120566,-13.81120034558705,-11.542951613294061,3.2250141363667097
0,-18.68199020910432,-19.465498372086987,-19.86943298190838,-13.791686565830965,3.2300141582835593
0,-9.40075254921075,-15.023972544523787,-8.937663915205155,-6.6004190633982995,3.2350141802004018
0,-15.899512341638872,-18.93244428401701,-18.245893169891517,-7.909149120894897,3.2400142021172513
0,-22.288269610420574,-20.350913619438366,-23.794120768898754,-13.857876752295253,3.245014224034101
0,-11.037024378054175,-10.929380577921677,-8.552346733520617,-2.9366019706849493,3.2500142459509505
0,-13.155776665430547,-12.057845184965176,-9.800571083415774,-5.385324788306303,3.255014267867793
0,-14.924526491986663,-18.0563074646537,-18.12879383689038,-16.724045216675687,3.2600142897846425
0,-13.863273875826575,-18.154767439690957,-16.047015011000607,-10.592763266485143,3.265014311701492
0,-11.672018833712894,-10.403225131255644,-5.415234621425781,-5.601478947374834,3.2700143336183416
0,-12.910761381095506,-13.171680559016714,-15.153452682533736,-8.050192267972342,3.275014355535184
0,-11.899501532182672,-10.09013374132875,-19.261669207507147,-8.49890323609322,3.2800143774520336
0,-14.848239299961971,-6.908584695413537,-9.439884208219317,-8.387611858799886,3.285014399368883
0,-10.146974696177766,-11.287033437503352,-9.568097695149312,-9.956318142349424,3.2900144212857256
0,-17.80570773130806,-24.045479982830848,-24.66630967748698,-18.455022092081634,3.295014443202575
0,-13.224438414511804,-18.79392434528675,-13.744520163041255,-10.99372371220043,3.3000144651194248
0,-7.083166753595431,-8.252366537058537,-2.142729158082144,-5.79242300563883,3.3050144870362743
0,-9.781892755154205,-14.420806568704348,-12.240936667591166,-9.031119974222381,3.3100145089531168
0,-13.990616424771275,-13.869244449440863,-13.269142695608924,-10.109814618903442,3.3150145308699663
0,-0.9393377670728971,-1.3676801872967905,4.912652754701499,4.861493060120187,3.320014552786816
0,-3.938056785845963,-2.266113789345667,2.1544496808391846,1.0428030631503176,3.3250145747036655
0,-9.706773484288053,-9.264545262073742,-10.733751919465513,-8.285884609362451,3.330014596620508
0,1.244512134884133,0.47702538845578085,-3.2619520483183733,3.8254300431159525,3.3350146185373575
0,3.3758000693591894,1.5485981565606897,-0.040150707435656796,4.466747021246981,3.340014640454207
0,-11.452909682971889,-8.969826963202449,-10.788347898099797,-6.521933674321344,3.3450146623710495
0,-2.7916171240166716,-0.11824997606964094,0.5334563788125464,0.5193879570088189,3.350014684287899
0,9.48967774465604,10.41332911294962,17.375262122720702,13.290711915847966,3.3550147062047486
0,4.860974921576935,7.3149102987610695,10.7670693327994,12.3620382025202,3.360014728121598
0,6.9822744049071135,8.586493575717233,8.778878007324808,17.463366816483962,3.3650147500384406
0,6.893576192203816,7.308078937396672,13.080688143460614,9.484697755936168,3.37001477195529
0,-1.8451197195634608,0.2396663766436642,0.0024997373632700826,-1.8839689821655317,3.3750147938721398
0,2.0261866661558994,5.701255885741132,1.8743127844204008,0.14736659833447063,3.380014815788982
0,6.077495345683248,5.802847456558827,9.896127279541972,7.1687044932760555,3.385014837705832
0,4.768806315091758,1.024441080560616,7.807943217200631,8.080044698258032,3.3900148596226813
0,-7.8598804298736935,-3.2539632511473693,-10.200239408665478,-5.908612791535466,3.395014881539531
0,-2.7085648935949616,-3.6023655475709755,-2.7984206043906408,-0.4572679812442745,3.4000149034563734
0,2.1127529197331754,-0.3307658175679109,8.673399623828105,8.934079123923894,3.405014925373223
0,5.194073006094267,2.8408359301995847,1.1252212698791038,3.8854285186315103,3.4100149472900725
0,0.8253953613768634,-2.2775603128665334,1.1870443274293088,0.1267801971664007,3.415014969206922
0,7.75671998117773,9.004045444562585,13.22886878980108,9.75813415339722,3.4200149911237645
0,5.688046860700371,2.435653193597784,6.300694649832764,9.679490380742426,3.425015013040614
0,-0.29062400532339905,-2.2627370749864038,-1.2774781003022913,4.060848871976837,3.4300150349574636
0,9.930707377383122,8.70887462929213,12.264350530966384,7.262209619140145,3.435015056874306
0,13.982041002594494,15.7004882965767,16.906180534620432,16.183572613553228,3.4400150787911556
0,10.033376863293524,6.7921039163086485,7.688011900727686,8.41493784566847,3.445015100708005
0,9.48471495140998,8.653721476939701,6.979844618217603,6.7063053048999,3.4500151226248548
0,12.796055257797404,12.015340965954174,15.621678674987798,11.48767497968245,3.4550151445416972
0,6.917397772279644,2.7069623699501246,5.393514057977107,7.389046857577993,3.460015166458547
0,-2.7112575162309254,-2.3014143252171833,-6.854649246752362,-5.699579074631034,3.4650151883753963
0,5.6800893805875265,3.600210865897267,7.63718874636182,4.741797169357207,3.470015210292246
0,0.9214384507657183,-1.768162071393128,2.4490280227051855,1.2531755756797498,3.4750152322090884
0,-10.377210317808794,-11.006533151757154,-13.94913143245654,-13.24544386955563,3.480015254125938
0,0.19414306284792382,3.725097610372801,7.1627103662049,0.7859388199501803,3.4850152760427875
0,-0.11450141896244126,-2.1332697990899647,4.374553404220441,1.0973236308947356,3.49001529795963
0,-4.943143774665163,0.028364605961930356,-7.333602332878302,-0.9012894497592918,3.4950153198764795
0,2.158215984484361,-2.0599991882976285,1.9082431403584148,2.760099564977253,3.500015341793329
0,7.299577847315862,3.9616388043592137,10.150089809389565,4.021490662003309,3.5050153637101786
0,1.5409418025141157,-0.9267214298427362,-2.0380623404784255,0.5928838280307097,3.510015385627021
0,-3.577692161540827,-5.875079904715279,-9.906213324201602,-2.265720950438008,3.5150154075438707
0,5.143675943339644,2.6565633660066768,9.015636843265861,6.985676312975919,3.52001542946072
0,4.86504610523787,-0.8617916312580796,2.9474881470820673,1.2070756045176738,3.5250154513775698
0,-1.0435816879858721,-4.330144909991826,-6.260659427704399,-1.121523089793791,3.5300154732944122
0,-5.782207448692066,-5.878496483533061,-4.10880589613412,-3.2601197840926677,3.535015495211262
0,0.19916881078686732,-1.5968463649043065,0.7230487269499206,1.8912855075236326,3.5400155171281114
0,-2.4494529216643235,-1.2851945667560698,-1.2350955730209068,3.2626927710309013,3.545015539044954
0,-1.0980726579550562,-4.333541101453273,0.6167611895230217,-5.745898007622439,3.5500155609618034
0,4.223309590126503,0.778114018861572,3.088619000170112,3.715513157484024,3.555015582878653
0,-9.265306189155996,-11.78022921770197,-6.089522155526474,-7.743073747653812,3.5600156047955025
0,-6.423920007386589,-6.788570822621213,-10.317662291922609,-7.901658736818948,3.565015626712345
0,-5.292531875718405,-4.626910806742193,-3.485801422958089,-5.4502418233415035,3.5700156486291945
0,-2.7911418047241536,-4.205249180242588,-0.8439395619767787,-0.47882301996133325,3.575015670546044
0,-15.0297498044108,-17.603585952684398,-18.462076721773613,-13.567402338885472,3.5800156924628936
0,-4.8183558841202805,-6.681921132852592,-4.630212914487053,-4.6359797917639245,3.585015714379736
0,-5.956960052391283,-11.630254728525166,-6.868348151385246,-6.914555389551267,3.5900157362965857
0,-9.735562316999658,-12.35858674642317,-11.276482442876102,-11.683129142459881,3.595015758213435
0,-13.504162684974984,-14.81691719218166,-15.274615798524332,-11.541701059899431,3.6000157801302777
0,-3.572761162466663,-6.805246070258389,-4.792748226885869,-6.050271150338087,3.6050158020471272
0,-7.901357754722064,-12.543573383955753,-14.490879735437016,-3.8588394213251735,3.610015823963977
0,-3.8799524662540454,-9.861899135526,-7.969010330637505,-5.827405879707266,3.6150158458808264
0,1.0714546989704683,0.2397766737312722,3.9528599819619976,0.08402946816900747,3.620015867797669
0,-5.047136262655,-4.758545956753062,-5.905268802575971,-5.384533383668569,3.6250158897145184
0,-4.115725354485506,-3.896867027100927,-8.963396688852734,-7.043094440855887,3.630015911631368
0,0.7856874204012376,2.754813462872,1.6284763189065952,2.5583462913572346,3.6350159335482104
0,-4.362897940798218,0.7464955135352774,5.160350216852917,0.1697888080455057,3.64001595546506
0,1.9285185593093108,0.7781791252584943,-1.6977749987832849,4.801233104361167,3.6450159773819095
0,-0.3000630817629032,1.1798642983148029,7.904100668048233,1.0226791753076316,3.650015999298759
0,1.3013571335291314,0.06155103288465279,4.615977213103354,-0.9258729843260249,3.6550160212156015
0,-4.687220797283654,-2.5467606709040083,-2.16214536824019,-0.7444233798788893,3.660016043132451
0,-0.7457968766031855,-1.7350708128863344,-5.070267080871536,-5.212972016660615,3.6650160650493007
0,3.265628893307982,3.836620607205674,4.891612070332112,-0.7915188998055308,3.6700160869661502
0,-0.5729434897552508,0.278313589669923,-0.5165079194128677,-0.24006403421304745,3.6750161088829927
0,-2.0815140280437316,-1.3599918652764715,-9.404627054861965,-2.938607424598406,3.6800161307998422
0,-4.230082723786195,-1.5982957574667331,-2.322745340596908,-3.1971490755260787,3.685016152716692
0,0.7913504209570514,2.5234019133092445,0.0791372191825582,3.664311008613017,3.6900161746335343
0,-5.527214595651194,-6.364898852671576,-6.888979379365804,-3.704227176448893,3.695016196550384
0,-3.5657777752051696,-1.183198055014837,-1.6170951397957776,-2.472763634912356,3.7000162184672334
0,4.175660880970918,2.6885043068669434,9.644789934582962,6.898701629105668,3.705016240384083
0,1.6771013717006396,1.7602082336680538,-0.8533241595418839,3.1401686114594662,3.7100162623009254
0,0.2085436957338204,0.05191372600877796,-3.681437425710953,-0.6983626922381376,3.715016284217775
0,6.069987851636647,7.613620784339454,12.960450132352259,7.323107713330462,3.7200163061346245
0,-7.998566162197486,-3.274670591116371,-5.9376614892588115,-4.205420176762944,3.725016328051474
0,-13.787118347333442,-10.582960400281062,-15.935772294587638,-13.593946367530922,3.7300163499683165
0,-1.3156687048494662,0.8287513571096417,-2.423882287351213,-7.002470863632717,3.735016371885166
0,1.8457827648586933,4.100464681694858,6.948008529398118,-4.290993668976726,3.7400163938020157
0,1.7072360617723081,2.232179574247534,3.9199001529273603,9.100485213190332,3.745016415718858
0,-1.671308814110175,6.693896035340007,7.691792580264016,6.621965779769747,3.7500164376357077
0,-1.1198518628421397,3.4456140651742624,1.7636858079394966,-0.5765519726802082,3.7550164595525573
0,-8.758393084387977,-1.562666336446053,-5.304420167943738,0.6849319519712003,3.760016481469407
0,-0.8969324784222665,1.1390548300115606,-0.9025253514248304,2.096417549629715,3.7650165033862493
0,2.6145299557437385,5.53077756395026,1.1193702535765881,3.5979048160767775,3.770016525303099
0,5.375994218955333,0.7925018646094327,4.5712666432375855,4.659393746888135,3.7750165472199484
0,-8.562539688041412,-8.535772268959104,-10.976836186296724,-8.729115662607445,3.780016569136798
0,3.818928235430349,8.075955162284366,9.645061761139335,9.792376582801076,3.7850165910536404
0,3.3403979900999943,3.9576841574178805,7.736960481712137,2.603870478254129,3.79001661297049
0,2.651869576635739,2.369414715316566,1.8988599712750585,-2.044633981332562,3.7950166348873395
0,1.0933429954716027,2.9911468344903196,3.4107602251639264,-0.4431368012709973,3.800016656804182
0,4.084818246788695,4.002880513119857,8.80266123826139,4.138362013063881,3.8050166787210316
0,-5.513704669422565,-4.695384250874101,-9.685436994923272,-3.3101375437332186,3.810016700637881
0,-2.402225753214915,-1.5936474596802368,-6.083534480024276,-3.83863547709164,3.8150167225547307
0,1.6692549955024751,4.638090884578986,3.4283687775709395,1.7228682076652109,3.820016744471573
0,2.6307375769609553,0.11983077981594142,-4.039727227180644,-3.9656264946083795,3.8250167663884227
0,-3.627778008618919,0.19157222383661932,-7.707822499094061,-4.564119588883001,3.8300167883052723
0,2.703708238933017,1.6733152143245782,-3.005917042677383,-1.7126110798813552,3.8350168102221147
0,6.765196319738358,5.555059748850719,10.015989137932518,10.808899027902445,3.8400168321389643
0,-1.0233137662664151,-1.4631941752070112,-2.84210396130568,-1.6795892700807307,3.845016854055814
0,-4.981822019380301,3.1485534393010877,1.7398036553795528,-8.758075978611243,3.8500168759726634
0,9.259671560018647,9.320302589299057,8.881711983541383,6.923438897510362,3.855016897889506
0,-1.3088330284993817,-3.32794672860867,-3.3163789815182882,-6.595044646350071,3.8600169198063554
0,4.772664214428059,-0.29619451814339004,-2.2344692447526437,0.3264733853027245,3.865016941723205
0,2.6241632878836945,3.095559216837686,8.147441188783896,4.327992988055129,3.8700169636400545
0,-1.0143358093062746,1.3773144724286144,-3.7206476860299773,-0.8204858425001609,3.875016985556897
0,2.1271669214921953,4.15907124457884,-4.068735874423788,2.861036889106068,3.8800170074737466
0,3.9386714787810275,5.280829528980813,6.203176618385951,3.132561178176962,3.885017029390596
0,1.4401778608888365,4.292589320967555,4.075089787195868,5.7940870197932695,3.8900170513074386
0,-6.698313934039766,-6.925649384492556,-5.5129963733674225,-3.39438559126392,3.895017073224288
0,1.1831960921346425,-0.9938865925673825,5.098918131150204,4.347143339537368,3.9000170951411377
0,7.064707937664848,8.887877691661703,9.560833295085374,12.38867380651167,3.9050171170579873
0,-7.0137783992144875,-3.7803565369011585,-6.557250887495116,-6.35979419640085,3.9100171389748297
0,0.5277370796530885,4.101410716456829,2.3746655771807768,1.8117393243460613,3.9150171608916793
0,1.4292543724790712,4.273179446250332,2.9665826827848503,1.743274362147982,3.920017182808529
0,-4.579226522423209,-3.915050353198259,-4.9214995770385705,-3.725189089605835,3.9250172047253784
0,-12.577705606574844,-10.533278687639694,-10.379581208588183,-10.783651037438936,3.930017226642221
0,0.4238171189360975,-0.6915055625503876,0.5623377821791613,2.3978885124557516,3.9350172485590704
0,-2.164658346413264,-3.5097309829141694,-2.285742610211755,0.849429554295722,3.94001727047592
0,-2.0931320027617404,-4.0979549532990465,-8.803822390864742,-4.409027917497681,3.9450172923927624
0,1.728396149937586,-1.8361774779527247,0.8380984354585334,-3.8974839083957624,3.950017314309612
0,5.179926111784686,4.885601439131351,3.8600198643265022,7.214061576306907,3.9550173362264616
0,0.38145788275206194,-0.47261820596807436,-1.9580581085769961,0.8256085313797058,3.960017358143311
0,1.6329914625744746,-2.5908364172539167,-1.9861354876160275,-2.852843048552634,3.9650173800601536
0,6.0645268507592345,2.240946801229996,3.685787722843576,0.46870683101926913,3.970017401977003
0,4.82606404653623,1.872731445450254,5.7577115184080965,3.8702581646098984,3.9750174238938527
0,6.487603048714779,11.864517511239487,7.899635894421141,9.521810946628943,3.9800174458107023
0,6.729143855571162,8.816304993980815,12.561560845669032,9.983365171057907,3.9850174677275447
0,-6.079313535136604,-10.921906111583619,-5.176513633786774,-16.235079168710822,3.9900174896443943
0,-7.25776912589131,-5.03011581103745,-11.314587550376524,-7.753522079462412,3.995017511561244
0,-1.966222918968386,-4.468324109702679,-6.932660910377857,-6.331963567462787,4.000017533478086
0,1.0153250837704215,-4.73653101236733,-1.4507337194276446,-3.5704036381840205,4.005017555394936
0,-4.1331251192501846,-7.374736523307259,-12.038805982493685,-4.868842296462731,4.010017577311785
0,-5.841573529414662,-7.462940646260791,-8.946877703905715,-7.357279546640274,4.015017599228635
0,-3.6400201478048384,-0.17114338437135768,3.7250511127190027,-0.39571539257313415,4.0200176211454774
0,1.3415350248859101,-2.519344740281932,0.2269804643002778,-4.84414983766962,4.025017643062327
0,-6.876908011726081,-9.727544716282237,-13.161089652012738,-11.842582884924692,4.030017664979177
0,-3.755349257759115,-3.5157433142617593,-2.159159238781457,-8.251014536763321,4.035017686896026
0,-0.18378871299828292,-4.753940535577882,1.6827717019272468,-3.5494447948348853,4.040017708812869
0,-8.212226376877569,-5.792136381056208,-9.905296831536022,-7.117873660039831,4.045017730729718
0,-1.730662248480523,0.72966914893268,-2.9033648404904,-7.326301132657983,4.050017752646568
0,0.39090367347652455,2.4014760543347067,2.758567674132722,-2.6247272123779366,4.05501777456341
0,-1.7475286094574722,1.6632843351703375,-4.359499288301447,-1.2131518983545695,4.06001779648026
0,4.57404090435902,6.855093991307626,3.1424342716891847,6.918424810562392,4.065017818397109
0,2.1756122165079677,7.036905022281305,11.674368353549259,8.910002915453205,4.070017840313959
0,-1.962814671596834,0.9987174271429187,-0.6136970435829872,3.371582416953556,4.075017862230801
0,-6.221239758635936,-2.0994687955015454,-5.151761920998875,-3.516836684848227,4.080017884147651
0,2.290336956838311,0.49234635275258737,4.3001737198279075,1.314745609831654,4.0850179060645
0,-2.818084523503028,-2.4058371296780723,1.4021098774429315,0.866329300731721,4.090017927981343
0,-5.886504197804915,-4.804019244261847,-5.1959534496386715,-3.322085612393204,4.0950179498981925
0,3.765077935993457,2.567800007722881,5.285983737067735,5.14950087021896,4.100017971815042
0,1.2466618801231804,2.6396206251503473,6.217921436009887,4.751088748268218,4.105017993731892
0,-3.8017523631688515,-3.6885573931094404,-6.090140354554085,-0.7773219787688557,4.110018015648734
0,-2.8901647916271287,-0.926734048220474,-4.438201636514518,0.6642686883204568,4.115018037565584
0,4.161424597134815,4.015090658706061,6.743737588343641,5.535860748580349,4.120018059482433
0,7.233015805548372,0.436916726566025,4.865677318314526,8.347454200835111,4.125018081399283
0,-6.745391164148427,-10.141255845794818,-9.342382448470918,-2.2309509564943455,4.130018103316125
0,4.146203690073195,2.6905729405913217,0.41955828602860396,8.010645274574756,4.135018125232975
0,1.7478003701756468,-1.7975969150267859,-0.08850047997362456,4.722242891645758,4.140018147149824
0,2.069398878034884,-1.4557654132016569,-2.376558748065041,4.723841891889249,4.145018169066667
0,-2.3290007846331306,-2.3139325543746234,-1.7346165197151835,0.7254422720023064,4.150018190983516
0,0.6626013837968011,2.5379016611348133,5.17732620370393,6.987044028285539,4.155018212900366
0,-8.905794614987975,-9.910262766863752,-5.640730579149521,-4.7013528432724065,4.160018234817215
0,-3.264188779043332,-3.648425838324357,-4.7287868695842885,-6.019748346833233,4.165018256734058
0,4.357418893950979,7.703412447154866,7.793157331249787,4.241857513559296,4.1700182786509075
