labels,F4,F3,Fz,Cz,timestamps
0,2.7733112802155198,-0.7205117756556265,3.217995761604288,1.938872130849685,-2.0000184263866068
0,-1.9946570680103697,-2.04963704723892,-4.589703941448521,-1.5594632483084474,-1.9950183803206407
0,13.67737619576316,5.131239132094125,1.5925981531932039,11.432204483804695,-1.9900183342546711
0,7.549411083544639,9.172116771186811,9.484902051891313,12.4538753322821,-1.985018288188705
0,-1.3685523933008954,8.342995878475172,8.41720776075745,8.765549301468726,-1.980018242122739
0,8.133485775979011,7.183876461700903,4.159515285317898,9.557226394714018,-1.975018196056773
0,10.525525601657279,5.694758527836613,4.961824630418294,7.638906614395129,-1.970018149990807
0,2.937567093422062,0.3856420831923038,2.484135800353464,0.4905899620617999,-1.9650181039248409
0,1.8396102603056321,5.326527133602951,8.346448798973809,3.512276438665291,-1.9600180578588748
0,2.691655110865732,5.6874136845419025,7.9287636296407085,2.6939660447928087,-1.9550180117929052
0,8.37370165334004,5.688301741071385,8.87108029507283,8.01565878073037,-1.9500179657269392
0,15.505749895508252,10.799191307709293,12.383398797189534,13.837354646297662,-1.9450179196609731
0,0.7777998443837301,-0.6599176116643886,4.255719137015676,-0.1209463594016813,-1.940017873595007
0,3.789851506152134,-0.8390250137155075,-0.0019586852455962256,1.8007557620109493,-1.935017827529041
0,-5.398095113517741,-5.068130895332679,0.00036533009882463996,-3.2075389914916,-1.930017781463075
0,10.003959990861915,0.5227647466969478,1.252691182554534,-3.265830621985497,-1.925017735397109
0,2.9060168246171134,3.3836619157623886,1.1150188715655402,-0.20411913139210713,-1.920017689331143
0,-3.311924607232725,-2.725439384703844,-5.782651603463668,1.4275954785499319,-1.9150176432651733
0,-0.8798642999007996,2.655460848675724,0.3096797569402385,-3.2406867938065864,-1.9100175971992073
0,4.062197751387776,2.1463626192144747,8.74201295236559,6.19103404990515,-1.9050175511332412
0,2.0542615513900353,5.257265930090897,4.664347982283867,2.5427580079705083,-1.9000175050672752
0,0.13632710470634604,-2.521829215756156,0.36668484575599397,-2.8455149215256608,-1.8950174590013091
0,2.3783944157499435,-2.6509228155708735,-0.1609764585466401,-1.5037847406439806,-1.890017412935343
0,-1.6295365111935018,-0.45001486657872763,-3.8886359321088984,2.347948548581633,-1.885017366869377
0,0.18253432809802836,-2.9791053658501405,0.26370642364918934,0.909684944163202,-1.880017320803411
0,-1.7653930621471894,-1.4781943102773767,-1.393949392549243,-1.1785755559339843,-1.8750172747374414
0,-6.953318677596143,-9.747281696521561,-11.821603381787089,-12.476832953721242,-1.8700172286714754
0,-2.9512425136590656,-3.5863675208554473,0.0407444552086752,-6.225087250861553,-1.8650171826055093
0,-1.9291645653667855,1.5945482209359323,-0.016905881827377733,-1.9333384483756313,-1.8600171365395433
0,5.552915172550848,3.3854655333858856,3.2954456071151674,-3.3215865466784136,-1.8550170904735772
0,2.884996705396711,-0.7736155789617996,-1.4122010779524339,-4.2998315457796465,-1.8500170444076112
0,-7.752919961688235,3.587304888292907,-3.7898459370831716,-8.718073445325006,-1.8450169983416451
0,-3.020834823584296,4.048226939374188,-3.007488970246266,0.13368775550113504,-1.8400169522756755
0,-2.148747874906236,-2.3408494217110456,-2.7051301771700773,-5.474547942012183,-1.8350169062097095
0,-6.226659109896619,1.560075808861662,-4.07276955727956,-4.192780536183468,-1.8300168601437434
0,2.3454314775384475,-2.3889973651423406,-3.5004071096863303,-3.4910100249580718,-1.8250168140777774
0,-0.7724761062616013,-7.508068939877875,-0.9380428331768178,1.32076359408128,-1.8200167680118113
0,-3.1003818548407174,-12.997138911174646,-4.185676726245852,0.41254032358014625,-1.8150167219458453
0,-12.558285761580956,-6.946207274180344,-7.763308787095169,0.43432016623372494,-1.8100166758798792
0,-9.866187819381617,-3.15527402318232,-5.7509390135038565,4.136103124675426,-1.8050166298139132
0,-6.77408802032105,-1.2643391517674318,-1.0885674027156496,-2.0321107985836298,-1.8000165837479436
0,8.89801364431758,5.156597346840606,3.0438060484605356,3.929678398829065,-1.7950165376819776
0,8.960117183544956,10.887535479391248,9.76618134330901,10.271470719098671,-1.7900164916160115
0,4.78222260602381,17.988475252120967,9.848558484764904,10.823266163975063,-1.7850164455500455
0,0.7343299197936769,9.439416670255307,5.3609374750679475,4.285064734459917,-1.7800163994840794
0,2.346439132413828,8.070359737787033,10.233318315649319,8.926866430726834,-1.7750163534181134
0,11.648550251119051,10.511304457599376,9.825701007135791,15.308671252156138,-1.7700163073521473
0,9.670663282668025,13.792250831601347,14.378085549262371,8.11047919720967,-1.7650162612861777
0,9.872778233037307,13.473198860646253,13.590471940690342,13.322290263267965,-1.7600162152202117
0,9.374895107253785,14.524148544361548,10.202860178862233,8.474104446612174,-1.7550161691542456
0,15.17701390935742,19.79509988100894,12.125250259991592,5.605921742505544,-1.7500161230882796
0,7.8791346423283395,8.026052867376231,3.457642179183529,0.077742145390999,-1.7450160770223135
0,11.351257308043547,5.477007498863725,6.930035930643452,1.909565649205697,-1.7400160309563475
0,0.7233819073842354,0.24796376987324323,0.8224315079179882,-5.508607752317139,-1.7350159848903814
0,0.3155084405131555,-4.301078325689352,1.1848289041176863,-6.716778065375022,-1.7300159388244154
0,7.867636907186233,5.409881205962135,9.44722811204398,1.5150547041431743,-1.7250158927584458
0,-6.830232693087768,-3.159157641380492,1.0296291241593813,-1.5231094493112338,-1.7200158466924798
0,-3.328100360913954,-7.4181948738979315,-4.147968067454051,-6.611270531067762,-1.7150158006265137
0,-2.425966096745062,-4.947230497550247,-2.2055634708746785,-2.37942854622085,-1.7100157545605477
0,-2.86382990071782,-4.686264517833512,-0.9731570940521714,2.262416500448618,-1.7050157084945816
0,2.498308227297534,0.794703060246039,2.9692510552460942,8.134264604312346,-1.7000156624286156
0,5.2304482875213685,12.305672231924705,14.201660969206845,7.63611576051296,-1.6950156163626495
0,7.082590279997608,5.036642992223874,8.774072639546475,8.44796996361801,-1.6900155702966835
0,2.164734204348713,4.487615335574454,10.836486057117883,6.699827207457697,-1.6850155242307139
0,9.416880059687196,10.328589255746493,16.898901211720304,9.581687485096667,-1.6800154781647478
0,-0.3709721553858619,8.079564745848174,6.741318092005544,8.023550788820437,-1.6750154320987818
0,11.021177557233457,12.380541798198268,14.663736685439638,13.705417110071092,-1.6700153860328157
0,13.403329195069333,8.331520404189103,13.666156978321526,10.707286439324552,-1.6650153399668497
0,13.07548275478954,6.412500554259326,4.978578955785793,6.889158765999686,-1.6600152939008836
0,-3.12236176799312,0.7034822380322702,2.691002601931523,3.2510340785540865,-1.6550152478349176
0,-7.86020437841306,-14.735534555308881,-11.256572099743554,-8.927087635175324,-1.650015201768948
0,-2.818045081682498,-8.614549836402078,-6.344145165731181,-6.655206387445423,-1.645015155702982
0,-4.685883882632908,-9.423563615136166,-5.56171661201866,-0.023322190145890764,-1.640015109637016
0,-2.6037207856523885,-6.512575900461176,-7.0492864539266415,-2.2914350547111635,-1.6350150635710499
0,-8.581555794725165,-7.241586700481345,-10.236854706114537,-8.279544992252216,-1.6300150175050838
0,-6.119388913363933,-8.470596022553055,-10.274421382499222,-9.207652013497574,-1.6250149714391178
0,-7.667220144479208,-7.41960387330037,-3.8019864961447656,-3.65575612857084,-1.6200149253731517
0,-7.205049490303257,-4.918610258611533,-3.0195500593357374,-1.8538573469434008,-1.6150148793071857
0,4.5571230475608235,5.772384816231208,2.562887916151,3.9380443223426154,-1.610014833241216
0,-3.970702532089792,-6.366618653744207,-1.3746725812475753,-1.6800511296276714,-1.60501478717525
0,-2.8185262302873375,-1.7956206733900282,-2.0422315630495573,-4.308143711778504,-1.600014741109284
0,1.7236519520699658,7.585378752561477,5.220210959255552,2.6837665670312147,-1.595014695043318
0,8.25583201416581,-3.7636203805985904,-2.7173450258422123,1.1656796980444208,-1.590014648977352
0,-2.091986044976447,0.5973819223141275,0.7251004700768109,1.577595672483211,-1.5850146029113859
0,-0.04980222660723893,3.7783856564103178,4.207547435373806,7.099514481406265,-1.5800145568454198
0,-5.247616532079842,0.09939081673202954,3.2399958582951554,-2.7285638843863027,-1.5750145107794502
0,-5.5354289625826665,-5.849602601775717,-5.417554273113637,-3.516639434311417,-1.5700144647134842
0,1.026760481029246,-4.018594604099762,-2.5051029708837578,0.655287822212856,-1.5650144186475181
0,-2.441048201778819,-0.8275851949364346,2.1773497530925194,9.057217875849005,-1.560014372581552
0,0.6411449886437333,-1.4065743786640001,1.4898038870663985,0.8991507171117883,-1.555014326515586
0,8.293340051978133,5.5644378405030785,0.8822594192622515,3.331086336148455,-1.55001428044962
0,8.74553698768165,1.925451458298979,2.524716337773421,8.233024722717538,-1.545014234383654
0,18.777735794579666,10.556466470182698,13.467174630469572,21.364965866048312,-1.5400141883176879
0,9.829936470454951,3.4274828711383702,8.039634284718998,14.696909754372948,-1.5350141422517183
0,17.242139011796656,13.608500655517084,13.592095287055253,16.908856374461593,-1.5300140961857522
0,14.804343413715213,18.629519816831213,14.524557622953022,17.660805711457833,-1.5250140501197862
0,5.736549669940775,14.400540347407238,7.907021276712602,12.552757748893093,-1.5200140040538201
0,1.8687577730330776,4.161562238162363,2.8294862315136595,3.38471246882613,-1.515013957987854
0,0.5809677148266078,-2.447414521134997,-0.17804753025872166,-3.813330147735029,-1.510013911921888
0,-2.3168205131412023,-1.586389941263092,-3.6055800265754723,-1.6913701202161011,-1.505013865855922
0,-5.664606919344932,-8.375364033010355,-2.0131112754192864,-5.149407467989738,-1.500013819789956
0,-4.442391512033328,-4.5443368068414935,-5.70064129456964,-6.707442210128404,-1.4950137737239864
0,-1.5601742990793572,-7.053308272707681,-5.338170101473312,-4.085474365263791,-1.4900137276580203
0,-7.76795528795555,-6.442278439970092,-7.655697713120114,-4.77350395151833,-1.4850136815920543
0,-5.525734485711966,1.7487526825761714,-4.623224145940259,-2.8915309865367025,-1.4800136355260882
0,-3.653511898892992,-0.08021491347199983,-2.170749415791584,-12.069555487504953,-1.4750135894601222
0,-0.39128753355138923,-2.7991812363620836,0.4417264619031156,-6.08757747103143,-1.4700135433941561
0,1.17093860457766,-3.918146294250227,-6.9257965280080915,2.0444030469516887,-1.46501349732819
0,-3.4268334901116466,-10.877110095037375,-8.323318400390475,-1.4836139489946394,-1.4600134512622205
0,-12.824603823073778,-5.5560726461142105,-9.310839169598705,-5.471628474092993,-1.4550134051962544
0,0.4276276006440249,-7.105033954182738,-7.818358849239562,-1.0696405433846603,-1.4500133591302884
0,-2.6201392234540117,-2.313994025266358,-6.3458774521080095,-1.577650171651765,-1.4450133130643223
0,-4.277904299457047,-10.222952864808535,-4.423394990252541,-3.6956573734341642,-1.4400132669983563
0,-10.615667631120717,-14.90191047762214,-12.120911475063725,-10.113662163003099,-1.4350132209323903
0,-9.663429221667688,-9.150866867628208,-11.908426917198788,-7.1116645541603924,-1.4300131748664242
0,-8.891189073521854,-4.889822037687458,-6.925941326394595,-0.9596645600597198,-1.4250131288004582
0,-1.1889471882462357,-5.94877598974627,-5.653454711427418,-3.5776621932810917,-1.4200130827344886
0,3.063296433231492,-0.4977287251109531,-2.7609670803028528,-5.405657466014584,-1.4150130366685225
0,-10.194458209711147,-11.06668024461613,-5.508478440477337,-13.443650390039505,-1.4100129906025565
0,-12.032211117402756,-12.565630548557476,-11.93598879891991,-8.141640976467793,-1.4050129445365904
0,-2.429962289559701,0.5854203635241852,-4.603498161978353,-4.46962923554136,-1.4000128984706244
0,5.5122882747966475,5.736472492770289,3.1089934646804087,-5.147615176704287,-1.3950128524046583
0,6.284540576916007,9.047525840479825,2.231486075791415,-0.6255988088280311,-1.3900128063386923
0,4.926794617796447,6.958580407541445,4.4339796660789075,-0.6735801404183615,-1.3850127602727227
0,4.759050397937884,7.399636194155807,0.5764742300290474,4.008440820186465,-1.3800127142067566
0,1.8413079173462465,2.4506931998186867,2.698969761859974,-4.599535935350326,-1.3750126681407906
0,-4.286432824322405,-2.218248576514512,0.16146625558234898,-2.067510415367045,-1.3700126220748245
0,-11.884171827449492,6.572810863812739,0.6439637050579987,-0.11548262807650733,-1.3650125760088585
0,-4.9819090920133355,2.3838715192589857,3.406462104038043,0.026547418474282436,-1.3600125299428925
0,0.5303553826528036,-1.4150666119674127,-3.3310385538342735,-2.431420283664988,-1.3550124838769264
0,-3.2473784022793315,-2.5840035318416517,-5.108538274942797,-4.359385742344384,-1.3500124378109604
0,-4.035110445360926,-9.882939242262543,-10.856037065447389,-13.52734896513667,-1.3450123917449908
0,6.757159255050295,-1.361873744765114,-3.1635349309772565,0.32469004093118736,-1.3400123456790247
0,0.8794307006502577,-13.620807040336008,-6.691031876501755,-10.123268730498982,-1.3350122996130587
0,-6.808296106974288,-3.069739129305264,-3.868527906392708,-10.121225285133082,-1.3300122535470926
0,2.9739788337392445,-2.8786700113200347,-3.016023024523434,-1.17917962797913,-1.3250122074811266
0,4.046255524442276,-4.057599685480073,-6.433517234329426,-3.177131763382843,-1.3200121614151605
0,-8.48146603320817,-7.836528150475921,-8.791010538791834,-2.1650816952481917,-1.3150121153491945
0,-8.299185837477646,-5.975455404534175,-2.378502940329271,3.3469705727596293,-1.3100120692832284
0,-8.936903886182018,3.945618554643028,1.9340055591786582,8.399025037006348,-1.3050120232172588
0,-2.21462017641989,-6.4733062702696245,-7.733485041805089,1.1310816935961507,-1.3000119771512928
0,-2.302334704643008,-3.6422298763684333,-7.000974744546979,-4.116859461744439,-1.2950119310853268
0,-3.860047466873875,0.7888477395112498,-3.5784635498707287,0.5552015665417782,-1.2900118850193607
0,-1.2377584588406128,4.57992658075313,1.9940485419073484,0.9372647740644579,-1.2850118389533947
0,-8.275467675981231,3.141006650709787,-1.0134384692238152,-1.3906698435079723,-1.2800117928874286
0,-7.683175113331764,1.732087952482774,-6.980924583150637,-3.868602290472446,-1.2750117468214626
0,-4.0608807653600065,3.393170488879066,-1.1984097995723986,-2.176532570993759,-1.270011700755493
0,-4.148584625920417,-4.365745737517499,-6.155894117853771,-0.45446068901147674,-1.265011654689527
0,-3.696286688357824,-6.234660724164474,-5.583377536954751,0.2276133517266544,-1.2600116086235609
0,0.43601305436717275,1.836425531687899,0.8791399445895323,4.149689547535283,-1.2550115625575948
0,-4.051685390431215,-0.9824869669362087,-1.8983416714032046,-6.598232105315872,-1.2500115164916288
0,-4.199382015214521,-9.24139821682104,-6.3158223828891495,-4.216151610525018,-1.2450114704256627
0,-4.04707681215837,-0.3403082144947189,-7.323302187543721,-4.4640689715219875,-1.2400114243596967
0,-6.874769773048041,-7.309216956081742,-10.93078108252825,-8.171984191288708,-1.2350113782937306
0,-12.152460889152536,-9.608124437227376,-6.1482590642646375,-9.399897272244978,-1.230011332227761
0,0.10984984892905253,-8.907030652956593,-3.7957361283874973,-6.6078082161085545,-1.225011286161795
0,2.982162451213271,4.234064402427327,2.1067877300833135,-0.42571702386411514,-1.220011240095829
0,1.9144769279657123,-4.834839264848123,0.16931251643137524,-1.7036236959556148,-1.215011194029863
0,1.9767932893567166,-0.6837416483132958,4.231838235963228,7.888471767400192,-1.2100111479638969
0,7.769111545316814,-0.6526427413501468,4.544364893820236,7.890569365859203,-1.2050111018979308
0,12.751431705373227,9.498457462734457,10.35689249479785,13.44266909855927,-1.2000110558319648
0,6.263753778360596,8.28955897042204,6.779421043129525,7.22477096379692,-1.1950110097659952
0,9.10607777223913,7.220661787621092,13.051950542286523,7.226874958917551,-1.1900109637000291
0,-0.41159630583697976,3.6517659195118237,1.8344809948867205,5.4189810804182414,-1.185010917634063
0,4.090731550708318,-1.347128629329346,-1.8129875971927971,-3.94891067583361,-1.180010871568097
0,3.863061348083639,2.9739781453286716,6.059544767507326,5.793199685672381,-1.175010825502131
0,-2.6046069077758442,1.6250862475508685,0.9520780902349304,1.3053121602658155,-1.170010779436165
0,-7.252273211065366,0.016195681264809754,-2.6453876279573483,-4.552573256876175,-1.165010733370199
0,-9.969937555766709,-1.2826935497183314,-5.282852386091685,-2.420456570615583,-1.1600106873042328
0,4.3124000646590455,6.998418558343126,7.369683816929556,1.4216622143351028,-1.1550106412382632
0,7.624739657156856,10.769532008991453,7.612220982229832,-2.806216906562776,-1.1500105951722972
0,10.127081228553903,14.280646805195053,8.394759110572576,5.1959060622235524,-1.1450105491063312
0,11.079424785039762,1.8017629490076692,8.347298202039134,5.398031116150053,-1.140010503040365
0,4.281770331926419,1.1128804416059008,5.0198382559419255,10.520158250347084,-1.135010456974399
0,-6.30588212623758,-0.6060007163363318,-4.9276207290565734,-0.3877125406154417,-1.130010410908433
0,7.136467414719036,-1.6048805242919695,-3.6750787545868935,-5.125581262674326,-1.125010364842467
0,-7.491181041103462,-11.083758981643177,-10.122535822123732,-10.753447921851006,-1.120010318776501
0,4.301172510419973,-6.152636087398401,-4.209991932644797,-7.471312523726903,-1.1150102727105313
0,4.963528073416308,-1.351511839960303,3.632552913442142,-2.0191750731692375,-1.1100102266445653
0,4.3658856518477736,0.219613762804742,5.27509871603017,7.582964425523752,-1.1050101805785992
0,-11.621754750599933,-1.1292592767020182,-5.24235452505144,-10.604894031745067,-1.1000101345126332
0,-2.489393130248946,-1.5081309559797156,-4.869806810072052,-6.752750448955813,-1.0950100884466671
0,-5.177029483041665,-0.6070012724433118,2.282741860843504,4.879395170261137,-1.090010042380701
0,-10.89466380438095,-2.335870223397416,-4.734708512180855,0.05154282261504456,-1.085009996314735
0,-2.9522960890652614,-0.4047378060213916,-1.4121579288315884,2.1836925048513613,-1.0800099502487654
0,-3.939926331258528,0.5463959826208316,-0.15960638861226825,-0.8741557864118854,-1.0750099041827994
0,2.882445475358727,5.907531145492124,2.3029461091155516,0.88799794534848,-1.0700098581168334
0,3.9248193372940365,5.498667685381426,5.075499564973739,0.27015369661076316,-1.0650098120508673
0,1.737195260957114,1.389805604709037,3.528053979365653,-2.527688536162262,-1.0600097659849013
0,8.469573252474692,1.5409449055038535,3.0106093523526596,-1.615528756462711,-1.0550097199189352
0,2.931953317572021,4.292085589510621,5.673165683619074,-4.803366967633691,-1.0500096738529692
0,-7.575664538425569,-6.296772341715719,-5.7542770274803505,-9.711203172723348,-1.0450096277870031
0,7.876719689619369,3.9743711133060295,5.708281218214384,3.2409626256671715,-1.0400095817210335
0,-4.6608939931653595,-11.054484043856442,-7.929159580175645,-7.276869574616438,-1.0350095356550675
0,2.621494418324109,-10.57333781131957,-6.246599423400237,-5.954699775367547,-1.0300094895891014
0,-3.9561150708226696,-9.542190186538791,-9.324038311815336,-4.362527977962048,-1.0250094435231354
0,-7.153722455406861,-2.0810411660934744,-3.4514762451420373,1.0096458166992865,-1.0200093974571693
0,7.858672270005427,1.1201092541542477,2.7610867775073764,3.001821608021502,-1.0150093513912033
0,4.421069110971733,-10.318738921249576,-2.366349242641933,-2.746000604541157,-1.0100093053252372
0,-1.6165319271367526,-5.407585687406343,-4.013784304241747,-3.163820821555957,-1.0050092592592677
0,-7.894130839171126,-7.976431038875653,-6.361218405768916,0.948360956502107,-1.0000092131933016
0,4.188272380088194,-7.8052749695325945,-1.428651545347018,-1.9394552706890034,-0.9950091671273356
0,5.010677736028983,10.52588252735919,5.56391627924442,7.202730496611124,-0.9900091210613695
0,5.133085233934616,7.51704145874635,9.626485070263413,12.534918257958209,-0.9850090749954035
0,0.9554948787210054,4.138201831221365,2.179054829591535,5.077108012350184,-0.9800090289294374
0,-3.9720933250306927,-0.26063634920572476,-3.2183744414033066,1.009299758033649,-0.9750089828634714
0,-3.479679372810887,-2.2994730769029377,0.5441972583760297,4.121493492671031,-0.9700089367975053
0,3.042736740046101,7.121691653637355,7.626769929970722,7.343689213542845,-0.9650088907315357
0,14.575155018261603,15.04285784772263,15.609343574187806,13.69588691746136,-0.9600088446655697
0,11.337575466130158,13.87402551000778,12.051918191108275,11.238086600462074,-0.9550087985996036
0,2.2899980870717322,4.805194644070723,7.89449377971194,3.7002882575801426,-0.9500087525336376
0,6.422422883622854,9.13636525240103,1.637070337911727,6.1024918829346415,-0.9450087064676715
0,4.394849857689395,6.677537336619658,3.739647862877377,5.484697469970495,-0.9400086604017055
0,4.907279010680203,4.568710897621981,5.182226351334051,9.456905011559979,-0.9350086143357395
0,4.889710343524453,4.149885935671538,4.064805799629014,4.4891144999462735,-0.9300085682697734
0,8.40214385665545,4.141062450520039,9.927386203660163,11.061325926679759,-0.9250085222038038
0,8.024579549928124,2.3822404415005707,9.559967558729753,7.933539282565466,-0.9200084761378378
0,2.257017422532657,2.6234199075920563,0.5825498594079843,8.105754557594882,-0.9150084300718717
0,6.509457473036873,0.17460084749515664,3.0551330996184847,2.9879717409574633,-0.9100083840059057
0,4.651899699492914,7.055783259684634,4.897717272865168,7.200190821169444,-0.9050083379399396
0,7.454344099452486,14.076967142292624,6.460302372310285,9.852411786156834,-0.9000082918739736
0,6.176790669906013,2.258152492817063,7.172888390656513,9.334634623163788,-0.8950082458080075
0,6.909239407226305,8.57933930796116,9.375475320003844,8.926859318599359,-0.8900081997420379
0,10.141690307120783,11.480527583681493,12.06806315169765,12.109085857956783,-0.8850081536760719
0,6.844143364559645,5.591717315166652,7.1406518761913,10.471314225757201,-0.8800081076101058
0,6.386598573731952,6.112908496789714,6.073241483016712,12.093544405476674,-0.8750080615441398
0,4.519055928103658,8.714101122186193,9.355831960884258,10.585776379500482,-0.8700080154781737
0,7.181515420526346,9.175295184293747,5.998423297775386,8.79801012913213,-0.8650079694122077
0,5.373977043280331,10.446490675261806,6.7710154809480745,3.120245634696901,-0.8600079233462417
0,-7.613559211848385,-2.24231241358516,-2.7263915029706727,3.6524828757690893,-0.8550078772802756
0,6.088906646674804,1.8288859084622668,4.766202332232573,11.764721831369734,-0.850007831214306
0,5.631374610306113,-4.929914368129169,0.9387969725488085,5.33696247993789,-0.84500778514834
0,-5.9661553296688155,-5.768713252813336,-3.5686075961814145,-2.1407952007419624,-0.8400077390823739
0,-17.25368318202231,-2.057510754741981,-7.216011388121778,-14.518551233248573,-0.8350076930164079
0,-1.0912089550555795,-9.386306882639929,-13.333414417100258,-14.796305639840355,-0.8300076469504418
0,-4.898732656272745,-9.615101644698901,-15.220816696180757,-13.984058441780377,-0.8250076008844758
0,-11.596254292490311,-12.323895048373878,-10.488218237309699,-13.261809659003266,-0.8200075548185097
0,-9.753773869874042,-6.622687100186873,-13.025619051174916,-12.059559310087781,-0.8150075087525401
0,-3.5612913937801,-4.1914778057315445,-8.373019147259049,-9.707307412344814,-0.8100074626865741
0,-0.2788068688078378,-6.100267169861788,-5.780418533983703,-7.135053981956848,-0.805007416620608
0,6.393679700849011,-3.8690551968701774,-2.857817218923479,-3.8727990341799785,-0.800007370554642
0,-4.453831688975047,-17.227841890484534,-10.235215209028205,-15.46054258351147,-0.795007324488676
0,-2.161341042528888,-6.4266272536592535,-2.7926125106854576,-0.04828464369739183,-0.7900072784227099
0,1.6711516359893739,5.424588711536132,3.349990870244946,-0.8860252277748155,-0.7850072323567439
0,2.873646342472299,10.145806003515604,5.662594928153882,-1.733764348346801,-0.7800071862907778
0,3.98614307273617,12.177024620435331,5.07519965727295,6.838497982111817,-0.7750071402248082
0,12.598641822291581,8.138244559641674,15.387805051344058,12.950761750966077,-0.7700070941588422
0,7.061142586073858,1.2194658175508406,6.350411103352897,6.993026945020824,-0.7650070480928761
0,5.223645358239153,3.7006883898706513,4.863017805380813,2.0752935502689693,-0.7600070020269101
0,-5.4338498677392755,0.3519122719003843,3.375625148731086,-0.20243844795840404,-0.755006955960944
0,-4.2113430986695075,-1.1168625412774063,-0.5517668757964234,-5.5201690646165575,-0.750006909894978
0,-5.598834341195103,1.724363945326653,-3.899158277645568,-7.1578983145685235,-0.7450068638290119
0,0.5936763984281548,6.985591726626654,2.113450933729812,1.9543737876790712,-0.7400068177630459
0,1.4061891142606064,1.3368207973208261,5.296060748929501,3.1766472279497484,-0.7350067716970763
0,5.558703800436282,5.118051151753008,1.0486711584354143,2.2389219921126218,-0.7300067256311102
0,-7.438779549034334,-4.280717216060669,-4.228717847488423,-1.9788019341257823,-0.7250066795651442
0,-10.966260940132562,-3.959484312237974,-8.016106278606692,-12.246524565107217,-0.7200066334991782
0,-10.763740378379477,-11.28825014270782,-13.50349414431199,-11.054245914809403,-0.7150065874332121
0,-6.581217868446948,-6.237014712868556,-9.310881453219642,-9.59196599640071,-0.7100065413672461
0,-5.848693414103938,-5.235778027399917,-8.818268212951093,-10.799684822035951,-0.70500649530128
0,-0.9861670184027673,-3.6445400903050467,-6.925654430154665,-5.397402402880084,-0.7000064492353104
0,-6.503638683892931,-6.583300905046615,-11.043040110609505,-6.085118749234083,-0.6950064031693444
0,-4.001108412721829,-0.13206047462749737,-2.450425259287702,-4.092833870707308,-0.6900063571033783
0,3.491423793336379,-0.6108188016824582,2.5321901195099294,1.709452223599613,-0.6850063110374123
0,-5.146042067235985,-5.889575888608074,-3.8851939781567504,-3.198260475105592,-0.6800062649714462
0,0.47649400417530224,-3.478331737570989,-1.382577556089895,-1.9559719754510274,-0.6750062189054802
0,6.129032006263312,-4.577086350394083,-1.569960617952245,-1.6936822859068767,-0.6700061728395141
0,2.7815719376412593,-2.9558397284970774,-0.28734316723760245,-3.4713914147418876,-0.6650061267735481
0,2.6841137966334863,1.4354081270517964,0.30527479268072366,3.7709006299656926,-0.6600060807075785
0,0.9966575812406062,2.126657215376544,-0.1621067415200088,-0.08680615977377948,-0.6550060346416124
0,1.4292032892257271,7.907907535548917,6.060512226808202,1.3854882080009094,-0.6500059885756464
0,6.241750918161298,13.589159086270973,12.613131694091107,13.437783725067888,-0.6450059425096804
0,7.894300465326694,0.6804118655598116,4.18575165620188,6.700080382765756,-0.6400058964437143
0,0.7968519275354385,-2.7283341292692267,-5.321627891662616,-8.117621828204676,-0.6350058503777483
0,0.09940530113103768,1.3829210987535456,-4.769006954645851,-2.2153229175118256,-0.6300058043117822
0,2.461960582181597,-3.535822453414136,-1.0163855377503215,-1.2330228947111634,-0.6250057582458126
0,0.654517766619591,1.6154352112732986,4.116236354297176,2.1192782308968656,-0.6200057121798466
0,4.547076850236687,3.386694089914007,3.638858716833659,4.351580450082018,-0.6150056661138805
0,4.469637828601888,-1.5920458204482097,1.0014815450063739,-0.8661162465204677,-0.6100056200479145
0,5.782200696943879,3.319215477107449,0.08410483370797125,4.336188131516238,-0.6050055739819484
0,-2.8752345499112115,4.3504779793604875,0.9667285776756406,2.668493574409934,-0.6000055279159824
0,-10.33266791735107,-4.598258317090866,-6.15064722839141,-1.6091999278405944,-0.5950054818500163
0,-2.5800994105593156,-10.576993415701931,-5.198022589653572,-2.906892385377534,-0.5900054357840503
0,1.952470965743906,-5.765727319593403,-3.6953975109245105,-2.8345838082874897,-0.5850053897180807
0,0.47504320715090553,-4.174460031248591,-3.432771996570726,-10.402274206395731,-0.5800053436521146
0,5.037617309266725,-1.2231915525456156,-5.450146050544122,-7.609963589043623,-0.5750052975861486
0,-7.539806732430655,1.3780781150167598,-0.03751967641575063,-8.897651964866418,-0.5700052515201826
0,8.432771077462807,-3.2006510298934936,-3.664892877429841,-9.035339341679075,-0.5650052054542165
0,0.03535073429489122,-7.2993789884807425,-0.5122656565818573,0.43697427349447354,-0.5600051593882505
0,-4.74206776671339,-3.8681057616577696,5.0903619832815865,4.969288874182457,-0.5550051133222844
0,3.120515569594326,-0.47683134990342935,0.46299003929510735,-1.438395545940934,-0.5500050672563184
0,-3.096899261561664,7.824444246605397,4.755618508402911,-2.526078993288229,-0.5450050211903488
0,-1.2243122648773972,0.7857210276528567,-0.6817526127011309,-2.1437614742685223,-0.5400049751243827
0,3.7282765550255816,-2.883001007229149,0.060876672478105076,2.3485570048440114,-0.5350049290584167
0,-3.269132806445418,-0.36172185865288453,-1.7164936396513157,1.5508764378571864,-0.5300048829924506
0,-8.626540353837632,-4.360441527156323,-3.2738635526317426,-3.756803181454319,-0.5250048369264846
0,1.7560539085368103,6.2008399868690605,0.7087669301349427,6.525518140635204,-0.5200047908605185
0,3.618649976672978,5.032122683036534,6.641397805348715,8.53784039772565,-0.5150047447945525
0,2.4412478466291936,7.183406560674132,10.76402906954849,12.620163582975906,-0.5100046987285829
0,9.433847514223952,7.984691618578735,13.126660718689433,25.012487688637286,-0.5050046526626168
0,4.916448974828411,4.735977854900976,4.1292927478235155,8.254812705593173,-0.5000046065966508
0,-5.510947776698749,-2.052734732808511,-4.748074848850352,-9.592861376688747,-0.49500456053068476
0,9.061657254156255,4.378553852613216,4.824557922415563,4.389465430478692,-0.4900045144647187
0,11.944264061637616,9.519843608075085,8.587191055194257,4.70179311564423,-0.48500446839875266
0,17.8268726393637,20.051134529993806,14.129824542674932,11.21412166719682,-0.4800044223327866
0,22.32948297975917,11.95242661378298,11.53245837723245,8.636451072979524,-0.47500437626682057
0,10.782095073641921,16.113719853476155,5.915092550168362,6.298781320035881,-0.470004330200851
0,11.504708910175237,20.115014241608897,14.857727051734441,12.651112394561816,-0.4650042841348849
0,13.927324477111167,11.216309769157077,14.580361871147007,6.173444281898906,-0.4600042380689189
0,11.58994176097252,6.3276064255854285,9.852996996451008,3.4257769665494644,-0.45500419200295283
0,10.192560747084478,12.018904199132985,9.035632414466734,5.228110432328569,-0.4500041459369868
0,2.715181419674108,10.14020307705783,5.748268110953458,5.410444662538581,-0.44500409987102074
0,1.5078037621540257,6.821503045668475,-3.78909592910591,-2.2772203599480356,-0.4400040538050547
0,0.38042775747977375,-0.667195909590697,0.9435402788685482,1.5051153474416736,-0.4350040077390851
0,6.983053388371616,11.474106196102118,12.326176719302339,11.807451767091743,-0.43000396167311905
0,4.645680637284878,14.345409346998471,11.888813376270507,8.569788881014002,-0.425003915607153
0,5.838309486252088,6.546713526516229,16.471450233009694,11.992126670484469,-0.42000386954118696
0,6.810939916781005,4.8180187170849536,3.284087271594053,2.1044651158645777,-0.4150038234752209
0,9.043571909788678,5.779324900323468,10.466724472988371,5.196804196714274,-0.41000377740925487
0,5.176205445521515,2.1406320572743853,9.549361817249633,5.839143892010278,-0.4050037313432888
0,-6.321159496393825,1.1319401685525903,-2.8180007163418788,-3.218515819707381,-0.4000036852773228
0,-7.288522936582686,-6.336750785464285,-5.605363149026802,-2.296174960158947,-0.3950036392113532
0,-14.505884895354685,-8.985440824317955,-13.402725502021623,-9.923833551004623,-0.39000359314538713
0,-3.123245392259034,-9.424129967083285,-4.84008779597224,-10.52149161347215,-0.3850035470794211
0,1.019395553971312,-4.072818232105007,-1.8174500507509412,-7.779149168047731,-0.38000350101345504
0,8.232037925039958,5.008494362942331,11.295187714281875,2.2231937655983702,-0.375003454947489
0,10.544681702512433,9.689807800636023,14.06782547967151,8.78553716828907,-0.37000340888152294
0,7.667326867345176,4.851122063261701,8.410463225229572,7.227881020761549,-0.3650033628155569
0,3.0899733996967433,-2.887562867446768,1.8331009297758718,-4.049774696726014,-0.36000331674959085
0,-1.1973787209293736,15.143752989779248,5.265738571332942,3.612569995669693,-0.35500327068362125
0,13.975270484551478,0.47506961576440276,5.138376127406661,4.5649150775945735,-0.3500032246176552
0,11.717920994732685,5.666386990775646,8.641013575037768,7.887260528458094,-0.34500317855168916
0,10.410572787359893,2.4277050945580063,9.713650890669431,5.429606327214431,-0.3400031324857231
0,6.0532258391265525,-3.5509760934915384,-1.3837119499552677,0.0419524522640915,-0.33500308641975707
0,4.705880125800126,10.40034340581776,3.958925028319916,8.594298881535995,-0.330003040353791
0,6.458535622447468,9.481663571401434,7.181561800271464,3.9266455925440913,-0.325002994287825
0,4.151192303570159,11.162984381568172,7.304198340286832,6.168992562321138,-0.3200029482218554
0,9.893850143121872,12.614305813699778,6.6268346221852195,9.42133976733934,-0.31500290215588933
0,0.5865091144733978,3.6156278441472427,1.7494706191482108,-1.506312816522668,-0.3100028560899233
0,11.4491691904104,7.216950448339016,6.422106303811483,4.246034786106277,-0.30500281002395724
0,-0.7981696568441845,-4.6617263989512745,-2.5152583516006106,-6.461617449678657,-0.3000027639579912
0,7.084492544417314,4.5095972767079004,5.707376624846913,4.350730451172814,-0.29500271789202515
0,-7.572844234477611,-0.829078550384124,-6.889988795083957,-2.376921536238758,-0.2900026718260591
0,0.9398199776690448,4.732246093967592,3.6926453603266376,1.025426563211432,-0.28500262576009305
0,-12.077514847787226,8.773571183739241,-1.414720937154228,-3.652225275334372,-0.28000257969412345
0,-0.34484873908494373,2.634896692496218,0.9079122842700007,1.4401229233402444,-0.2750025336281574
0,-4.272181723965974,-10.603777406625705,-5.139455003595101,-7.097528865417292,-0.27000248756219136
0,-5.169513829735134,-10.062451140510191,-9.316822828781097,-6.115180666019405,-0.2650024414962253
0,-1.2768450833251284,-10.071124535465145,-7.184191218874146,-4.652832502454789,-0.26000239543025927
0,-0.18417551134217214,0.07020238305654836,-0.681560200823031,2.279515601774694,-0.2550023493642932
0,-5.641505140154208,-2.53847040970693,-5.658929801004531,-2.228136376512647,-0.2500023032983272
0,1.3811660040682205,-2.897142938134028,0.8336999545955527,8.344211539572196,-0.24500225723235758
0,11.29383789527098,4.4541847735929245,16.296329040137397,32.1765593265734,-0.24000221116639153
0,-4.733489492758164,-2.824487298633061,-2.2310425704905743,0.6289069599831946,-0.2350021651004255
0,-11.240816186460089,-10.89315917886026,-14.848414903835085,-10.798745586020587,-0.23000211903445944
0,-6.768142212071125,-10.391830890796035,-9.155787986348212,-3.5363983378330834,-0.2250020729684934
0,-11.045467595137866,-10.200502457392718,-13.613161843676572,-5.054051321549239,-0.22000202690252735
0,-14.692792360299046,-14.959173900601884,-16.700536500324645,-15.42170456265875,-0.2150019808365613
0,-11.610116531128263,-15.08784524122621,-15.967911979482501,-7.8593580858913565,-0.21000193477059526
0,-9.567440130010816,-5.406516498810096,-8.735288302900699,-3.1670119150582687,-0.20500188870462566
0,-1.5747631782409526,-3.7751876917662806,-1.1726654910376866,-0.5546660731966868,-0.2000018426386596
0,2.2479143036339884,4.746141162212153,6.609956436446392,3.5276794170491046,-0.19500179657269356
0,4.620592295344206,2.257470045664153,1.3425774600757117,2.4900245330790427,-0.19000175050672752
0,-0.5267292234739867,4.428798940997872,0.8551975601763053,-0.5776307478601752,-0.18500170444076147
0,-4.944050273355584,-7.71987216961443,-5.952183283114435,-2.1552864486680914,-0.18000165837479543
0,1.7586291251667532,1.7414566959318503,-3.749565089593088,-0.5329425922495976,-0.17500161230882938
0,-9.108691048261461,-12.01721448006833,-8.926947878723833,-7.570599201372834,-0.17000156624286333
0,-2.6960108136968093,-11.25588571486104,1.3556683305155852,3.431743701432993,-0.16500152017689373
0,-7.96333019076199,-12.784557024896605,-9.161716480376665,-5.505913906108758,-0.1600014741109277
0,-10.23064919851402,-5.803228425585806,-4.209102329462484,-3.9735720460541675,-0.15500142804496164
0,-9.567967855290217,-4.591899931356179,-5.7164892343114575,-2.451230740184,-0.1500013819789956
0,-9.725286178551817,2.7994284440522152,-2.1838772119704934,2.221109990025472,-0.14500133591302955
0,-2.4326041848612046,-6.509243312742883,-2.2612662790527636,-0.73654987673178,-0.1400012898470635
0,-14.549921889983064,-12.857915214842196,-12.328656451798034,-8.014210361692331,-0.13500124378109746
0,-3.4372393089214146,-4.686587274806801,-8.126047745924817,-4.991871485879432,-0.13000119771512786
0,-5.174556455916813,-8.915259504418483,-13.003440176355781,-9.249533269841312,-0.1250011516491618
0,-6.56187334454823,-4.163931914692729,-5.740833757051436,-5.5171957334853765,-0.12000110558319577
0,-14.179189987787096,2.39739548396013,-5.918228501048283,-4.924858896046426,-0.11500105951722972
0,-1.2865063978656237,-0.9912773185248307,-2.7156244206464777,-10.98252277611536,-0.11000101345126367
0,6.746177413683895,1.5300496678700444,-0.023021527644861817,-6.630187391604609,-0.10500096738529763
0,3.5088614355752052,2.031376433116316,-0.8604198335584008,-6.907852759668461,-0.10000092131933158
0,-9.118454343635642,2.2627029670757066,-2.9878193497595724,-6.275518896715141,-0.09500087525336554
0,6.484230064504059,1.1440292594426351,0.8847799124958754,1.746814181469996,-0.09000082918739594
0,-3.553085351481327,-1.8646447002463935,-1.3826220579324748,1.869146459485472,-0.08500078312142989
0,-2.080400603005208,2.4166810774662792,1.6999747278855453,4.92147792198544,-0.08000073705546384
0,3.3022842985769754,-3.651993417971437,0.4825702588810753,5.413808553398589,-0.0750006909894978
0,6.824969341910614,-2.0306681970606717,0.18516452394158786,4.43613833775889,-0.07000064492353175
0,6.737654515385817,4.960656729803018,2.4877575118804747,6.938467258620977,-0.0650005988575657
0,3.3403398068918437,-3.7780186477255686,1.6403492114149483,3.4407952990257784,-0.06000055279159966
0,3.1530252037842206,3.8633056599675557,1.3129396111144462,6.403122441496977,-0.05500050672563006
0,10.455710692950632,2.4146296424168106,8.995528699340278,6.445448668041455,-0.050000460659664014
0,2.89839626076923,4.585953288991111,6.958116464089088,3.117773960130162,-0.04500041459369797
0,6.491081893027975,4.657276588759638,2.480702892802729,2.5300982987304828,-0.04000036852773192
0,13.143767574898396,3.958599530404308,7.283287972337485,9.832421664378419,-0.035000322461765876
0,11.606453290789018,3.4099221021935873,6.875871689013705,10.89474403709665,-0.03000027639579983
0,-9.420860975772664,-0.23875570797216916,-2.381545971366822,-8.432934603745874,-0.025000230329833784
0,-10.30817524175026,-9.887433912375219,-14.158965023305498,-17.4406142791215,-0.020000184263867737
0,-11.625489523803807,-11.496112523085792,-10.866385481014706,-15.13829500950279,-0.015000138197898139
0,-4.062803837750866,-4.7647915515189,-4.5038073578820175,-3.755976814194679,-0.010000092131932092
0,-4.4401181985493166,-7.5034710082656915,-5.901230666394621,-5.213659711349901,-0.005000046065966046
0,0.6325673794413563,-10.042150903159111,-6.2486554183413405,-8.201343718332177,0.0
0,-5.574747117788961,-3.1408312453083265,-7.476081624921718,-9.08902885187619,0.005000046065966046
0,0.17793829599529903,-4.419512043141221,-3.043509296736089,-9.596715127987359,0.010000092131932092
0,-2.619376392744019,-0.5081933045687107,-4.830938443819726,-9.154402561818243,0.015000138197898139
0,-2.566691197339844,4.893124962778633,-1.538369075749046,-8.152091167626999,0.020000184263864185
0,-6.214006130899959,-2.895557248685145,-8.51580120171656,-9.729780958790576,0.025000230329833784
0,-5.161321206192147,-21.994239946481265,-11.563234830443411,-6.807471947828452,0.03000027639579983
0,5.0913635644149995,-10.642923137540986,-4.160669969964897,-1.8251641464734796,0.035000322461765876
0,-5.1459518311840275,-5.631606827657812,-2.368106627564288,-5.272857565846777,0.04000036852773192
0,-3.083267404972653,5.11970897842283,-3.2155448099597512,-3.7905522166262378,0.04500041459369797
0,4.969416831205434,7.911024276381306,1.8170154764543036,-0.2982481091171697,0.050000460659664014
0,-8.827899134353649,0.33233906171835637,0.2095742254410236,-2.745945253322925,0.05500050672563006
0,-10.135215313151914,0.9336533295415101,-7.297868569174717,-5.773643659009482,0.06000055279159966
0,-3.602531716202142,-6.395032925261546,-5.125312913387211,1.428656664319695,0.0650005988575657
0,-6.039848353838698,-7.433719707692524,-11.982758812746136,-7.339044292549396,0.07000064492353175
0,1.2128347641766657,-0.7724070223583293,-6.750206272102842,-5.806746538511518,0.0750006909894978
0,3.1355176284031456,4.998905126543865,-0.6876552955329607,-5.974450082015211,0.08000073705546384
0,-3.4917997705299517,4.270216734917488,0.4348941134708998,-8.112154930932025,0.08500078312142989
0,-5.169117441984092,-2.598472201540876,-8.6025580482794,-6.6598610924910435,0.09000082918739594
0,-6.546435395111697,-3.337161687323861,-7.210011783676617,-3.6775685732596517,0.09500087525336198
0,-6.033753638614131,1.8041482731063716,-2.597467095114861,-6.975277379196013,0.10000092131933158
0,5.518927819307103,7.175457675359718,10.085076015485448,6.097012484220436,0.10500096738529763
0,3.3216089707069556,2.6467665148857162,7.0876175462359035,9.919301011686166,0.11000101345126367
0,9.294289807488369,3.4280747867635397,10.720157494750447,11.131588197557965,0.11500105951722972
0,13.366970321027667,5.019382485675344,11.162695857825021,10.653874035388274,0.12000110558319577
0,12.449650501845598,13.650689605865173,16.795232631256,19.356158517666973,0.1250011516491618
0,8.482330339372853,16.711996140859306,11.307767809649246,18.24844163558079,0.13000119771512786
0,-2.3149901779883804,6.413302083096887,5.810301386349611,1.770723378827085,0.13500124378109746
0,4.347688937498324,9.654607423828068,7.01283335362824,5.663003735822783,0.1400012898470635
0,3.2503676732478652,2.365912153329555,-2.754636296988464,-0.8847173057746507,0.14500133591302955
0,3.7430460164173236,4.62721626118139,6.707892425585894,-1.442439758638516,0.1500013819789956
0,11.215723953794825,12.028519736417556,11.810419512097729,8.869836364422687,0.15500142804496164
0,-4.071598528322581,-2.33017743249267,1.3929449527755442,-2.6178889495599105,0.1600014741109277
0,3.4510785559195662,1.3811247424021116,-1.1545312627561408,-3.635615713752702,0.16500152017689373
0,-3.096244807836757,-9.40757375115895,-2.2520091452106796,-4.713343941316525,0.17000156624285978
0,-7.433568633922807,-2.0262729252622003,-6.999488705267841,-4.101073645129853,0.17500161230882938
0,-6.1908929363987415,-4.174972791595316,-1.9869699533221474,3.4911951622840744,0.18000165837479543
0,0.9417822711463489,-6.453673361410194,-0.8144528993979914,8.813462468550082,0.18500170444076147
0,-0.795543024468081,-2.8023746455251413,-5.191937553212234,0.7157282610750273,0.19000175050672752
0,-1.6628688362319854,7.438923345614185,1.7905760757564033,5.257992526834331,0.19500179657269356
0,5.899804822913686,3.0902206016468408,0.7130879782016855,2.6602552523971497,0.2000018426386596
0,-7.247522059997813,-12.328482887952179,-5.884401855097806,-1.5774835759856656,0.20500188870462566
0,-14.614849497837717,-10.387187133621913,-6.451893433219588,-0.3052239722525978,0.21000193477059526
0,-7.172177502946217,-6.895892145176036,-6.639386764856726,2.887034049608551,0.2150019808365613
0,-5.389506086782074,-7.174597931556171,-5.3468818581334405,-1.1507095244199106,0.22000202690252735
0,-3.966835259986124,-6.93330450090697,-4.514378720579796,1.4415452915750815,0.2250020729684934
0,-7.834165032595354,1.0179881392827488,-4.881877359190217,-6.39620151651591,0.23000211903445944
0,-0.43149541413179937,3.5792799819476286,3.5906222194720376,-6.86394996264703,0.2350021651004255
0,-4.648826413664815,2.170571020097322,-5.176879990890087,1.7082999395898573,0.24000221116639153
0,0.11384196007999792,1.4018612465663727,3.8656160035440608,-2.599451823025128,0.24500225723235758
0,-5.483490301363762,1.503150653974149,-1.28188980336103,-3.387205263484249,0.2500023032983272
0,3.7691767937591107,4.944439234746709,3.4306025822335613,3.31503960537761,0.2550023493642932
0,7.031843237295114,8.145726981038067,5.563093154034106,4.477282770794312,0.26000239543025927
0,1.684509020905045,-5.082986115390539,-0.2344180945072441,3.4595242198467364,0.2650024414962253
0,4.15717413586721,-4.301700063055932,-4.241931170182634,2.6017639392921095,0.27000248756219136
0,-2.9901614268780934,-2.1504148703989086,0.41055392016680226,-0.3359980844292697,0.2750025336281574
0,-0.5974976765504173,6.940869454380872,6.4330371697781885,3.386238134903893,0.28000257969412345
0,-7.344834622312047,3.5821529031067945,1.7755185718108306,0.12847258335753264,0.2850026257600895
0,-1.3921722730682617,-3.57656453263761,4.267998119135172,-0.6292947531330926,0.2900026718260591
0,6.68048936256918,-4.0052828614447415,4.000475804270939,6.912936111255423,0.29500271789202515
0,11.783150275988662,-1.6240020917979527,7.442951619354365,7.145165162133873,0.3000027639579912
0,9.05581045806943,4.397277768043633,8.235425556031311,8.677392384648257,0.30500281002395724
0,7.478469898841147,2.788556709875666,9.54789760529278,12.189617763233537,0.3100028560899233
0,20.271128587370008,11.249834725260346,14.330367757304884,6.921841281452563,0.31500290215588933
0,18.113786511551098,6.471111805247636,6.722836001246998,3.384062921979014,0.3200029482218554
0,3.686443657839794,6.002387940187625,2.5153023253147797,-0.5637173331949734,0.325002994287825
0,-1.2308999885919703,-6.706336880201996,-4.922233282979514,-6.1414995023925085,0.330003040353791
0,1.3917555567494486,-16.475062666385327,-4.159770836322549,-10.47928360382733,0.33500308641975707
0,6.364410278130842,-9.343789428309243,-3.4373103472010285,-3.0070696552221583,0.3400031324857231
0,-5.782935840345141,-6.482517174924757,-8.48485182770861,-9.274857673634282,0.34500317855168916
0,-2.2302828146794784,-7.741245914194668,-11.40239528940784,-14.64264767540356,0.3500032246176552
0,-7.407630660726307,-5.239975653296688,-8.189940743112679,-7.650439675990805,0.35500327068362125
0,-2.5949793939604255,-7.328706398738874,-9.027488198740638,-10.978233689824684,0.3600033167495873
0,-5.422329029399511,-11.32743815636207,-14.305037665272515,-7.0160297303313035,0.3650033628155569
0,-0.19967958163956967,-7.3161709312445256,-4.192589150717472,-8.683827810036536,0.37000340888152294
0,-19.397031064847106,-11.384904727592883,-8.180142662138902,-6.3616279406458585,0.375003454947489
0,-5.824383492525891,-7.533639548703233,-6.367698205808075,-9.819430133095217,0.38000350101345504
0,-5.401736877258407,-13.632375396941743,-5.775255787316573,-1.7772343975839258,0.3850035470794211
0,-11.83909123073734,-3.52111227372442,-10.562815411594437,-6.43504074366245,0.39000359314538713
0,0.7935534360852599,-2.559850179615438,-2.6303770828812985,4.637150819590047,0.3950036392113532
0,2.2761971128238434,0.9214108853848919,4.632059195183937,3.599340283297666,0.4000036852773228
0,10.00883978926888,1.5026709215065464,4.984493419206202,4.941527638464884,0.4050037313432888
0,8.99148145488129,2.363929928978385,8.33692558557835,6.9637128757282865,0.41000377740925487
0,6.284122098439717,7.065187907867184,7.219355690167899,7.815895985210828,0.4150038234752209
0,6.156761707946094,5.626444857905238,4.701783728183406,-0.3019230435496104,0.42000386954118696
0,11.299400270673189,5.477700778329047,14.734209694131616,6.370255778468232,0.425003915607153
0,4.232037773161627,4.838955667820515,9.93663358170344,8.442432439857404,0.43000396167311905
0,6.264674201208894,7.6002095245173775,11.729055383577347,6.414606928693327,0.4350040077390851
0,8.167309539943611,13.541462345945416,10.23147509133506,9.226779232377416,0.4400040538050547
0,15.20994377380153,16.892714128769065,11.483892695477937,10.92894933754114,0.44500409987102074
0,21.592576886240412,12.763964868454085,13.046308185429323,10.691117229940103,0.4500041459369868
0,6.60520885935926,13.045214559083435,8.458721549503508,7.923282894358317,0.45500419200295283
0,19.09783967377049,13.08646319338234,10.861132774923277,6.1254463146367275,0.4600042380689189
0,10.300469308699714,9.177710762811444,11.523541847880628,4.687607473822231,0.4650042841348849
0,3.6830977421095987,9.968957257673479,12.81594875352724,4.339766354339428,0.470004330200851
0,-1.714275048998882,8.410202667243992,6.448353475925597,7.431922938093255,0.475004376266817
0,-4.411649088057207,3.801446979903421,2.8807559981490076,6.534077206457954,0.4800044223327866
0,-4.839024398449655,-4.467309816639049,-3.296843697396721,4.806229140213704,0.48500446839875266
0,-8.456401003211509,-10.436067734906604,-7.144445628523234,-5.381621280389696,0.4900045144647187
0,-8.263778924825916,-2.7148267871319316,-5.47204981282217,-5.969474075315,0.49500456053068476
0,-14.081158185036486,-8.81358698496138,-14.129656267345117,-5.957329264303519,0.5000046065966508
0,-8.358538804655355,-5.8523483394102955,-12.14726500832792,-4.22518686660596,0.5050046526626168
0,-18.245920803413433,-13.241110860819663,-12.174876050946253,-3.883046900950749,0.5100046987285829
0,-6.953304199855269,-6.659874558722212,-10.202489409195717,-7.860909385588081,0.5150047447945525
0,-8.070689011352378,-14.56863944171991,-12.67010509591829,-3.648774338273566,0.5200047908605185
0,-16.178075254231366,-7.097405517415521,-11.617723122835432,-1.5866417762568168,0.5250048369264846
0,-15.035462943758407,-9.216172792407823,-14.695343500509225,-5.234511716368571,0.5300048829924506
0,-15.81285209390713,-14.504941272328288,-13.882966238264963,-8.682384175064646,0.5350049290584167
0,-4.470242717246969,-12.40371096178164,-13.020591344114075,-6.240259168299293,0.5400049751243827
0,-2.1676348251826876,-9.192481864216782,-9.678218824756112,-4.298136711394383,0.5450050211903488
0,-4.285028428400155,-4.011253981972038,-7.755848685704415,-2.7960168190788184,0.5500050672563148
0,-3.782423537173898,-4.220027316536351,-0.15348093152740722,1.2161004943410214,0.5550051133222844
0,-7.129820161406715,-9.328801868793033,-5.321115566159787,-9.521784785168165,0.5600051593882505
0,8.512781689377382,7.212422360865714,-0.6187525931476091,3.040327328623625,0.5650052054542165
0,0.9653820058188106,-10.116354627598557,-5.666392015743608,-3.04756317777393,0.5700052515201826
0,-1.0520192215736568,-5.855132833952783,-5.2940338368778495,-3.5754563176417338,0.5750052975861486
0,-10.259422002401497,-9.863912257510679,-5.571678059060633,-4.093352104053475,0.5800053436521146
0,-2.6868263460373423,-0.702692896924928,-2.959324684315545,-0.2712505497951375,0.5850053897180807
0,3.6957677385837466,2.1885252497199437,3.183026285754398,1.4608483326000976,0.5900054357840503
0,5.378360242758264,6.489742184548011,8.775374849690547,6.632944530654493,0.5950054818500163
0,4.1509511576191755,-0.11904209047641155,7.787721005763615,1.2650380316992242,0.6000055279159824
0,5.583540473894815,10.732172426261972,11.940064751601037,5.757128822723396,0.6050055739819484
0,10.076128181810438,11.213385735882326,11.932406083950553,7.079216890316193,0.6100056200479145
0,-4.23128572896577,2.1245978387886804,4.4947449985614245,0.19130222061175092,0.6150056661138805
0,0.051298730807616544,5.095808734632605,-0.4529185096962585,-4.756615200638038,0.6200057121798466
0,-4.196118449728038,-0.42298157747238074,-2.1705844464578012,-3.4045353877591005,0.6250057582458126
0,7.306462718665321,7.318226901247199,7.431747182485724,0.8875416451261641,0.6300058043117822
0,7.229042225182821,14.979434169173597,10.074076371162942,0.47961588410976036,0.6350058503777483
0,-1.0783799413161532,7.470640223990856,2.706403113123508,0.9716873153456467,0.6400058964437143
0,1.4341962076301609,-2.1881549375082363,5.198727401286751,0.5137559249425092,0.6450059425096804
0,8.636770660212843,4.4230486808129585,4.9610492280230165,5.4558216989107775,0.6500059885756464
0,10.87934340427866,8.77425107473688,7.69336858521921,10.22788462302037,0.6550060346416124
0,0.47191442706169573,4.8554522396488276,0.14568546424947962,5.329944682541968,0.6600060807075785
0,-7.2155162847889525,7.546652170355364,3.5679998560289135,2.6920018620904904,0.6650061267735445
0,6.737051255177728,10.547850860996553,11.44031175109345,10.224056145676071,0.6700061728395141
0,-3.3203829665471307,3.4890483049874055,2.012621139507748,-0.053892483230259636,0.6750062189054802
0,-2.047818963451095,2.5502444950439176,0.9549280107743723,1.2281559583649364,0.6800062649714462
0,4.674743250999787,3.1314394233702605,-2.4627676459833805,4.620201453133646,0.6850063110374123
0,-3.502696336636914,-1.7873669181367564,-3.5104658417176644,0.7322439835251024,0.6900063571033783
0,1.5098622601703588,7.733825462218234,1.7918334127515694,3.9742835317481755,0.6950064031693444
0,1.1524190279362156,7.595016555869394,1.0941301067336742,4.356320079741614,0.7000064492353104
0,2.444973953134855,8.276206353757871,-1.0135757704450794,-5.061646390822145,0.70500649530128
0,-3.5324729778554658,1.3773948461595402,-6.021284229461132,-8.269615898357458,0.7100065413672461
0,-1.5299217786885562,4.60858202275467,-8.238995280793539,-2.0475884610102337,0.7150065874332121
0,3.0026275370639848,4.829767872783764,2.8232910654999994,-3.415564096456919,0.7200066334991782
0,-1.7948250441044544,1.0709523851106955,-0.44442520025139365,-4.853542821954184,0.7250066795651442
0,-0.18227953570679734,2.5921355482606834,2.937855912409163,-0.9415246544098597,0.7300067256311102
0,-1.1997359512427108,7.553317350464995,3.0701343938465837,-1.4895096104268046,0.7350067716970763
0,11.412805695780051,10.844497779554366,12.762410234158027,7.3225022935571875,0.7400068177630423
0,7.8953453915872736,11.695676822679275,11.054683422882722,5.094511041001876,0.7450068638290119
0,5.457883121792339,11.826854466037076,10.846953948665417,6.876516614975627,0.750006909894978
0,15.160418871224472,8.178030694750298,8.949221799099499,6.3885189979850825,0.755006955960944
0,13.80295262379903,3.5192054929377354,10.121486960755256,4.290518171935375,0.7600070020269101
0,-1.4345156376323156,-0.6396211560210705,3.303749419277912,1.0525141181889088,0.7650070480928761
0,7.318014068867706,1.511550730859628,2.33600915956339,-2.2454931822580937,0.7700070941588422
0,-2.1194582753060196,-4.647278863554801,-4.991733833938041,-10.433503748472969,0.7750071402248082
0,-8.88693268896905,-7.38610995630207,-5.759479576848603,-5.621517599204483,0.7800071862907778
0,-2.0344091908001407,-0.36494256410087433,-1.847228084533358,-0.9095347526295834,0.7850072323567439
0,-6.971887799054384,-14.123776703201317,-12.654979371918165,-6.187555226392321,0.7900072784227099
0,0.9506314684802357,-7.752612389240806,-7.152733453338171,-1.235579037744864,0.795007324488676
0,-16.19685140554918,-14.061449637012693,-14.660490342323081,-14.233606203540258,0.800007370554642
0,-8.144336437905414,-1.9202884603266748,-9.998250051404215,-4.5716367400557365,0.805007416620608
0,-9.091823644485977,5.300871127810355,-0.966012592076936,5.330329337098033,0.8100074626865741
0,7.290686959674838,5.272029114690072,3.706222024930975,4.972292012671433,0.8150075087525401
0,14.883195359902816,0.003185487414802457,6.5284537891290775,-0.03574872870272361,0.8200075548185097
0,3.745701541144351,0.6043402327726537,2.58068268980146,0.6862070973214439,0.8250076008844758
0,1.4182054875796235,-0.1245066626227681,-1.3870912841459264,0.7681594749162148,0.8300076469504418
0,-5.279292817157671,-4.94335521217908,-2.6048681440313337,-3.279891611799341,0.8350076930164079
0,5.163206610430422,11.23779457073792,3.9573520988129545,3.922053821305266,0.8400077390823739
0,0.9057037538456469,6.678942672628192,-0.5404305669255721,-0.1860042416369051,0.84500778514834
0,0.07819859649862582,2.3600890795252223,1.7617838473711556,1.1159341834368932,0.850007831214306
0,-1.809308878317811,5.601233776883472,0.6739953302149968,0.7278690804889654,0.855007877280272
0,2.4031813126630386,1.7623767496924807,1.0762038700152536,-2.940199566578221,0.8600079233462417
0,-4.144330847267768,-8.136482017353535,-4.321590544878501,-5.468271773809988,0.8650079694122077
0,-3.981845374737988,-6.005342539541271,-5.349387926047768,-9.506347556977717,0.8700080154781737
0,-0.989362286167623,-7.664204831744374,-4.2171882847904145,0.3955730686432113,0.8750080615441398
0,-3.7668815976984256,-2.4630689082279016,-2.3349916319919584,0.3474900882639863,0.8800081076101058
0,-5.5144033251889955,-1.3219347827130985,-6.95279797812971,-6.070596512625365,0.8850081536760719
0,3.2280725158030994,0.29919753142223166,-3.7006073332668055,-2.6486867483352983,0.8900081997420379
0,0.6405459099368083,3.3803280209272564,-1.618419707031881,0.5732193670956133,0.895008245808004
0,3.793016841871589,-1.5385433274855167,0.7237648913011024,-2.74487818012598,0.90000829187397
0,0.9554852961006097,-0.0974165271880909,-2.164053547354246,-4.952979403615885,0.9050083379399361
0,0.8579512569147575,-1.1962915915708856,5.88812496796752,5.438915683199972,0.9100083840059021
0,-6.589585291507424,2.394831466010758,2.960300428140699,4.430807066980561,0.9150084300718753
0,6.622875635055729,-2.6440473677852543,-0.8775271761905914,-2.907305265766688,0.9200084761378413
0,-0.6146659791182874,-4.192928106269077,1.504642145387055,1.764578671261534,0.9250085222038074
0,3.447789850155058,-0.6918107625986067,8.48680838312665,2.956458864272766,0.9300085682697734
0,-2.1697568931080577,3.1393046502687683,1.4489715270123356,0.6283352993781292,0.9350086143357395
0,-7.367306224946181,-2.379581880543182,-4.86886843331851,-5.219792037428121,0.9400086604017055
0,-3.554858161197395,-2.118470367911571,2.213288491607669,2.932076839851918,0.9450087064676715
0,5.397587282655363,-1.8873608246359934,3.9354422912777656,2.443941917287124,0.9500087525336376
0,-4.169969908655291,-5.696253263319358,-0.5324070448849696,-0.06419681909639868,0.9550087985996036
0,-3.987529750335602,-6.015147696253722,-0.1302595276121984,-0.3323393833980023,0.9600088446655697
0,-1.2050922574454117,-3.3240441352983834,0.7718848322745283,-1.4704857897749277,0.9650088907315357
0,-2.832657444783789,-7.822942591812971,-3.6559739760509498,-0.4686360523469848,0.9700089367975018
0,0.5397746730821011,1.0681569233285342,-1.4838359633375122,1.1732098148325276,0.9750089828634678
0,2.9622040817123185,0.4492543996273045,4.138298859792803,2.5050517977214257,0.9800090289294339
0,2.194630766636438,-1.6296501732449877,4.0204304827300925,4.156889882168699,0.9850090749953999
0,-4.04294528674772,-2.5685568055564416,0.712558894670715,3.2987240537848406,0.9900091210613731
0,-2.1705240930871956,-4.737465507441026,-4.8453159154169905,0.8905542978745723,0.9950091671273391
0,-0.1581056668976285,-5.946376288750994,-2.293193958580591,1.3823805994755376,1.0000092131933052
0,1.7043099774616297,-6.925289158905603,-4.261075245650122,-1.9357970565346423,1.0050092592592712
0,-1.7532771743153717,-1.8042041267966782,5.211040212812064,0.26602131467485973,1.0100093053252372
0,10.439132863399259,3.666878799132461,3.8631524063348897,7.5678356979139965,1.0150093513912033
0,-0.7684599239934333,-1.552040389370855,-3.644738675696789,0.38964607783500876,1.0200093974571693
0,-1.7160555514111189,-0.4909617005657356,-4.912633044021943,5.671452438775071,1.0250094435231354
0,3.9363459660303994,0.4401148572753429,3.529469290727052,16.86325476463032,1.0300094895891014
0,-0.6812553868588802,-5.158810724065022,-2.3184316819114454,2.2050530386101435,1.0350095356550675
0,-1.1488596253422538,-8.557738452621734,1.9736640276601338,-6.093152756849134,1.0400095817210335
0,-1.0164667647091894,-0.9066683360347163,0.8457564090140606,-1.081362639682017,1.0450096277869996
0,0.9959231798032847,0.11439961851261964,2.767845451646812,0.3004233722677566,1.0500096738529656
0,8.698310192951219,5.725465404072244,7.009931144883122,3.30220526130345,1.0550097199189317
0,8.780694259219576,6.9265290135850615,8.432013477688585,0.28398300969868023,1.0600097659848977
0,9.223075362488913,9.847590439556063,8.904092438442172,8.32575659954808,1.0650098120508709
0,3.4454534858545913,7.718649673811189,6.996168014768608,-3.4724739873279624,1.070009858116837
0,7.607828611677815,10.609706707360155,3.3482401935265718,-4.000708769331266,1.075009904182803
0,0.3802007217297095,5.630761530355702,1.9403089609591733,-7.758947764796664,1.080009950248769
0,-3.137430202628115,-5.398185867788722,-8.707625697031457,-12.457190991614109,1.085009996314735
0,-4.335064180150763,-22.027135497904915,-17.48556379442104,-16.075438466870377,1.090010042380701
0,-9.322701229372159,-11.686087370221978,-10.893505344441525,-12.0436902065191,1.0950100884466671
0,-9.72034136830781,-13.375041493701309,-8.361450359170277,-5.381946225250062,1.1000101345126332
0,-4.857984614241147,-7.30399787593798,-6.239398849564757,-9.170206536658856,1.1050101805785992
0,-2.685630983712421,3.6770434765361872,-2.1773508257434853,-2.908471153512315,1.1100102266445653
0,-4.333280492699954,1.5980825577530893,-2.215306297257436,-2.8567400879497016,1.1150102727105313
0,2.5090668431845646,-8.340880638117849,-7.683265273276118,-8.775013351624931,1.1200103187764974
0,-4.378588991452486,-8.529846116756392,-3.7212277625855714,-6.913290955705175,1.1250103648424634
0,-3.7462480118444645,-4.328813883364015,-4.22919377350943,-1.5815729107717813,1.1300104109084295
0,-3.4239102329876996,-2.7677839425156847,-4.947163313901069,-4.449859226856855,1.1350104569743955
0,-7.951575669518117,-8.756756298248671,-9.805136391141737,-9.278149913548155,1.1400105030403616
0,1.1307556643570165,5.044269045840851,0.8368869879276877,2.7335550200190464,1.1450105491063347
0,-0.1769162451978773,-1.4047079135442881,-0.8010931830461888,-1.0547444348937378,1.1500105951723008
0,9.145408588102342,6.4163128203399635,3.88092308981916,3.44695171313283,1.1550106412382668
0,3.857730150324141,2.387331244048654,3.172935800360115,4.398643455435891,1.1600106873042328
0,-0.9799515728905532,-1.7816526461416384,3.694944942185571,0.17033078312746516,1.165010733370199
0,12.042363403688098,11.799361145782845,14.78695050852078,10.992013687010411,1.170010779436165
0,6.974675064840949,10.220372615453654,11.088952491924317,9.863692157425474,1.175010825502131
0,11.896983394665794,8.361381757800771,8.440950883986892,7.635366183994273,1.180010871568097
0,10.579288376365888,10.812388566834926,9.202945675248793,12.417035755447857,1.185010917634063
0,7.93158999215943,5.463393035643784,12.074936855283955,9.208700859572811,1.1900109637000291
0,-6.606111776605634,-4.075604843453948,-2.203075587222987,1.0503614832254882,1.1950110097659952
0,4.9361830509280615,4.585394921418208,1.0589083357423958,1.6020176125416723,1.2000110558319612
0,-0.8815255445115802,-0.9636076780192454,-5.919111388063266,-3.966330766695953,1.2050111018979273
0,-9.649237582185432,0.22738734987476988,-1.51713477079007,-4.814683668718946,1.2100111479638933
0,-0.9769530811604858,-1.9316200033041353,5.424838175620198,10.54695889239366,1.2150111940298594
0,2.0553279398509905,2.7393702540574463,4.5468074392592435,14.598596902479768,1.2200112400958325
0,-12.51239453756077,-4.40964188639608,-15.341226991923518,-13.269769653141267,1.2250112861617986
0,-17.040120531389952,-2.268656432953778,-5.979265129858736,-7.178140789543999,1.2300113322277646
0,-2.6078500587866866,1.3223266062490069,0.22269301408513537,5.043483478406036,1.2350113782937306
0,-8.475583135871439,-3.566692776760457,-7.105352570858491,-17.4248968636769,1.2400114243596967
0,-15.72331977787589,-7.365714589789111,-14.31340189496613,-13.303281829601854,1.2450114704256627
0,-13.081059999092934,-10.27473884028987,-11.991454967801179,-14.201671432210109,1.2500115164916288
0,-9.998803812638892,-3.283765535098101,-7.6095117978945614,-3.580065683095631,1.2550115625575948
0,-5.686551230439663,-4.352794680365858,-4.247572392735034,-1.8784645928050314,1.2600116086235609
0,-5.194302263471888,3.4781737182545145,-2.6756367590368764,1.3131318287104674,1.265011654689527
0,3.5279430779239256,2.4991396553120913,-1.243704903026842,1.2547235717022724,1.270011700755493
0,4.1101847836852725,11.4201031252248,2.51822316933225,3.036310626392341,1.275011746821459
0,-6.347577156279101,0.9310641219770152,-5.509852547816847,-0.8521070171325155,1.280011792887425
0,1.7546572478787201,3.42202263901063,7.832067939712632,12.289470631011008,1.285011838953391
0,-8.333112013875745,6.942978669314428,-1.3560153739300729,6.481043560316987,1.2900118850193572
0,-0.6908849513029852,-1.0960677945022117,2.885897505254481,6.9926117596325135,1.2950119310853303
0,-0.6486615738431659,-4.345116760119614,1.3178065710794464,5.684175217068865,1.3000119771512963
0,-5.966441890666853,-4.684168235233331,-6.210288182757736,-2.164266079875919,1.3050120232172624
0,-6.154225910670689,-2.733222227265507,-4.218386762490944,-0.48271214406556096,1.3100120692832284
0,-2.7120136423470513,1.8577212567009926,1.033510825918007,2.318837011531886,1.3150121153491945
0,-3.0398050937296914,-1.9013377902102993,-1.3045954232124402,3.840381373904265,1.3200121614151605
0,1.1323997275006434,-8.63039937474959,-8.482705515376614,-3.818079070090603,1.3250122074811266
0,-1.2153991861427362,-7.209463503372194,-0.9708194558077973,-2.2165443336822555,1.3300122535470926
0,5.516798157897822,-4.488530181980752,-1.1289372493755347,0.04498556998528708,1.3350122996130587
0,5.9689917520455635,0.4024005841150284,-0.027058900670791364,1.1865106279102642,1.3400123456790247
0,-6.98881841155782,-5.636671209978898,-9.125184414111509,-9.961969172801728,1.3450123917449908
0,2.8333676590366896,-2.6857455688638754,2.716686206124639,0.6995461551622422,1.3500124378109568
0,3.3455499557658004,-0.7748224968481564,5.6685529560999885,0.2310565994314495,1.3550124838769229
0,3.2577284704945484,7.316098001967681,0.0004158318616124812,3.482562147818156,1.360012529942889
0,12.959903194781834,9.037015923377504,6.202274829201107,8.214062788034955,1.365012576008855
0,9.252074119596202,4.92793126269358,5.93412994356885,3.8255585074340206,1.370012622074828
0,-1.9857587648802304,4.738844014575051,1.2059811700022143,0.5770492928846163,1.3750126681407941
0,1.4764045309016427,0.8597541731164764,-1.9521714968463526,-5.721464869084236,1.3800127142067602
0,5.198563996190923,-0.41933826795447016,1.6796719374850906,-3.5499839919467457,1.3850127602727262
0,5.560719620014222,5.711566684888575,3.9715114673999174,-3.518508088897656,1.3900128063386923
0,-1.8571286089397034,6.8224690249569635,6.793347087142937,-1.0370371727742047,1.3950128524046583
0,3.355019297704367,10.883368745125804,8.825178790565886,3.2544287438416104,1.4000128984706244
0,0.8871633281353128,4.614265837591825,6.017006570912418,-1.7141103515557983,1.4050129445365904
0,0.5893034704053242,0.7951602938353767,2.3788304207545043,0.04734552849716737,1.4100129906025565
0,-3.908560287526255,3.2760521048229947,3.82065033210626,0.4987963714496099,1.4150130366685225
0,6.153572042293124,0.52694126123,0.47246629659901707,-0.3997578352388725,1.4200130827344886
0,-2.46429955219538,-4.302172246421426,-1.1357216943743735,-5.948317104071659,1.4250131288004546
0,2.457824916862359,8.308711572340782,4.416086350453414,-0.9068814473995918,1.4300131748664207
0,0.39994543722057996,8.039592707861623,2.3178904222361223,4.174549122647116,1.4350132209323867
0,1.08206199655036,2.2704711500750365,-2.8403094880477187,1.3059745940090746,1.4400132669983527
0,-3.415825417541741,2.2913468883756827,3.0214866104440254,1.1673949544937958,1.445013313064326
0,-4.523716817403538,-4.9977800881964605,-2.646721291480392,-4.511189808236019,1.450013359130292
0,-2.0516122151625966,-6.946909790625761,-5.964933202970996,-9.129779706452128,1.455013405196258
0,-7.7895116226091,-10.516042229549537,-7.943149132941812,-8.408374752024265,1.460013451262224
0,-8.027415051087747,-6.895177414946532,-2.401369089834742,-2.936974956163362,1.46501349732819
0,0.15467748861377167,-1.1743153560359614,-0.40959308158007013,4.264419670522182,1.4700135433941561
0,-6.503234013762501,0.8965439385360482,-3.9478211157557297,-2.6641908822960487,1.4750135894601222
0,-2.5311495680619265,2.6574004603603187,-1.9360531997098205,-2.332806624900399,1.4800136355260882
0,-1.3190691837784072,-0.30174579899742277,-5.864289340540005,-7.181427567461356,1.4850136815920543
0,1.5230071298670256,-0.7808948480712404,-5.882529544995064,-8.970053719795834,1.4900137276580203
0,-0.9349206362282919,-1.280046695427221,2.079226180591852,-5.538685091133128,1.4950137737239864
0,-0.6128524911490303,-3.969201349556908,-0.699022169787646,-6.70732169001017,1.5000138197899524
0,0.22921155603834503,3.151641181193657,0.4627253979711916,-3.3159635243158,1.5050138658559185
0,-6.53872850366141,4.832480888553217,3.814468877953254,-3.2346106014039444,1.5100139119218845
0,-6.506672679033363,-0.40668223587583263,0.2262082641365734,-5.793262928196358,1.5150139579878505
0,1.6753790215231459,8.834151799236217,2.64794355032818,1.0380794887598115,1.5200140040538166
0,-2.052573410024029,1.59498298487249,-3.42032526981071,0.009416643202570019,1.5250140501197897
0,-2.9205299815027383,5.515811311600989,-4.338598202634464,0.4307485289899434,1.5300140961857558
0,-6.468490700555693,7.406636769539691,-6.236875254294764,-5.807924859985498,1.5350141422517218
0,1.9735444254656853,3.6174593483100743,-0.755156430560765,-5.056603529681265,1.5400141883176879
0,-3.5344246104960857,-0.5817209629658976,-1.8134417368193947,-2.5552874857145533,1.545014234383654
0,-2.0023978152975896,2.209095824489053,-4.251731178180373,-6.413976733277784,1.55001428044962
0,-10.050375195564918,-8.080090300665255,-8.280024759477325,-7.522671277109513,1.555014326515586
0,-5.808356757496697,-2.2792793496461288,-1.5583224851287127,-1.5813711214281898,1.560014372581552
0,-4.296342506686306,-3.6384713333486474,-6.806624359056313,-2.7800762699502855,1.5650144186475181
0,-0.3343324481519142,-11.597666262241935,-7.384930384687531,-1.128786726037633,1.5700144647134842
0,6.51767341341661,-3.3368641462549977,-0.4532405649290224,4.502497507133767,1.5750145107794502
0,6.03967507328655,4.56393500526299,5.918445097733173,6.213776426359098,1.5800145568454163
0,8.921672526319602,-3.745268816699178,6.010126600867142,6.915050028119983,1.5850146029113823
0,9.123665766726855,-0.31447562107455235,1.3218039417293124,7.256318308355824,1.5900146489773483
0,9.385654787928436,1.2863145832501244,9.873477117122155,10.407581262334519,1.5950146950433144
0,5.057639582496554,0.2171017874298356,2.8851461233582767,8.48883888454759,1.6000147411092875
0,1.0596201422562208,-5.802114017366821,-4.61318904372078,-6.629908831278777,1.6050147871752536
0,2.8415964585188918,-10.35133283980378,-3.4315283884930095,-8.218661891814595,1.6100148332412196
0,2.86356852229086,-11.500554688024796,-3.149871915197473,-6.217420303519855,1.6150148793071857
0,-0.9444636756453486,-12.589779569298445,-4.5982196277454985,-8.566184072240965,1.6200149253731517
0,-0.1125001446647179,-6.869007489837218,0.4434284702840767,-6.124953203110775,1.6250149714391178
0,-0.5305408941884666,-6.8682384548418165,2.125072375556833,-0.8237277005936396,1.6300150175050838
0,-8.488585933563272,-9.657472468659266,-2.673287915182436,-3.4725075686425524,1.6350150635710499
0,-5.046635271870324,-5.666709534872225,-1.4616524051763706,-5.6312928108602085,1.640015109637016
0,-4.314688917718956,-3.595949656341351,-6.770021097547553,-7.540083430482118,1.645015155702982
0,-4.052746879193578,-7.09519283531276,-7.728393995100383,-7.2188794302208725,1.650015201768948
0,3.809190836028985,-12.134439073457777,-8.376771100101601,-8.967680812125021,1.655015247834914
0,-7.778875779489406,-10.743688371705387,-10.525152414092508,-7.226487577499125,1.66001529390088
0,-6.14694673297557,-4.792940730056136,-6.323537937785953,-5.77529972688734,1.6650153399668461
0,-4.885022031259233,-7.232196147618164,-2.961927671086923,-3.4641172601457666,1.6700153860328122
0,-7.313101680616354,-13.721454622729869,-3.1103216132694143,-1.4429401765957897,1.6750154320987853
0,-12.541185686693606,-14.950716152858,-12.69871976312908,-3.291768475192501,1.6800154781647514
0,-10.569274054343847,-14.059980734312912,-7.027122118885776,-2.0206021546262463,1.6850155242307174
0,-15.717366787400636,-14.08924836205264,-9.435528677973409,-4.709441213333063,1.6900155702966835
0,-10.665463888514445,-10.318519029668211,-13.173939436929654,-5.778285649436349,1.6950156163626495
0,1.2664346408249338,-6.467792729511759,-3.6923543913566386,1.502864539313368,1.7000156624286156
0,1.8783287999211111,-10.16706945291034,-2.7307735359960175,2.10400935545418,1.7050157084945816
0,-0.6397814116542141,-4.206349190344593,-4.659196864982178,-4.104851198387591,1.7100157545605477
0,4.18210400562598,6.784368068357706,-2.6676243720481483,3.3462828804157367,1.7150158006265137
0,1.6039850511465477,-5.004917666325355,-2.696056050588443,0.6474115944959202,1.7200158466924798
0,-5.984138275857265,-9.854206383817342,-6.3844918936644035,-3.801465053542963,1.7250158927584458
0,-9.412265976105703,-10.28349807319595,-10.992931893922703,-9.690347061025374,1.7300159388244118
0,-4.100398049910041,-8.842792722793934,-5.691376043394486,-5.229234424905303,1.735015984890378
0,4.271465502972937,1.9079096799054613,0.7301756665991705,2.551872858417715,1.740016030956344
0,1.6933246830864286,-1.1713908519868115,2.0817232452186594,0.522974792928935,1.74501607702231
0,0.2651794909322256,-6.230694305084897,-1.6467332982343361,-2.9459286172880397,1.7500161230882831
0,-1.5029700731262765,-5.04000066577067,-5.145193954449079,0.5351626318694516,1.7550161691542492
0,-2.101124008753052,-4.9393099200284025,-1.9536587139705806,-0.843751455424496,1.7600162152202152
0,-0.33928231552032295,-0.8986220533739883,2.677872432902721,-0.5926708749225835,1.7650162612861813
0,5.922555007083235,5.402062949007302,7.63939949596568,10.028404377611569,1.7700163073521473
0,6.9943879594549845,0.19274510198084438,4.040922484785794,9.919474306148645,1.7750163534181134
0,-5.233783458341669,2.2034244202487514,3.1124414084792242,3.300538914050947,1.7800163994840794
0,-4.761959246484132,-2.725899081657262,-4.426043724235291,0.9415982039917123,1.7850164455500455
0,-2.240139405036103,0.25477461074140195,2.245467095194592,6.042652178161294,1.7900164916160115
0,-0.5183239337438709,1.085445511955073,2.3869738753150136,3.0737008384089726,1.7950165376819776
0,2.1434871678747904,2.0761136364992834,1.0284766246146353,4.27474418621942,1.8000165837479436
0,0.3752939003505712,5.516778998775441,0.2999753514384822,-1.5642177772823782,1.8050166298139096
0,-1.4529037358385222,0.4474416129443377,0.9914700640100491,1.7068149487884132,1.8100166758798757
0,4.398894259731334,5.288101492865175,6.632960770437425,5.417842365176415,1.8150167219458417
0,7.900687887360019,7.978758652056156,9.394447478561315,3.1588644724248347,1.8200167680118078
0,2.652477147010953,-0.11058689639551389,1.9559301957134512,-0.980118729224088,1.825016814077781
0,2.6242620381802446,-7.689935139776518,0.10740892866340956,-6.649107239721437,1.830016860143747
0,-1.2339574400085886,-3.039286065389638,-6.201116316120956,-11.518101058860369,1.835016906209713
0,1.3778187113809808,-4.808639660199722,-1.7896455321197822,-11.217100185837742,1.840016952275679
0,8.32959049116681,-0.767995910750741,-0.30817871255746015,3.4038953809906776,1.8450169983416451
0,1.641357897916966,7.082645196685218,9.17328414951174,3.0248856438984943,1.8500170444076112
0,-4.8968790701403755,6.883283675785609,-2.1652569390855714,-2.0141293946831493,1.8550170904735772
0,7.6048795850244275,8.153919539799658,3.186198028193433,-0.4431497323963997,1.8600171365395433
0,8.396633861292715,4.9745528013285405,4.077649057647621,-0.2021753668922705,1.8650171826055093
0,4.678383756144721,-1.7848165276451873,-1.500903844633592,-4.021206295745504,1.8700172286714754
0,-3.5698707334940267,0.6858115644779168,-5.7094606727047275,-6.940242516360183,1.8750172747374414
0,-14.25812961094503,-4.523562910797693,-5.5980214205080605,-11.199284025748785,1.8800173208034074
0,-11.536392879148647,0.11706005813045617,-7.346586081587084,-13.828330820214124,1.8850173668693735
0,-10.664660540118314,-6.67231951693814,-11.455154648882264,-10.767382895054174,1.8900174129353395
0,-5.8629325947829205,2.678298376043816,2.256272885369349,-2.126440244471569,1.8950174590013056
0,-3.0212090431524827,-7.0210862506304315,-3.8523034704682604,-8.025502861770107,1.9000175050672716
0,6.9905101153387115,-0.6004733844287475,2.5491162922878816,4.6154292603378355,1.9050175511332448
0,3.012224881384663,0.5301369874236797,1.5505321824040563,8.036356129389064,1.9100175971992108
0,4.7939352554315855,6.260744877827486,12.381944208521483,19.557277752645398,1.9150176432651769
0,4.285641237520729,9.83135029950929,7.523352378837926,10.85819413646919,1.920017689331143
0,-4.102657172676939,0.9019532647126511,-3.2952432991170237,-4.78089471395071,1.925017735397109
0,-4.9309599756523,6.962553785101634,-3.823842818296839,-0.35998879422863445,1.930017781463075
0,-0.4892671717570415,5.773151871825786,-0.04244617169764375,2.2909118998069897,1.935017827529041
0,1.6824212389131392,9.943747535496643,6.358946647818232,5.541807372301709,1.940017873595007
0,-0.4858947436121604,0.40434078609585744,-2.2896643526365725,-2.617302372763751,1.9450179196609731
0,-9.284215119255961,0.4749316330456801,-3.198279166081727,-2.31641733158685,1.9500179657269392
0,-4.822539887704506,-1.3144799145270136,-3.3368977855108386,-4.965537500331756,1.9550180117929052
0,-3.8508690481632386,-0.8838938475459264,-0.5255202036975581,-1.354662874918755,1.9600180578588713
0,-4.039202599313943,7.77668984307391,3.9258535867853794,8.19620654896857,1.9650181039248373
0,1.1624594605677168,7.15727116624514,3.817223593367655,7.6170707755852485,1.9700181499908034
0,-11.785882866480225,-1.7721498695370252,-0.33141017672359097,-0.6820701912312409,1.9750181960567694
0,0.9957704219413479,2.528426743804861,-1.2800477164753565,-3.671216348074018,1.9800182421227426
0,10.047419328572328,8.649001014076653,9.051310980995527,5.079632308311782,1.9850182881887086
0,-3.4709361438274144,0.6795729487771134,1.4426659223737723,1.9804757811495515,1.9900183342546747
0,-4.929295992702457,-4.019857444953811,-2.115982885973797,6.271314073484388,1.9950183803206407
0,-1.9976602154902379,0.610709839867121,0.9753645620989151,5.252147188002901,2.0000184263866068
0,-8.546028809322666,-0.10872518971339451,-2.873291727281567,-0.06702487304394367,2.005018472452573
0,-1.884401770898706,3.191837473405463,0.3880482520870514,1.5837978922300815,2.010018518518539
0,-6.3127790964422035,-2.8876021637213882,-4.410615493482167,1.7046154854986812,2.015018564584505
0,-1.4811607817250003,-2.527044094070968,-2.959282957501331,1.5154279082966244,2.020018610650471
0,-7.959546822105295,-2.6264883105148833,-5.547954133206557,4.416235161994452,2.025018656716437
0,-2.2879372125156263,6.774065194241847,5.143370986483063,4.7770372477195675,2.030018702782403
0,3.403668052513016,6.424616427464467,1.5546924088145697,1.4978341662653154,2.035018748848369
0,4.945268978622355,5.855165396058349,-0.1339898590368881,4.028625918072774,2.040018794914335
0,2.096865571301234,0.8157121063979291,4.99732418992863,6.589412503246882,2.045018840980301
0,-2.7815421642458453,7.136256564382292,0.9486345625201904,5.160193921487933,2.0500188870462672
0,5.05004577700576,13.25679877544472,7.039941265290718,9.10097017196728,2.0550189331122404
0,8.821629399923278,8.427338744328397,13.841244304381906,12.281741253186352,2.0600189791782064
0,13.713208708947137,7.297876474863344,12.682543685212314,18.092507162739107,2.0650190252441725
0,15.034783707663653,16.288411969929,18.883839412092488,16.633267896975944,2.0700190713101385
0,7.896354398498322,5.328945231422954,9.62513148797202,8.874023450772864,2.0750191173761046
0,3.7379207827245917,0.049476260288884466,9.106419914426246,4.194773817641194,2.0800191634420706
0,14.719482860697775,12.95000505675455,14.81770469183073,15.035518990059275,2.0850192095080367
0,7.571040631947773,15.030531620410162,9.708985819459933,9.666258959609769,2.0900192555740027
0,11.342594095074118,11.89105594990069,12.800263295451643,11.276993716865945,2.0950193016399687
0,9.944143247682781,20.78157804259064,14.011537116775637,14.617723251292666,2.100019347705935
0,10.825688086382485,15.14209789436649,8.152807279217168,8.948447551205449,2.105019393771901
0,0.43722860682989495,1.5826154995966824,-2.3859262225067983,3.779166603811481,2.110019439837867
0,-5.36123519600173,6.163130851441668,-0.9746633943313816,-1.4601196045167124,2.115019485903833
0,-5.019703327319767,0.6236439423548099,-4.143404242337869,-0.36941108781375026,2.120019531969799
0,-2.60817579207325,-5.645845235546602,-0.4921487724612738,0.4212921397990136,2.125019578035765
0,1.1733474051562958,-2.7653366901740557,4.61910300953673,7.931990064167702,2.130019624101738
0,1.1748662600016553,-1.9648304292060081,1.1403510979004436,1.3526826709395472,2.135019670167704
0,2.2463807681046104,2.3756735399470488,7.791595486667574,8.023369945382207,2.1400197162336703
0,4.377890924970277,1.8161752099796455,8.752836169481233,9.424051872265506,2.1450197622996363
0,-2.9806032741030757,-5.423325426447637,-6.175926860530581,-11.505271564174592,2.1500198083656024
0,-0.8091018339611262,-5.072828376622981,-6.2046936105696275,-9.2346003799135,2.1550198544315684
0,-3.9676047594175494,-1.2023336475644946,-7.103464087677687,-7.613934590513538,2.1600199004975345
0,-7.606112055066365,-8.421841245903568,-8.842238298345622,-8.963274210736857,2.1650199465635005
0,-0.014623725135409216,-9.821351177805985,-4.961016248370133,-9.132619254498707,2.1700199926294665
0,-5.7531397734356675,-3.5108634488092783,-3.399797942873877,-9.831969734863003,2.1750200386954326
0,-3.721660203407217,-0.8503780637890312,-4.448583386428865,-9.151325664000248,2.1800200847613986
0,-0.0001850181416206964,0.34010497281644864,-6.917372583158814,-13.68068705313881,2.1850201308273647
0,-2.778714220437469,1.190585656729529,-0.9261655367364484,-6.980053912501948,2.1900201768933307
0,-3.6572478128782366,-3.718936016303987,-4.51496225040421,-3.5494262513389496,2.1950202229592968
0,-1.4357857978255064,-6.678460050453624,0.11623727293516622,-7.548804078122859,2.200020269025263
0,-1.8043281773928705,-6.757986449580486,-5.042566969364378,-12.878187400681545,2.205020315091236
0,1.3371250464994107,-0.42751521705103307,-0.711374979709327,-5.717576226089799,2.210020361157202
0,3.178573872002893,-2.9870463557712177,-4.630186760252639,-9.976970560546524,2.215020407223168
0,-3.5899817027823695,-3.816579868329998,-5.2890023128550245,-4.906370409409441,2.220020453289134
0,-2.4185416797926793,-10.506115756999142,-5.817821638993809,-10.25577577727222,2.2250204993551
0,0.9028939391356221,-8.955654023524481,-1.8366447396854073,-9.865186667961702,2.230020545421066
0,-4.185674847674855,-3.5751946689178116,-0.6854716155256221,-12.214603084435334,2.2350205914870322
0,-9.194248041695216,3.8952623064786183,-3.6543022668323872,-7.184025028669331,2.2400206375529983
0,-8.122825643977208,2.9057169026234275,-4.593136693699399,-4.213452501690481,2.2450206836189643
0,0.1985923450550222,-2.9238308805790454,-4.951974895918295,-3.612885503781004,2.2500207296849304
0,1.5500059255101528,-5.133381043301388,-4.0308168728751745,-0.6323240347281253,2.2550207757508964
0,-0.5685849022908832,5.477066414388262,3.4103373764366145,5.088231905943726,2.2600208218168625
0,-2.3671801380113138,5.557511492495462,4.4414878532109645,1.9787823187108615,2.2650208678828285
0,-1.7857797812640932,9.957954190772217,-0.647365441460946,4.409327203826144,2.2700209139487946
0,-0.4243838315250022,2.088394508410594,-2.766222506674645,1.8398665612314482,2.2750209600147606
0,-5.242992288100699,-2.2211675559674657,-3.085083341544896,-6.839599609374711,2.2800210060807267
0,-3.501605150076011,3.8692679959385368,-0.8239479450173837,-9.109071308258438,2.2850210521467
0,-2.9702224162201376,0.1997011623023922,-5.672816315798083,-6.618548535245536,2.290021098212666
0,-1.1988440849636561,-1.1898680587988941,-4.401688452307598,-3.748031289489706,2.295021144278632
0,4.362529845491068,-4.049439669323313,-3.8405643525882014,-5.797519569512842,2.300021190344598
0,-0.13610062302721493,1.130986328878295,-1.1894440142782086,-0.7470133733375761,2.305021236410564
0,-0.7347354887931171,-3.858590065873132,-2.8383274346864256,-1.3665126986166558,2.31002128247653
0,-0.8933747501515329,-4.768168855069478,3.7327853890857705,-0.14601754277741197,2.315021328542496
0,2.2579815945632236,-1.53775003993897,3.3938944599839087,0.4344720968571609,2.320021374608462
0,-4.490666452958704,-2.7173336213944808,1.1049997808034435,3.7049562229740842,2.325021420674428
0,-3.2693188909548745,-1.026919600080841,4.986101354083551,0.915434838160581,2.3300214667403942
0,3.482024282510821,-3.7365079764293885,3.347199182078774,3.985907944812327,2.3350215128063603
0,6.013363069467417,-3.1260987506480458,1.5982932667201215,-0.47362445489556215,2.3400215588723263
0,3.824697471754435,0.7943080773040869,8.779383609597037,2.4968376410179802,2.3450216049382924
0,-1.9639725091543876,-0.12528749233918257,3.390470211894446,-0.7527057656076006,2.3500216510042584
0,-2.222646872031171,-0.974885459264679,2.8615530743174458,1.5077453269724206,2.3550216970702245
0,10.018674384286715,1.3355141768603005,8.27263219710178,3.8881909204118767,2.3600217431361976
0,-0.18000873917491161,-3.0040885836120372,2.513707580027218,-0.231368983780547,2.3650217892021637
0,-3.9186962416618805,1.0463062597132562,3.6747792223987803,7.0390656156924,2.3700218352681297
0,-2.2973881225348904,0.6066987072848128,3.7258471230962593,0.15949471986017694,2.3750218813340958
0,4.173915618962591,2.9670887595456823,2.4569112806490994,0.10991832947253044,2.380021927400062
0,3.5852149836441765,4.2474764168107875,4.8979716932566655,5.8903364450648565,2.385021973466028
0,3.466509972143249,10.097861679101142,6.829028358753737,2.3207490669641717,2.390022019531994
0,7.637800584741935,5.228244545928637,7.960081274499478,2.0711561952096065,2.39502206559796
0,7.699086821251289,3.6686250161654117,3.511130437253299,3.9515578295368714,2.400022111663926
0,0.6303686809054156,0.1390030881304095,1.0921758431961035,-0.6980460305783337,2.405022157729892
0,3.9416461624114096,0.6593787598125084,-2.0067825118693,-5.327655385819741,2.410022203795858
0,-1.1970807358708981,-0.0002479709416202125,1.8042553677244615,-5.147270236793392,2.415022249861824
0,2.0141879842308565,-0.48987710633223197,0.9052894776197933,0.5931094162039778,2.42002229592779
0,-5.204547679185779,-4.369508648538146,-2.223680186572407,-3.9065164267930026,2.425022341993756
0,-1.6732877279539191,-4.359142599590941,-0.7126536292479271,-0.7761477655137483,2.4300223880597223
0,-4.072032163692947,-7.918778961196542,-2.741630854721125,-3.8057845994860178,2.4350224341256954
0,-0.7407809877439744,-5.228417734567643,-2.840611867145777,-4.855426927995396,2.4400224801916615
0,-0.0395342012068397,-9.108058920311915,-1.4995966704675765,0.3749252499701028,2.4450225262576275
0,2.111708194941314,3.742297481572077,2.1914147315654273,6.115271935650956,2.4500225723235936
0,-4.087053800257378,-8.427348528445574,-2.9175776646893086,-4.124386869708516,2.4550226183895596
0,1.8241798122542643,-6.796996949531423,-2.746573862810883,-3.594051164944592,2.4600226644555256
0,-2.574590968395374,-3.37664778039351,-1.6155738662418284,-3.8637209487830897,2.4650227105214917
0,10.656633856938697,17.2036989806681,4.955422321742339,7.026603780296057,2.4700227565874577
0,7.447854287171662,9.014043335219592,4.196414697866542,5.406923023862553,2.475022802653424
0,10.809070320633609,-3.08561471587815,7.567403258579142,1.4072367832052302,2.48002284871939
0,3.2002819548562487,-9.385275172359545,-4.651612000089957,-6.802454940725057,2.485022894785356
0,1.241489186644788,-7.574938033896303,-7.020631082363381,-4.202152147012038,2.490022940851322
0,-4.6273079876238645,-6.164603299574682,-5.269653992302236,-2.491854834440703,2.495022986917288
0,-10.366109571584898,-7.23427096776286,-3.3786807334932822,-3.761563001401793,2.500023032983254
0,-9.35491556844549,-10.643941036121095,-6.61771130901042,-5.851276645924132,2.50502307904922
0,-11.82372598062927,-8.593613501537995,-11.706745721399995,-8.750995765617029,2.510023125115193
0,-4.892540809620469,3.3267116398897563,-4.755783972536,-1.5607203575467548,2.5150231711811593
0,1.1686399439331734,4.077034392576565,-0.814826063567032,3.789549581720479,2.5200232172471253
0,-5.2301837200904515,2.7073547609737436,1.4461280048720593,2.6798140558155557,2.5250232633130913
0,1.6109881984531156,7.6676727492421906,4.197078232302086,3.1800730682376357,2.5300233093790574
0,-4.237844300112566,1.4279883611293924,1.038024618131082,-1.7996733777613207,2.5350233554450234
0,-0.49668121529678383,2.698301599960427,0.1289671615563126,-0.35942527908777216,2.5400234015109895
0,-9.445522546391901,-1.9613875312489386,-3.1400941383573424,-5.659182632633102,2.5450234475769555
0,-6.724368292307075,0.08892097038479596,-4.409159282496335,-6.048945435076312,2.5500234936429216
0,-5.3232184513727985,-0.19077289225917377,-5.418228271501682,-3.0787136827039983,2.5550235397088876
0,-2.4620730212968454,7.46953088368588,-0.7773011056423886,3.381512628612544,2.5600235857748537
0,-2.0509319992972577,-2.670167699062111,-5.156377784811446,-2.8882664967684395,2.5650236318408197
0,-2.52979538226774,-4.389868637962631,-7.425458308543943,-5.478051054396772,2.5700236779067858
0,-4.848663166843003,-7.289571930406359,-7.9945426759059846,-8.51784103959513,2.575023723972752
0,-5.197535349350575,-9.209277573371349,-10.3136308853037,-8.57763644717663,2.580023770038718
0,-8.546411925688707,-8.478985563169447,-12.222722934313682,-14.237437271196782,2.585023816104691
0,-11.395292891154275,-15.668695895270716,-13.411818819517144,-13.48724350472808,2.590023862170657
0,-5.184178240266681,0.8415914358098251,-5.110918536390075,-5.197055139702135,2.595023908236623
0,-1.4530679667548898,4.29187643634571,-4.510022079408326,-2.8068721670153196,2.600023954302589
0,-2.141962063779758,-0.3378408870899682,-3.3891294423271248,-0.8566945768854768,2.605024000368555
0,-7.06086052415892,-5.117560527966165,-3.70824061842788,-6.206522359160603,2.6100240464345212
0,-9.989763340331983,-4.027282479700388,-10.467355600570814,-3.916355503382355,2.6150240925004873
0,0.30132949582205093,-3.757006735419963,-0.8964743811130141,-4.536193998704835,2.6200241385664533
0,3.3824179929460154,2.73326671209634,0.4644030481030752,-0.19603783387097717,2.6250241846324194
0,1.9935021598636085,-5.396462129697282,0.6752766955274199,-0.535886997316897,2.6300242306983854
0,0.8445820052745641,-0.786193253194407,4.126146569639161,0.634258522672007,2.6350242767643515
0,-6.374342462259987,-2.8159266505992013,-3.532987321192429,-1.4756012621441805,2.6400243228303175
0,-6.71327123408235,-4.0556623138782815,-1.0321249686765637,0.004533660021619701,2.6450243688962836
0,-6.7722043011309,-1.125400234738839,-2.711266364455414,-0.7253366989975094,2.6500244149622496
0,0.8788583462113195,5.924859595325777,2.7795884999751523,3.2847876726611167,2.6550244610282157
0,4.599916717961628,0.5551171848311871,2.760439633182034,1.654906786805416,2.6600245070941817
0,8.730970824146034,8.405372542063684,8.411287043583688,8.41502065504952,2.665024553160155
0,2.582020674413037,6.075625674910649,2.972130739223052,1.1051292886597972,2.670024599226121
0,7.223066277869097,4.175876590728783,1.6829707276701447,1.6852326984978,2.675024645292087
0,0.9541076431035712,2.376125296329761,1.193807016116541,4.735330895099831,2.680024691358053
0,0.04514477830216823,-8.43362820183402,-6.635360388421704,-4.304576111226616,2.685024737424019
0,2.9561776914057005,-8.413383897278546,-3.3545314788465816,-2.1344883102769705,2.690024783489985
0,5.8972063901775496,-3.453141783069378,3.4862937522019735,-3.3644056917425536,2.695024829555951
0,4.048230882098685,2.7570981482940526,-0.6528846877204637,-3.614328245056751,2.700024875621917
0,-2.160748825723765,-2.992664095354947,-3.9420667910226577,-2.9642559593458153,2.705024921687883
0,7.110267273517174,-3.632428506052937,-0.011252550058722055,-1.5741888234272965,2.7100249677538493
0,2.5812791863843523,-4.542195075657555,-2.590441957027105,-6.664126825823036,2.7150250138198153
0,5.592286919112022,-0.9719637957210283,2.550364996020452,2.44593004524423,2.7200250598857814
0,-1.36670952244762,-9.00173465744442,-2.7588316828927004,-7.954018198159611,2.7250251059517474
0,-3.9057101326958477,-4.281507651615121,-1.358031985699256,1.2960284562997257,2.7300251520177135
0,1.2852850939509426,5.228717231431533,3.132764095737793,5.716070021161666,2.7350251980836795
0,3.9162761631637037,-5.2910599983526625,1.9535565695670774,-1.0238934910358575,2.7400252441496527
0,-5.162736919393935,-3.9208393308959657,-4.665654556145596,-0.4338620679192624,2.7450252902156187
0,-2.771754148067262,-3.1906207559190154,-5.254869273327318,-1.293835697206165,2.7500253362815847
0,2.2292244829385357,5.8695957371396705,9.41591242626685,16.75618563332123,2.755025382347551
0,-2.5398010204179493,4.899810158912532,6.846690550906776,15.52620193544222,2.760025428413517
0,-9.288830652041504,4.680022519771844,-3.142534891473176,-6.0337867799831875,2.765025474479483
0,-3.5078644055340904,3.4002328296527318,-3.3717638932898644,-2.1337805029023613,2.770025520545449
0,0.003097725974339993,-1.599558901909132,-4.020996446961998,1.0362207765232012,2.775025566611415
0,-5.385944250242783,2.000647334380937,2.259767455331902,3.706217068214621,2.780025612677381
0,-6.314990326600363,-2.1691484522706723,-2.3494721783769386,0.11620838205293604,2.785025658743347
0,-2.3440404951274942,-0.10894625265913005,-3.3187153399441267,-5.743805272196376,2.790025704809313
0,-1.773094747423825,-0.02874605753628734,-1.7879620210791438,-4.713823884700023,2.795025750875279
0,6.487846925186674,7.361452142346076,5.682787786681924,-2.173847445312316,2.800025796941245
0,11.218784531314464,6.28164835603605,1.6735340918151205,-3.7738759435002445,2.8050258430072113
0,11.119718079049917,6.151842592123571,2.2942769025984013,-0.6539093684057873,2.8100258890731773
0,3.6506475756324086,3.5720348586186534,-0.7449837729308535,-2.593947708919676,2.8150259351391504
0,3.711573027471667,-0.7877748369738065,-0.8942479268701694,-1.5939909537307684,2.8200259812051165
0,5.402494440381526,2.7024135125356676,5.056484448634342,1.1859609086373157,2.8250260272710825
0,-1.7365881802370737,-2.507400085809853,-3.4827866386273625,-1.26409211023481,2.8300260733370486
0,-8.655674829199173,-9.147215624951656,-5.062061180909382,-6.174149998686918,2.8350261194030146
0,-11.604765501128057,-7.857033097530033,-5.7213391702978,-1.314212744873392,2.8400261654689807
0,-3.653860190016686,-2.9768524955969253,-4.980620598470193,1.3857196633240219,2.8450262115349467
0,-9.812958889064783,-8.766673810553554,-9.019905456573841,-8.784352761750604,2.8500262576009128
0,-6.9920615907205885,-7.33649703318721,-9.169193735128413,-11.224430007451994,2.855026303666879
0,-5.551168286711822,-2.746322153649057,-5.998485423909249,-9.26451206050998,2.860026349732845
0,-9.140278968056545,-6.706149161483175,-7.957780511911828,-9.094598906757899,2.865026395798811
0,-6.2693936250815305,-5.775978045702509,-7.787078987392246,-4.704690531113778,2.870026441864777
0,-3.698512247424931,-8.50580879477145,-4.816380837895604,-0.2047869177536139,2.875026487930743
0,-5.227634824118542,-0.8456413965507439,-0.18568605033536245,2.735111949584623,2.880026533996709
0,-1.7467613437128904,3.2545241615917426,3.9150053887727534,3.4450060872528177,2.885026580062675
0,10.944108205536894,12.224687892407376,13.915693492901436,10.544895511388471,2.8900266261286482
0,5.5149738352894415,6.1348498082662255,6.976378275035744,0.3647802376789182,2.8950266721946143
0,-3.504164443235357,0.8750099208632034,3.467059747364023,-3.1353397186640892,2.9000267182605803
0,0.9766933808042089,4.055168241305256,2.2277379213623667,0.0445356573562099,2.9050267643265464
0,-2.2724526818324886,2.0253247803325283,1.6384128080581646,1.6244063807670601,2.9100268103925124
0,2.488397379670033,8.865479548375259,4.009084418209613,7.7342724665815545,2.9150268564584785
0,1.3592435761391233,3.755632555446512,4.139752762314159,3.344133929562738,2.9200269025244445
0,5.040085918296054,-0.9442161889238561,2.900417850551852,-4.056009215905405,2.9250269485904106
0,0.9409244166381892,-0.2840666755466869,0.4610796927709455,-0.806156955655664,2.9300269946563766
0,-1.9882409185807284,-5.293918895304911,-7.698261701377788,-1.6563092754714224,2.9350270407223427
0,4.112589922750999,-7.29377283889749,-8.577606322113935,-8.04646616093889,2.9400270867883087
0,-2.06658304932313,-6.753628496598646,-8.10695415914762,-18.39662759723153,2.9450271328542748
0,-8.565759824765678,-6.773485858079457,-8.876305201439674,-10.92679356866908,2.950027178920241
0,-4.2949403933153505,-3.183344912370669,-6.2356594371452,-6.956964058384803,2.955027224986207
0,-4.614124744241455,-2.683205647952487,-1.6150168536832907,-6.317139048407948,2.960027271052173
0,-2.0533128663094633,-3.503068052896301,-0.5743774379373402,-5.217318519949933,2.965027317118146
0,-0.4325047479076081,0.3870678850265077,2.1162588234759228,5.182497546339979,2.970027363184112
0,4.3882996227735305,-3.1427978217334283,7.566891943940188,-1.5476908299174479,2.975027409250078
0,4.559100257502774,6.467334839399415,5.447521936567581,6.532116370872684,2.980027455316044
0,9.259897167744546,9.577465880911376,13.598148813931413,11.511919168038146,2.9850275013820102
0,9.240690364409556,5.817595314857895,7.97877258782874,12.821717580315903,2.9900275474479763
0,10.181479857647101,14.117723152579213,9.779393269127668,10.36151162549742,2.9950275935139423
0,5.822265656731229,8.05784940453696,9.650010867742216,12.881301320254932,3.0000276395799084
0,1.8730477701292734,7.347974080236449,6.030625392681714,7.431086680140938,3.0050276856458744
0,14.403826205659026,13.09809718825048,10.641236852103974,12.790867719648185,3.0100277317118405
0,5.09460097048431,9.928218736221947,9.211845253337728,5.500644452276203,3.0150277777778065
0,7.185372070993661,6.038338730809174,3.3524506028706877,2.1504168906508654,3.0200278238437726
0,-3.003860487129181,-7.13154282216007,-0.5369470935173972,-3.2798149531920204,3.0250278699097386
0,-4.543096698574221,-8.791425917172633,-2.1363478304347296,-4.1100510674020985,3.0300279159757046
0,3.0376634419651567,0.1786894515503391,6.024248397407857,3.4397085599840356,3.0350279620416707
0,7.318419939871211,5.728803290207076,7.684841595178721,0.6994639410587118,3.0400280081076367
0,-3.2608271996133897,0.8489156051017699,-5.684568232271488,-2.7607849120915517,3.04502805417361
0,0.5999220285168043,-2.520973597627053,-5.983981080334082,-6.281037987359073,3.050028100239576
0,-1.8993323708153005,-4.740864311921809,-8.5733969442164,-5.571295272386426,3.055028146305542
0,-4.0085903926015005,-2.300756531558966,-2.8428158185900423,0.49844324560890074,3.060028192371508
0,-14.407852031574263,-5.490650249996238,-8.32223769751277,-2.991822420211297,3.065028238437474
0,4.572882718045346,7.319454539612591,2.1383374254954033,4.2879077435173,3.07002828450344
0,4.423613862534764,-1.740442155768364,2.698909557271551,5.007633750155118,3.075028330569406
0,5.474341408237507,4.409659670720901,7.549478704684228,10.037355612792798,3.080028376635372
0,-1.7749346388097413,7.219760025707829,4.24004487429042,9.07707334395207,3.0850284227013383
0,0.4557857271339525,7.819858915433025,10.840608072125475,8.816786955365272,3.0900284687673043
0,-4.323497488270567,-1.2500436544060576,0.7811683035989525,10.11649645788198,3.0950285148332703
0,-1.76278427925318,6.69005232138935,1.0217255735515438,7.456201861455746,3.1000285608992364
0,-0.5020746398398065,10.32014684760351,4.332279886451985,11.805903175147186,3.1050286069652024
0,4.2686314360964595,10.160239928446181,8.692831246490215,9.50560040709915,3.1100286530311685
0,5.679333954631598,14.20033156726064,11.443379657387354,13.80529356446452,3.1150286990971345
0,19.460032921451575,19.440421766262983,17.043925122051547,20.854982653252907,3.1200287451631077
0,14.650728341371877,19.19051052625,19.844467642198193,18.06466767804839,3.1250287912290737
0,8.091420217925782,11.590597846362854,16.32500721800804,13.654348641756203,3.13002883729504
0,6.442108553367025,9.340683724142771,12.365543847978016,11.294025545628473,3.135028883361006
0,3.7427933489989043,4.09076815586923,7.476077529076047,9.833698389516782,3.140028929426972
0,5.073474605481365,4.410851136955107,1.6666082571060858,6.433367172139008,3.145028975492938
0,7.564152322961377,7.580932662212701,11.677136027088833,11.293031891270244,3.150029021558904
0,9.264826501029487,0.80101272594632,9.407660833383447,11.342692543798286,3.15502906762487
0,-6.714502861330074,-8.998908677912814,-6.931817330348472,-12.157650874220367,3.160029113690836
0,-7.0138357654817725,-12.718831555378223,-13.581298470834811,-17.487998367055106,3.165029159756802
0,-8.233172212594553,-18.588755911777152,-7.500782594471969,-16.748349938348447,3.170029205822768
0,-6.552512203234153,-11.69868175123412,-8.980269706811598,-20.208705590346145,3.175029251888734
0,-6.3418557372555835,-14.448609076457592,-11.359759812470667,-16.70906532358843,3.1800292979547002
0,-7.101202813833284,-14.24853788875939,-14.029252915111027,-15.339429136862705,3.1850293440206663
0,-12.560553431451117,-10.938468188112687,-13.09874901729464,-15.049797027286766,3.1900293900866323
0,-4.91990758780381,-4.088399973254804,-3.698248120396346,-15.060168990429919,3.1950294361526055
0,-5.589265279761372,0.1916667580090322,-4.497750224785974,-9.800545020410034,3.2000294822185715
0,-2.3686265035147196,-3.4782679916071664,-2.617255330167005,-8.72092511004325,3.2050295282845376
0,-1.3879912547879418,-7.088204219102218,-3.6767634358234087,-5.581309251082947,3.2100295743505036
0,-0.9673595290135777,-6.68814192111479,-1.076274540715111,-5.351697434465088,3.2150296204164697
0,0.553268678539792,0.7219189062179505,-3.6657886435285727,-0.08208965051889683,3.2200296664824357
0,3.4738933726505428,1.2519782671713147,-0.5853057427117607,-3.0324858891686435,3.2250297125484018
0,-7.695485441926677,-0.41796383382746677,-4.264825836490973,-5.472886140064103,3.230029758614368
0,-6.814867760344559,-13.287907392282808,-9.164348922815247,-10.413290392513051,3.235029804680334
0,2.055746422591888,-2.717852403378568,-7.463874999172773,-2.2836986352814796,3.2400298507463
0,2.456357112427284,-0.937798861738587,0.2665959375704161,-0.6341108565437956,3.245029896812266
0,4.196964314759007,1.6622532384512834,6.827063891022652,1.4954729559022417,3.250029942878232
0,-3.7224319649941187,-4.78769609682479,-3.062471135127386,-4.724947185606594,3.255029988944198
0,-5.5618317215133555,-6.697646861446765,-4.772009137298081,-6.445371268604487,3.260030035010164
0,2.198765050659439,-0.4275990489885408,0.4084498881488896,6.284200719633098,3.26503008107613
0,-2.250641642787947,-2.1675526526491717,0.3089059450492323,0.3637687920168202,3.2700301271421033
0,-5.640051796000698,-0.7575076653629027,-1.720640962640687,1.9533329613928094,3.2750301732080693
0,-7.549465402879343,-5.357464079882222,-3.590190830890773,-2.5671067595518595,3.2800302192740354
0,0.3711175431060203,1.2225781112464453,1.4802563444595502,-2.2575503581723186,3.2850302653400014
0,-2.798302951081004,-2.027381084313574,-1.3692994322874186,-3.8079978217015076,3.2900303114059675
0,-1.4677268781945845,3.2326583412212853,-2.4988581567335424,1.471550862844424,3.2950303574719335
0,1.5628457691766426,-1.027303604361031,-2.3984198243725054,0.4310957086206262,3.3000304035378996
0,-1.576585001465582,-1.1472669133164948,0.58201556947412,8.330636728773744,3.3050304496038656
0,-0.5960191825816222,2.312768422083527,-1.7475519703627624,6.230173936181227,3.3100304956698317
0,-6.6754567665473346,-3.4371975904201193,-2.177122438943192,6.269707343206855,3.3150305417357977
0,-4.594897745498669,-3.197164943033855,-8.156695831160528,-3.1107630383524065,3.3200305878017637
0,6.3356578887708395,-1.7471336277995162,-1.4362721415828597,1.5487628029353018,3.32503063386773
0,5.156210144615501,-0.8971036365242715,1.1241486356114834,5.918284878351068,3.330030679933696
0,0.5067590301820226,-6.767074960790122,-0.7054334935137949,3.9478031989888613,3.335030725999662
0,7.927304553242102,1.1829524080739617,3.3149814771452393,11.127317775543789,3.340030772065628
0,3.157846721172163,6.912978478947491,8.1653935535694,6.096828618105114,3.345030818131601
0,4.928385540908593,3.3530032606481277,-1.6741972585610012,3.046335736056429,3.350030864197567
0,4.368921018929585,-1.856973238316789,-1.0737909538918204,-0.794160861805701,3.355030910263533
0,-0.8405468386931354,1.5030489902981259,-4.203387527174259,-3.464661166971825,3.360030956329499
0,0.8199819738291145,-0.09693004535378258,0.5570130269669256,-1.7051651709199778,3.3650310023954653
0,-3.279492537821362,0.2430896628519208,-2.3825892858999485,-6.10567286492221,3.3700310484614313
0,0.5610296320793962,-3.6968918769659016,-5.502194460026722,-11.766184239878745,3.3750310945273974
0,-6.248451510617191,-6.526874656574021,-6.051802489397009,-10.206699286055395,3.3800311405933634
0,-12.17793595977674,-16.126858667352657,-11.441413367518951,-15.847217992784167,3.3850311866593294
0,-12.977423708657069,-9.086843899906667,-13.211027087174477,-8.927740348260194,3.3900312327252955
0,-17.206914749500246,-10.196830343787221,-9.430643640165972,-13.538266339479776,3.3950312787912615
0,-8.12640907327074,-5.066817987501726,-10.110263017208087,-14.608795952246327,3.4000313248572276
0,-13.51590666963597,-7.886806818694525,-14.939885207941433,-12.889329171120679,3.4050313709231936
0,-14.18540752705119,-5.85679682429333,-14.649510200874182,-16.369865979332396,3.4100314169891597
0,-13.304911632749796,-8.006787990560895,-12.429137983232923,-15.140406358711218,3.4150314630551257
0,-5.4444189727111105,-5.006780303097734,-5.338768540949006,-9.580950289659082,3.4200315091210918
0,1.1260704681255036,-0.6667737468951762,-3.4784018588999737,-1.2414977513068204,3.425031555187065
0,4.9865567053715685,1.083231693478331,3.6719620786851044,2.1879512780498973,3.430031601253031
0,-1.072960245303897,0.8132360336183455,0.062323287820112316,-1.8426031795557265,3.435031647318997
0,-8.00248036833257,-3.3567607108718405,-2.677318215481973,-7.633161101990582,3.440031693384963
0,-3.0320036480226262,-3.9967585243349446,-1.8169624152043837,-4.053722466889331,3.445031739450929
0,-4.241530068294696,2.363242609065598,-1.3266092952016018,-2.464287251462582,3.450031785516895
0,-6.42105961261409,-2.8467572946513924,-3.3462588391471577,-6.8648554324739575,3.455031831582861
0,-2.940592263995222,1.273241780626535,-7.145911030479526,-3.6454269862625033,3.4600318776488272
0,-6.340128004985091,-0.8767601489438869,-4.345565852269861,-0.7360018887385311,3.4650319237147933
0,-1.5196668176779176,4.57323693279665,-0.8852232871288463,-0.9965801154730616,3.4700319697807593
0,0.9007913162059653,-0.6067669580821209,-4.774883317262998,-3.2971616418352863,3.4750320158467254
0,-9.848753584788602,-4.67677180562074,-6.984545924538027,-9.30774644298095,3.4800320619126914
0,-10.278301501770565,-3.3967775938088574,-5.364211090395095,-9.088334493634566,3.4850321079786575
0,-9.507852415193845,-7.566784306349872,-10.863878795700952,-19.248925767755818,3.4900321540446235
0,-11.447406304601968,-12.286791926445746,-10.903549020597378,-16.019520238159345,3.4950322001105896
0,-8.426963148549937,-11.086800436545102,-14.113221744304433,-13.710117876205116,3.5000322461765627
0,-14.41652292458831,-13.466809818089997,-14.572896944913138,-17.170718651705453,3.5050322922425288
0,-12.896085609193374,-12.756820051367086,-16.512574599213654,-9.651322532987557,3.510032338308495
0,-4.495651177698098,-10.136831115453827,-9.702254682590928,-6.201929487047368,3.515032384374461
0,-6.285219604414491,-9.28684298826284,-11.591937169079818,-5.802539479840137,3.520032430440427
0,-3.754790862912584,-5.8668556466819854,-3.721622031565283,2.586847523370426,3.525032476506393
0,3.4456350737253576,-2.63686906677619,7.418690757874527,15.206231557586868,3.530032522572359
0,-14.40394176726092,-6.546883224004445,-10.440998772479649,-8.484387342422416,3.535032568638325
0,-12.853521358199615,-10.16689809330828,-12.64069059412514,-13.745009142181784,3.540032614704291
0,-0.4231036706372937,1.4930863509477321,0.5896153219682732,3.274366193022981,3.545032660770257
0,1.187311324680707,-2.356929865075745,-1.1300809945053392,-0.09626130155690094,3.550032706836223
0,3.327723657377228,0.34305328507035227,3.9102204865007426,8.40310840954777,3.5550327529021892
0,9.778133356979033,7.893035827889808,11.400519794973507,11.122475361541255,3.5600327989681553
0,12.218540452552592,10.993017789663522,12.510816960427622,12.361839588957178,3.5650328450341213
0,13.438944972339469,12.732999196044549,10.591112011501643,13.301201125336819,3.5700328911000874
0,9.519346943491605,14.822980071689798,14.831404975729532,15.390560003030211,3.5750329371660605
0,4.659746392052716,4.832960440085063,6.401695879482608,5.9499162531218115,3.5800329832320266
0,0.2201433432021085,4.032940323655246,0.41198474809934793,0.7892699055849624,3.5850330292979926
0,-0.7394621783658825,-2.277080255873961,-0.6377283937484344,-1.5213790102900364,3.5900330753639587
0,-3.849070148094171,-4.667101277048433,-5.557443521599709,-6.272030465405107,3.5950331214299247
0,-4.698680541310791,-4.467122718317711,-0.7271606108799883,-1.0326844305030174,3.6000331674958908
0,-0.15829333307045856,1.612855442169408,1.61312036320814,0.946659123954265,3.605033213561857
0,-1.4579084981459305,3.0028332264969597,2.903399425572852,5.6060002276472325,3.610033259627823
0,1.612473988860153,2.762810656737296,5.09367660101098,7.505338910102928,3.615033305693789
0,-5.397145846576553,2.0227877547614175,-0.3860480859410984,-0.04532479955558921,3.620033351759755
0,-1.2767679788631916,3.3027645421872527,1.5542253889847015,-0.21599087261934447,3.625033397825721
0,-3.596392382186918,-1.4372589595984495,-3.265502950087752,-6.936659280547083,3.630033443891687
0,-3.8160190304558483,-4.6572827293323185,-2.725233079017598,-5.537329994631618,3.635033489957653
0,-7.125647897246957,-1.1073067456714203,-2.184964973500454,2.54199701421249,3.640033536023619
0,-9.105278955672787,-4.4273309870332,-2.184698608996584,-3.998678224594321,3.645033582089585
0,-3.284912178229756,6.6526445683942566,3.8955660392305367,5.80064431851468,3.6500336281555583
0,5.9454524631592935,7.482619942432597,1.5658289959624114,5.709964673048027,3.6550336742215244
0,2.8058149967950774,0.5525951565892575,1.0160902858602134,4.929282868215221,3.6600337202874904
0,9.746175450768288,6.362570231911283,8.496349933370245,9.768598932720804,3.6650337663534565
0,8.856533852651548,8.262545188997546,9.626607962572812,7.907912894628797,3.6700338124194225
0,7.716890229293597,2.3125200479398718,8.206864396921564,12.387224781223615,3.6750338584853885
0,3.7172446067559113,0.9324948283084245,3.7871192590805114,7.556534618885289,3.6800339045513546
0,0.8775970104454478,-3.987530450649628,1.0273725710305341,3.1558424330860335,3.6850339506173206
0,-2.522052534613244,-7.6075557696846765,-2.132375645657655,0.4551482485925984,3.6900339966832867
0,-1.1017040034971175,-5.997581109215907,-7.292125369495485,-4.645547910185709,3.6950340427492527
0,4.118642628766276,-4.9676064491173815,-3.4118765787672225,-1.5062460188568687,3.700034088815219
0,1.5189873871365065,-8.337631768662483,-4.891629251330884,-3.9569460528285747,3.705034134881185
0,-4.500669703544644,-8.797657046494432,-7.691383364564933,-2.94764798722895,3.710034180947151
0,0.7196713815207043,-6.947682260537741,-1.851138895341514,-5.438351796871622,3.715034227013117
0,1.5900106672055383,0.6522926120031707,4.1191041799069605,1.4309425437666659,3.720034273079083
0,2.230348178404081,-2.9677324055554326,1.8893458849209996,0.7602350604641974,3.725034319145056
0,-5.1393160600597785,-8.797757289572488,-4.810413756633011,-10.720474220855827,3.730034365211022
0,-6.358982023323668,-7.6477820160112,-12.510174721055508,-14.18118527395234,3.735034411276988
0,-6.428649686207192,-3.167806560239637,-7.929936984187425,-11.161898071806563,3.7400344573429543
0,-8.608319022976449,-4.6278308970089554,-8.839700521061651,-4.992612586323098,3.7450345034089203
0,-15.137990007175826,-10.467855000538341,-12.36946530579504,-10.20332878840447,3.7500345494748863
0,-7.897662611422806,-11.317878844430224,-5.32923131158006,-2.91404664814647,3.7550345955408524
0,-8.357336807289775,-9.307902401440534,-5.768998510728568,-0.21476613501038488,3.7600346416068184
0,-0.8970125654306308,-2.6279256433860367,-3.4787668748414027,4.144512781907844,3.7650346876727845
0,0.7533101441073127,-0.6179485413363702,0.32146362498050274,-0.6662098664436925,3.7700347337387505
0,10.333631351480307,6.962028934003216,5.291693017894022,1.5930659507612126,3.7750347798047166
0,8.573951086585948,7.532006811854869,3.981921333013579,-1.7776597357545034,3.7800348258706826
0,3.074269378703828,6.911985120992613,-0.09785140082477972,-1.4483868952829655,3.7850348719366487
0,1.534586256459784,-0.298036110417477,-2.8576251550404654,-2.9891154970326608,3.7900349180026147
0,-3.555098251920195,3.9519431452958136,-2.2673999010954677,-1.3098455100448123,3.7950349640685808
0,-0.0447841183057518,5.171922915472815,5.712824389651269,8.339423096775796,3.800035010134547
0,9.67552868544909,10.671903227083407,10.303047745791954,16.2886903543515,3.80503505620052
0,1.8058401873222343,12.301884106479394,1.653270195522142,-3.8320437070231144,3.810035102266486
0,-1.3838495850738648,9.121865579117953,0.4934917664913745,-6.032779057713607,3.815035148332452
0,-0.29354060439363816,7.861847669445211,0.6837124859875277,-2.693515668229666,3.820035194398418
0,-0.13323284333525787,2.451830401003189,0.903932381156618,-0.1442535087999972,3.825035240464384
0,-2.082926274547523,3.9218137966665685,-0.27584852092554124,5.305007450586547,3.83003528653035
0,4.36737912936507,2.161797878863993,3.794369806750204,6.614267239879263,3.8350353325963162
0,2.467683395757734,0.7017826697167668,0.7545873910784562,7.873525888644567,3.8400353786622823
0,-1.2120134481742686,-0.9882318088538693,5.584804258765475,13.282783425806327,3.8450354247282483
0,-0.5917113753872622,-3.4082455349846907,5.905020436226203,15.602039879388997,3.8500354707942144
0,12.688589641057558,8.411741513225456,13.54523594940358,17.941295276210667,3.8550355168601804
0,11.568889627755269,8.551729357565165,18.945450823440854,20.990549641583325,3.8600355629261465
0,4.079188610553276,2.921718019378782,10.27566508228245,12.829802999113577,3.8650356089921125
0,4.839486614441799,6.231707519404863,13.105878748486136,10.68905537073184,3.8700356550580786
0,6.71978366374479,6.4916978778245635,15.29609184327892,15.578306776924347,3.8750357011240446
0,14.640079782186069,13.621689114227122,16.476304386568476,20.707557236841147,3.8800357471900178
0,16.18037499264685,18.641681247349997,20.71651639679755,25.91680676806286,3.885035793255984
0,13.920669316801845,6.641674294742742,17.686727890739277,13.976055386252892,3.89003583932195
0,8.96096277494358,5.8916682727049245,8.656938883435492,6.655303105148124,3.895035885387916
0,10.011255386093122,6.601663196572815,6.307149388426077,5.644549937021134,3.900035931453882
0,3.5415471682422943,4.671659081003291,0.7073594182192526,-2.5262041067187555,3.905035977519848
0,5.041838138596698,2.461655940099427,2.727568984743311,0.45304098494320666,3.910036023585814
0,0.35212831380935117,3.8616537875132817,0.05777809962517366,-1.4377147770662735,3.91503606965178
0,5.912417710157684,5.5816526365252805,-0.6420132256607269,-3.5384713817532765,3.920036115717746
0,-2.6472936563666134,10.3616524999873,2.5681950202882375,-4.139228817955656,3.925036161783712
0,-4.947005769931817,0.6616533901819239,-0.9815971511769517,-5.749987074213974,3.930036207849678
0,-4.84671861460548,-4.838344681132693,-7.001389728717828,-14.350746138595262,3.9350362539156443
0,-7.9164321740809465,-6.698341702350722,-6.341182700808172,-13.43150599840291,3.9400362999816103
0,-1.6461464315335201,-0.12833766160425725,-5.4509760554721005,-6.132266639886445,3.9450363460475764
0,1.804138630326149,1.8816674533242543,-1.5507697801812315,-7.373028048226112,3.9500363921135424
0,-2.8355769709551506,-5.3383263451635345,-8.600563861923398,-6.663790207743499,3.9550364381795156
0,-11.47529321767087,-9.00831904450585,-9.090358287191235,-7.654553102050941,3.9600364842454816
0,-7.385010091718471,-1.698310631761598,-9.240153041816757,-8.975316714059366,3.9650365303114476
0,-11.294727574271542,-8.498301093448468,-10.15994811079289,-10.736081025909042,3.9700365763774137
0,-15.114445645568871,-8.368290415512691,-11.709743478182236,-7.616846018877564,3.9750366224433797
0,-7.37416428477492,-12.878278583211765,-15.119539127019927,-12.12761167332588,3.980036668509346
0,-11.053883469934583,-10.588265580901655,-12.269335039165911,-7.468377968679767,3.985036714575312
0,-7.493603178071365,-6.138251391917676,-9.269131195225132,-5.7891448834540675,3.990036760641278
0,-8.693323385298537,-5.898235998658025,-12.348927574615654,-11.649912395337187,3.995036806707244
0,-5.683044066895379,-3.7682193827940242,-6.978724155680612,-6.540680481226843,4.00003685277321
0,-6.932765197392793,-5.148201525444574,-8.31852091579372,-6.821449117207922,4.005036898839176
0,-1.322486750679898,-4.248182407258521,-9.338317831455745,-7.862218278593482,4.010036944905142
0,-2.892208700151605,-6.7281620084247,-5.548114878356817,-5.662987939991276,4.015036990971108
0,-5.44193101884807,-7.2181403086205185,-12.597912031390143,-11.06375807531057,4.020037037037074
0,-8.271653679445592,-7.868117286919107,-10.01770926459973,-13.064528657671882,4.02503708310304
0,-7.651376654095378,-3.158092921729626,-10.817506551067497,-14.895299659197,4.030037129169013
0,-10.981099914243625,-2.3480671908660167,-7.897303862858535,-13.596071050780987,4.035037175234979
0,-2.150823430541425,1.9719599282545923,-3.1871011711083836,-10.586842801993809,4.0400372213009454
0,-2.290547172935847,1.7819884583660408,3.4731015537144945,-6.077614881171701,4.0450372673669115
0,4.339728889047292,7.1320184221202245,11.753304341362249,6.2116127442678515,4.0500373134328775
0,15.530004785885783,3.952049841871887,9.883507221238066,14.630840107229547,4.055037359498844
0,4.000280547564471,-0.8179172604306659,-0.25628977798785557,-6.7599327597114405,4.06003740556481
0,2.320556203298113,3.2321171368317003,0.29391337169007925,-6.260705824425936,4.065037451630776
0,4.730831781665313,5.262153055057511,3.624116697945684,-1.5014790547703758,4.070037497696742
0,-0.3388926891450631,2.2321905153819737,1.9643202282881957,1.0877475817330549,4.075037543762708
0,6.3313828187711545,9.30222953856276,6.044523990004734,5.166974117752642,4.080037589828674
0,5.121658333016991,10.742270144836544,9.134728010016277,9.326200585809014,4.08503763589464
0,11.45193388074835,9.952312353691381,12.354932314656857,11.465427017919806,4.090037681960606
0,5.8822094884676694,6.1523561837032,7.5751369294194575,6.5046534453107085,4.095037728026572
0,5.032485181921116,10.442401652552713,9.475341878845107,5.963879898335326,4.100037774092538
0,10.522760986144185,11.952448777060969,14.665547186522259,9.523106406570443,4.105037820158511
0,7.883036925471378,8.952497573111804,10.505752875010206,8.542332998862898,4.110037866224477
0,6.863313023459993,4.902548055612421,6.935958965761031,9.841559703258826,4.115037912290443
0,10.353589302862623,7.6326002386229845,11.10616547918906,6.00078654694796,4.120037958356409
0,11.993865785600649,14.142654135461397,12.77637243476128,11.630013556277602,4.125038004422375
0,9.664142492649846,4.902709758618865,7.026579850953795,10.939240756734307,4.130038050488341
0,8.104419443970325,1.592767119725135,3.8067877452689034,8.098468172858095,4.135038096554307
0,-1.4553033413747658,1.3028262297930866,0.2769961344793266,-1.3123041717196084,4.1400381426202735
0,-0.5650258448877301,1.9428870995289245,3.8572050349382967,2.1969237460182445,4.1450381886862395
0,-2.404748048245666,-1.9370502605135937,1.437414462752348,-1.1038480511740416,4.150038234752206
0,-7.94446993301206,-5.206985839813815,-7.592375566132878,-1.1246195406060135,4.155038280818172
0,-18.83419148033114,-9.666919627649971,-11.972165035660217,-7.625390699518564,4.160038326884138
0,-16.27391267043835,-15.136851612747549,-15.64195392916931,-11.6461615048414,4.165038372950104
0,-9.563633482217345,-7.906781782922974,-6.021742228967092,1.0530680670855888,4.17003841901607
0,-9.673353893159717,-13.696710124897226,-10.561529916240683,-5.417701959452197,4.175038465082036
0,-5.063073879628828,-7.126636624297543,-6.501316971207161,-1.3684715597374562,4.180038511148002
