labels,F4,F3,Fz,Cz,timestamps
0,2.190765171654334,2.5339166425475974,0.9672935253873791,-6.827482762853624,-1.9998829382499004
0,-2.497359592775166,-2.1945535930670834,-6.72145173259535,-2.007547066814221,-1.994883230904275
0,-7.215492196683169,-11.593031995918786,-3.2402073722911604,-3.997617056198738,-1.9898835235586496
0,2.4463673832531247,6.028481464681814,4.161026637858413,-1.06769269408095,-1.9848838162130242
0,9.038219170552622,13.199986819658422,10.572250329522266,6.622226056687475,-1.9798841088673989
0,7.570063188570003,6.5214840996489905,8.623463734027181,2.282139233228242,-1.974884401521777
0,5.761899460094341,12.80297333449635,6.934666881979924,8.382046872364928,-1.9698846941761516
0,25.603728007107247,22.75445455299666,23.615859803076823,27.581949010310883,-1.9648849868305263
0,11.71554885044554,10.115927782623459,9.77704252585188,18.921845682090485,-1.9598852794849009
0,4.6573620095107096,4.567393049393536,1.1482150775100095,9.621736920983384,-1.9548855721392755
0,3.2991675024843286,1.7488503782001423,1.8893774842421944,4.621622758592693,-1.9498858647936501
0,9.510965346798226,10.720299793276999,7.820529771721974,9.221503225372722,-1.9448861574480283
0,5.222755559315656,8.191741318310173,6.561671965235985,3.7513783510119865,-1.939886450102403
0,0.3745381563143355,4.8431749762947875,0.8828040895670397,0.6312481645958954,-1.9348867427567775
0,-4.323686846353363,-6.445399210423703,-3.186073830945803,-6.188887305157549,-1.9298870354111521
0,-5.641919432894165,-8.523981219732647,-5.584961772091541,-10.829028029484348,-1.9248873280655268
0,-13.400159587178807,-5.392571029211361,-9.90385970940792,-8.849173979114964,-1.919887620719905
0,-11.368407292373465,-12.521168615792762,-11.112767617847634,-4.86932512399237,-1.9148879133742795
0,-14.676662530624737,-11.15977395559307,-16.87168547147288,-13.769481433232412,-1.9098882060286542
0,-2.6249252829299916,-7.698387023769343,-6.2406132432158525,-6.659642875115794,-1.9048884986830288
0,-9.363195529271191,-1.157007794538656,-11.549550904839265,-14.019809417000321,-1.8998887913374034
0,-8.061473248830627,-4.62563624143259,-9.348498427061152,-13.289981025213075,-1.894889083991778
0,-4.569758420071103,-5.174272337540876,-3.097455779676471,-3.1801576649803316,-1.8898893766461562
0,-3.6480510207834502,-3.1129160555642725,-2.7064229317275297,-6.860339300541245,-1.8848896693005308
0,-2.8863510282319744,-5.961567367782745,2.1046001482075827,-0.24052589544182434,-1.8798899619549054
0,2.2553415806693335,7.959773753888333,5.055613491699949,3.6692825871649646,-1.87489025460928
0,0.2670268291719897,1.961107337652893,-1.863382869783249,2.0190861842192422,-1.8698905472636547
0,5.5287047404974325,5.752433411505435,6.91761109500902,8.548884932473634,-1.8648908399180293
0,5.090375337654329,2.863752003053813,7.148595417047913,11.318678868242161,-1.8598911325724075
0,2.7420386432885566,-0.7449368604657207,3.1495701268732432,-0.29153197281885745,-1.854891425226782
0,11.083694679589518,11.916366847872068,9.330535254473084,13.918252444235259,-1.8498917178811567
0,1.6853434682087816,4.267663154598665,0.05149082927671422,3.868032153669737,-1.8448920105355313
0,15.016985030162553,16.158952085608718,9.822436880191324,6.667807189044714,-1.839892303189906
0,7.918619385705185,5.200233665930138,4.9233734356066305,7.087577583236422,-1.834892595844284
0,10.070246554179773,15.911507919600556,10.334300523312704,12.83734336844782,-1.8298928884986587
0,15.381866553925274,21.902774869527395,9.265218170372169,15.707104576028748,-1.8248931811530333
0,13.683479402170555,13.26403453719762,9.57612640300653,12.11686123619057,-1.819893473807408
0,-1.5949148850342199,-1.9547130574320586,0.6970252465797735,-4.1733866220541875,-1.8148937664617826
0,0.37668370746192625,2.3465321045135905,2.0179147257882812,2.4063610294902844,-1.8098940591161572
0,0.9682751944262131,-3.682229958509932,-2.251205135022096,-7.153895781233245,-1.8048943517705354
0,0.12985959054331642,-3.4909992280549957,1.1796656883931718,-5.484157026134607,-1.79989464442491
0,-2.0285630895277307,-2.799775685482711,-5.309472779688951,-5.694422676727103,-1.7948949370792846
0,-12.166992831034971,-11.968559311810168,-6.858620514820995,-14.384692703937917,-1.7898952297336592
0,-4.715429618836618,-4.7473500875244,-3.7777774921865395,-4.45496707793185,-1.7848955223880338
0,-10.33387343711988,-7.616147992423909,-11.326943686435575,-14.25524576798082,-1.779895815042412
0,-2.6823242693231286,-2.684953005623353,-1.9361190715930874,-9.015528742406907,-1.7748961076967866
0,-1.4207820982444404,-5.1437651056740785,-7.57530362104332,-6.835815968554476,-1.7698964003511612
0,8.370753093680037,-1.65258427067963,6.705502692342725,3.593892587080467,-1.7648966930055359
0,0.16228132398963968,-8.111410478354305,-0.683700104072289,-3.7664030415066208,-1.7598969856599105
0,-5.886197389999405,-10.890243705946547,-10.542911982893528,-0.38670282013628077,-1.754897278314285
0,-2.5946830310127447,-10.239083930009446,-3.1121329165426483,3.812993285448936,-1.7498975709686633
0,1.5568244184376479,-6.03793112620458,0.36863712299314555,0.202685309496474,-1.744897863623038
0,6.348324976000529,6.263214730604016,4.209398164066654,6.382373286102792,-1.7398981562774125
0,-0.7201813407836605,2.2743536659220904,2.460150235039687,0.23205724910966063,-1.7348984489317871
0,0.2613054853877028,0.5954857051770346,1.920893364058669,-0.2382627679064151,-1.7298987415861617
0,-0.3072145283250114,7.806610873535298,5.061627578997801,2.661413268455269,-1.7248990342405364
0,0.8842586352098087,13.467729195776004,2.772352907435452,3.751085391472067,-1.7198993268949145
0,-3.8942750068646075,1.9688406960247646,-4.296930623338023,-2.269246365748914,-1.7148996195492892
0,-7.7428154372895674,-3.0500546023078154,-5.106222986132767,-3.919581970221983,-1.7098999122036638
0,-2.8513626384777466,-2.948956676166358,2.6444758464079587,-2.589921388874839,-1.7049002048580384
0,-3.319916592380094,-2.187865502428885,-0.8348340981441416,-4.240264588370629,-1.699900497512413
0,4.111522719424769,4.7532189422209425,0.5958472078532537,3.9693884649102955,-1.6949007901667912
0,6.262955315457869,10.434296681090519,5.196519791993504,5.8590378046972305,-1.6899010828211658
0,0.5043812140325092,-10.024632262808277,0.0271836817257034,-0.40131653544680446,-1.6849013754755404
0,5.485800433107876,9.586432133238688,7.537838904253174,2.9583254777481782,-1.679901668129915
0,3.067212990294658,10.497489891731231,4.25848548643855,0.06796387732743492,-1.6749019607842897
0,1.8386189028669513,3.2685410347241506,4.8391234547036746,-6.572401303759381,-1.6699022534386643
0,4.870018187775845,8.32958558358596,5.129752834982021,1.4172299675168336,-1.6649025460930424
0,1.141410861671418,1.7306235590384906,3.780373652732764,8.496857724319202,-1.659902838747417
0,-1.1472030590581725,3.851654981290146,3.5609859329701954,-0.5135180002848587,-1.6549031314017917
0,-2.6358235581524463,3.982679870145365,-2.8284102996533766,-0.44389717351791846,-1.6499034240561663
0,-1.884450619290821,-2.1763017549087467,-1.507815020660945,-2.0642797627756924,-1.644903716710541
0,1.526915774001266,-3.175289874562552,0.992771794448748,6.035334264536546,-1.639904009364919
0,3.208275638281677,6.195715530492274,1.0433501702487087,5.67494494092125,-1.6349043020192937
0,-1.2903710099559593,-12.803285520364174,-4.346079868669334,2.334552298561177,-1.6299045946736683
0,-4.689024154300833,-9.072293007520456,-4.385518297634201,-0.03584363075956776,-1.624904887328043
0,1.882316221720247,2.1486930891787708,-2.4349650917258145,0.7837571844793514,-1.6199051799824176
0,-9.42634986522478,-10.280327209495397,-9.004420225650287,-5.356645224278482,-1.6149054726367922
0,2.71497760179833,1.270646117691152,2.5561163263121838,1.7129491744885477,-1.6099057652911704
0,-1.693701360004937,2.7216130923034667,1.4966445902249674,-8.467459587511199,-1.604906057945545
0,-8.232386733218881,-5.437426263935754,-2.1728354077310694,-3.4378714782792086,-1.5999063505999196
0,-7.031078500131272,-6.55647192919919,-5.862323641348532,-3.228286465413415,-1.5949066432542942
0,2.7002233574503274,3.254476118604848,-0.6018200842462613,3.211295483868694,-1.5899069359086688
0,-0.16848114187877172,2.545417901828676,1.9986752902173484,-1.849125597464095,-1.5849072285630434
0,-2.8171919793794635,-3.7936465571403803,-1.3208374911787626,-4.59954967638768,-1.5799075212174216
0,14.704090863650016,10.09728276398363,12.529641598277578,10.140023280181275,-1.5749078138717962
0,4.715367405614805,3.568205887275729,6.95011258495432,7.939593305224321,-1.5699081065261709
0,8.346637664287261,8.279122834381788,9.840575494552587,5.449160431249348,-1.5649083991805455
0,8.767901656669695,5.120033626361685,7.261030351938674,4.3087246900964224,-1.55990869183492
0,20.299159398918157,20.820938283573057,12.281477181122298,11.028286112979217,-1.5549089844892983
0,3.7304109061194346,2.4518368254412573,-0.028083994732934103,-0.8521552694900797,-1.5499092771436729
0,11.121656192195934,15.042729270304678,8.70234684679894,5.887400572744376,-1.5449095697980475
0,5.402895270082275,0.29361563550580505,4.722769727560937,-5.563046330634542,-1.5399098624524221
0,2.334128151946621,4.704495937615409,5.333184668856628,-4.353495950043635,-1.5349101551067967
0,1.6953548493990809,5.755370192662672,5.893591691439559,2.1760517442582588,-1.5299104477611714
0,5.976575373687659,1.8762384162546164,6.1339908155195975,2.6955967822016547,-1.5249107404155495
0,5.807789735727496,13.077100623546341,4.664382060754939,-0.8348608062833605,-1.5199110330699241
0,5.778997945983691,7.477956829091696,4.0447654462654965,-4.005320991346753,-1.5149113257242988
0,15.020200014320867,8.89880704664974,16.895140990614195,10.474216256846677,-1.5099116183786734
0,12.051395949775634,15.289651289066782,14.525508711565392,9.113750967972178,-1.504911911033048
0,6.042585760329655,11.750489568158386,6.005868625749106,0.9732831711966887,-1.4999122036874262
0,9.903769452915952,12.051321894559965,14.736220748592732,9.962812895039622,-1.4949124963418008
0,14.064947033535017,17.252148277652555,13.60656509440598,11.762340167384641,-1.4899127889961754
0,20.53611850713764,22.64296872543986,18.626901676280827,18.29186501527443,-1.48491308165055
0,16.027283877284958,18.013783244269213,14.007230505877903,12.111387464554543,-1.4799133743049246
0,6.9884431459524885,5.024591838698134,0.5675515934118116,11.190907539691985,-1.4749136669592993
0,12.149596313700519,15.295394511754154,13.277864947954399,12.930425263843084,-1.4699139596136774
0,-1.7592566199667603,-1.023808734661503,2.9681705777608105,-3.500059340944477,-1.464914252268052
0,0.7718843437817053,-3.7530178993905303,1.888468490418313,6.809453746602286,-1.4599145449224267
0,-2.6469807964998786,-4.422232981522061,-3.7612413069441297,-0.3910354526624982,-1.4549148375768013
0,-7.6958520422056464,-6.651453979928076,-8.6209588072756,-3.5015269180957778,-1.449915130231176
0,5.83527060551107,5.509319106907015,6.309315996719707,4.6079793708722345,-1.4449154228855505
0,0.9963871456896685,-1.7699137192510395,-0.8104168874161364,1.7374834347844943,-1.4399157155399287
0,4.137497577310377,2.5708475433785885,3.2098425478615353,-0.30301470593704327,-1.4349160081943033
0,-5.351398100846557,-0.008397103514886317,-1.9899056900402425,-5.943515030981242,-1.429916300848678
0,0.5797001099153452,-1.3976476583178123,4.50033840617071,4.375982480021813,-1.4249165935030526
0,7.19079220832302,5.163095880534495,6.93057484363423,11.26547784748074,-1.4199168861574272
0,6.141878192974794,1.5938335145068883,4.050803629161251,6.0449710914798915,-1.4149171788118053
0,7.11295806203227,9.884565244810792,6.271024769075236,3.3644622314537935,-1.40991747146618
0,3.8140318130573365,6.135291072203987,10.181238269140799,15.58395128613858,-1.4049177641205546
0,-2.034900556921814,0.026010996863470748,1.1014441344980095,1.893438273540561,-1.3999180567749292
0,-4.873839051147436,-3.6832749814865386,-1.98835763027707,0.3029232109301825,-1.3949183494293038
0,3.5072163271734413,3.817433136734124,5.841832979078144,7.702406115054435,-1.3899186420836784
0,-9.831734424987207,-9.901864648830527,-7.177984033288528,-1.7381129976688556,-1.3849189347380566
0,-8.220691310365126,-5.591168338311194,-11.827808663154103,-1.918634111067984,-1.3799192273924312
0,-8.829654331138627,-11.510477931341164,-14.057640905789963,-9.13915720899477,-1.3749195200468058
0,-5.438623488719564,-8.409793426800132,-6.007480755517284,-2.57968227499742,-1.3699198127011805
0,-11.47759878373487,-12.969114822667095,-10.88732820559942,-12.360209292094812,-1.364920105355555
0,1.803419783920948,0.13155788401549062,-1.6371832483908153,0.8392617573184558,-1.3599203980099333
0,-8.875567785031341,-11.637775302978547,-10.60704587551193,-11.281269108533804,-1.3549206906643079
0,-3.144561489388845,-3.4171143792089294,-5.286916077931182,4.538198129105191,-1.3499209833186825
0,-8.973561327467007,-15.866459339554755,-12.486793845918644,-7.852336510603587,-1.344921275973057
0,-1.4825672970341666,-0.7758101780965472,-1.5466791689694506,1.1571269917888305,-1.3399215686274317
0,-5.151579395332412,0.4948331118346858,-1.9265720358799396,-10.11341134398999,-1.3349218612818063
0,0.38940238081092926,-3.144529462649438,-1.2764724349989516,-2.4939514978298876,-1.3299221539361845
0,2.37037803482354,-0.7638978942586441,1.5236196455305175,1.2155065508217056,-1.3249224465905591
0,-0.2686524298027859,-14.11327217549064,-3.3262957823484123,1.914962822806566,-1.3199227392449338
0,-0.6276890096303717,-7.042652298355022,-5.166218706593002,-7.19558266095858,-1.3149230318993084
0,-7.84673170120902,-13.112038254056888,-8.596149114890203,-0.40612987946374235,-1.309923324553683
0,-4.47578050085496,-6.621430032835955,-7.596086994410947,-3.2066788114604243,-1.3049236172080576
0,-7.594835404425921,-3.2508276240146574,-12.98603233160205,-6.6072294354036805,-1.2999239098624358
0,-12.143896407162014,-11.060231016164792,-14.615985111986836,-12.307781729341713,-1.2949242025168104
0,-8.822963503519992,-10.449640197165404,-8.275945319970653,-1.1783356706940198,-1.289924495171185
0,-4.982036687055329,4.4309448458554535,-5.385912938828115,1.8911087637669863,-1.2849247878255596
0,-6.241115950500151,-9.73847587360803,-9.155887950909648,-1.309448402385892,-1.2799250804799343
0,-6.620201285923546,-4.957902341634371,-4.62587033782726,1.8799928544748172,-1.2749253731343124
0,-6.27929268479193,-0.03733454386970059,-5.195860080532709,2.619432557924003,-1.269925665788687
0,-6.7683901379535305,-9.306772465511283,-6.0458571593896675,-4.811129268546248,-1.2649259584430617
0,-4.03749363563864,-7.136216091304905,-5.865861554220683,-0.7216926014558169,-1.2599262510974363
0,-5.456603167505496,2.394334594533929,-2.185873244316594,-3.4122574171857756,-1.254926543751811
0,-11.915718722656383,-4.495120391753718,-13.775892208438025,-11.54282369183633,-1.2499268364061855
0,-9.814840289504948,-9.83458103361443,-8.87591842469654,-6.1433914010173325,-1.2449271290605637
0,-1.293967855624762,-1.484047314096939,-5.725951870360589,-6.843960519638671,-1.2399274217149383
0,-9.403101407819333,-11.723519215688324,-13.155992521806072,-9.02453102186206,-1.234927714369313
0,-0.052240932303661,-3.0529967202505004,0.05395964542037146,2.8248971188231655,-1.2299280070236875
0,8.02861358509432,9.057520190898066,8.43390465639347,10.844323929326634,-1.2249282996780622
0,3.6794621585675644,5.398031536591486,6.553842536295917,10.253749436389413,-1.2199285923324368
0,7.660304801938041,12.208537335273066,12.083773309847977,12.60317366601667,-1.214928884986815
0,7.1111415284680906,6.8690376046476835,5.813697000995102,7.8025966432027865,-1.2099291776411896
0,3.9419723508047824,11.669532361549447,3.9336136328648923,11.70201839190526,-1.2049294702955642
0,5.092797280999455,8.740021621893897,6.9435232279003465,7.441438935096626,-1.1999297629499388
0,-6.806383669343026,-8.9794945992294,-6.466574191944122,-5.639141705091555,-1.1949300556043134
0,-2.1655704887640805,-2.78901628714053,-2.1466786049283337,4.560276492977561,-1.1899303482586916
0,3.735236834325258,2.511456572937191,3.9032100107595475,7.9996935507345945,-1.1849306409130662
0,-6.043961688326091,-6.248076003975324,-7.536908322924193,-8.17089051060959,-1.1799309335674408
0,-3.663166044842159,-3.2376140026544933,-7.647033583844072,-5.401475669981015,-1.1749312262218155
0,6.067623776848318,7.7328425923391375,3.7328342504921856,6.9779380938591595,-1.16993151887619
0,0.19840778892603406,-5.906706203452207,0.6926952029208657,-3.0026491976543133,-1.1649318115305647
0,4.669186003442614,-0.19626037450692135,-1.147450703635883,-2.973237523068928,-1.1599321041849429
0,5.049958432172576,2.9741800947305306,6.052396553665538,10.796173139046878,-1.1549323968393175
0,-0.05927491344460911,7.064615219804134,0.7522369975190779,6.555582809961339,-1.149932689493692
0,5.711485977698113,11.985045015944936,8.772070650349606,3.83499151045591,-1.1449329821480667
0,9.082241116363738,2.4254694977481295,7.791897534153035,-0.6456007392617251,-1.1399332748024413
0,5.502990512823124,5.695888679087162,5.92171767032389,0.7638060806618674,-1.1349335674568195
0,1.6737341767321499,2.3163025732592075,-1.4784689203813397,-0.5267880100452721,-1.1299338601111941
0,8.21447211719906,5.726711193130111,9.421337782313019,1.172617008315454,-1.1249341527655687
0,2.875204342864026,-1.6228854488019897,1.3111377983075694,-5.287978844549385,-1.1199344454199434
0,1.575930861913363,4.777512659671263,4.220931147101118,6.951424451118594,-1.114934738074318
0,7.236651682135674,3.3279055305272633,5.190717847789731,9.8508269150163,-1.1099350307286926
0,9.527366810907678,13.388293175411059,6.960497919057241,7.27022856642427,-1.1049353233830708
0,4.538076255026328,-4.7513243945575,-1.729728620871893,0.5796294239454793,-1.0999356160374454
0,-0.8612199793505969,-4.660947168713609,-3.8399617541140576,-6.270970494340745,-1.09493590869182
0,3.38947811349316,0.24942486354677773,5.379798537137199,4.968428829509141,-1.0899362013461946
0,2.9001705390366275,2.0897917130133568,-2.250447729288987,1.5678274134789594,-1.0849364940005692
0,4.900857302527947,12.600153390481527,8.089299464349642,9.847225275421943,-1.0799367866549439
0,4.191538408887081,3.040509906367292,7.389040135527892,5.826622432775973,-1.074937079309322
0,0.052213862661292465,2.4208612704852466,2.7787743012503006,9.9860189023481,-1.0699373719636966
0,2.442883668091657,5.8412074921247985,2.5985019779847076,6.655414700199652,-1.0649376646180713
0,-4.2364521707482705,-2.7484514197893386,-4.8617768181654295,-5.865190158301242,-1.0599379572724459
0,-1.4257936497891648,9.531884543385624,0.39793792881176415,0.05420434183435929,-1.0549382499268205
0,-17.14514076472753,-23.157784609855284,-15.632353764888984,-11.506401784344364,-1.0499385425811987
0,-13.204493510621758,-12.85745887069157,-12.792651882526334,-13.807008521323768,-1.0449388352355733
0,-12.093851881448218,-7.367138229314298,-14.47295640636834,-9.527615852741379,-1.039939127889948
0,-8.153215869930312,-2.7668226747426523,-4.083267317460217,-5.268223761186153,-1.0349394205443225
0,-4.762585467696541,-0.5065121952022013,-6.8435845957707,-3.068832228345871,-1.0299397131986971
0,4.258039334387474,10.123793221390981,6.0760917794406595,5.490558764641446,-1.0249400058530718
0,-4.521341454173724,-5.335906412962547,-0.04423817079589676,-1.0100507631911664,-1.01994029850745
0,-1.9107278237439553,-4.625611086444688,-0.6745744254753314,-1.1006607928733632,-1.0149405911618246
0,-0.5401197645467486,-2.7953207871562857,-1.9649169636689399,-7.331271305441535,-1.0099408838161992
0,3.670482733339325,1.934964497095427,0.6547342355845949,2.21811771826468,-1.0049411764705738
0,1.3810796798312985,-5.71475522126193,-5.185620806649318,0.19750629765085614,-0.9999414691249484
0,-3.1083289152773195,0.7555200703594789,0.8040179308441626,-3.6131055477560916,-0.9949417617793266
0,-1.3477430422459595,12.145790384633704,3.4636504694246435,5.586282201608448,-0.9899420544337012
0,0.8928373087509742,0.4860557340359042,3.6932768304378305,1.6456695652765134,-0.9849423470880758
0,2.683412147617523,-2.863683869380461,0.48289703502200876,3.7150565626001875,-0.9799426397424504
0,1.7039814842010417,4.5565715861619385,2.132511104066589,-2.63555678731697,-0.9749429323968251
0,1.5945453281862694,-1.943177887639915,0.47211905827748835,1.8238295344717521,-0.9699432250511997
0,7.835103689038339,5.147067720827346,8.721720918183907,15.683215546769027,-0.9649435177055778
0,11.405656575845985,5.927308422993072,8.241316703980333,11.772601267898933,-0.9599438103599525
0,14.34620399699753,12.217544229899463,12.460906435241641,10.54198671523339,-0.9549441030143271
0,-4.253254040059286,-2.712224848022358,-4.979509869246745,-5.068628094904469,-0.9499443956687017
0,3.957282471353106,-2.901998800879425,5.770067808677774,-0.7092431468313725,-0.9449446883230763
0,4.797813537523371,-0.23177761894132887,2.399639486850906,4.760141574981363,-0.9399449809774509
0,0.7383391644905966,3.1184387076066873,1.969205182872594,0.039526086031090646,-0.9349452736318291
0,2.238859358016358,-3.461349811379761,0.6387649140930711,-0.9310895983055489,-0.9299455662862037
0,-2.610625876344313,-5.201143166019793,-2.9316813023006443,-5.351705462710081,-0.9249458589405783
0,3.9098834668745592,5.839058653710549,2.9578665508459796,9.627678508212142,-0.919946151594953
0,4.040387393055495,-0.9807443420457458,-0.8325915092999812,0.9070623298334624,-0.9149464442493276
0,-0.7191140926059497,-2.700552143170893,0.406944534405856,2.0364460172761762,-0.9099467369037058
0,-6.158620985086211,-0.18036473955497678,-4.04352530090123,0.06582958537747696,-0.9049470295580804
0,-2.308133279293405,-8.370182120945715,-5.044000997969363,-4.794786951152953,-0.899947322212455
0,-10.177650969799814,-7.8800042767607055,-11.344482539211906,-10.275403577483525,-0.8949476148668296
0,-9.497174050633253,-11.34983119582997,-12.474969906409763,-14.956020278280178,-0.8899479075212042
0,-8.30670251507425,-1.1196628662075512,-8.305463080427636,-11.696637037281992,-0.8849482001755788
0,-0.5662363555887711,-1.6794992752525413,-0.605962041161607,-2.587253837101439,-0.879948492829957
0,-14.165775563946047,-12.249340409843326,-13.326466767735639,-21.357870659303984,-0.8749487854843316
0,-4.535320131262093,-3.7491862563793803,-6.586977238608702,-4.6584874844362645,-0.8699490781387063
0,-7.864870047912571,0.2209631993249177,-4.9674934314970045,-5.269104291985018,-0.8649493707930809
0,0.8655746964270181,9.201107971839212,4.561984676545272,0.7502789393928073,-0.8599496634474555
0,2.736014112527637,7.8912480756189165,7.201457108731999,5.459662231424739,-0.8549499561018337
0,2.4264482112662025,0.33138352460657305,2.240923888082468,4.4090456058077825,-0.8499502487562083
0,-0.9031229966070516,7.681514332176219,1.4403850372087281,1.6584290839357538,-0.8449505414105829
0,-9.652699500421678,-13.838359488661245,-11.190159421529142,-7.602187313090054,-0.8399508340649575
0,-4.05228128929026,-2.4782379248794824,-0.9407094656438428,3.107196435796516,-0.8349511267193321
0,-2.5818683518511802,-3.708120963052878,-2.7212650722485843,-0.5834196481999749,-0.8299514193737068
0,-4.751460676262283,-10.838008589218733,-10.1318262180305,2.6959644561843614,-0.8249517120280849
0,-11.271058250245638,-5.877900788834583,-8.952392879185055,-2.6046512298444062,-0.8199520046824595
0,-1.6606610609772083,-0.08779754671300544,-0.5529650312442325,5.404733314847184,-0.8149522973368342
0,0.739730904945779,-1.267698847155555,2.576457350848072,0.3841181112914951,-0.8099525899912088
0,-5.999882338691016,1.9823953257674352,-3.664125707592576,-3.136496819619696,-0.8049528826455834
0,-5.889500777838334,4.132484987996369,-1.224714181180068,-0.027111457047849452,-0.799953175299958
0,-0.8791243980865301,-2.3574298446556314,-0.6953080444197575,2.1222742199057256,-0.7949534679543362
0,4.331246815325802,-5.147349156478189,-1.6759072716716041,1.4916602321538672,-0.7899537606087108
0,-4.568387122705818,-6.287272931623943,-4.8465118371477045,-3.3389533994644145,-0.7849540532630854
0,3.461973802703763,8.242798846077742,-1.1071217148497774,2.930433345847475,-0.77995434591746
0,-2.487670393563139,5.112866192934963,-3.0577368785119,0.5198204888843436,-0.7749546385718347
0,-2.18731969659159,-9.21707087492926,-2.608357301609124,-1.9307919495946981,-0.7699549312262128
0,-2.7269740913623646,1.1029876584767275,3.4410170425942166,1.6885960511359857,-0.7649552238805875
0,0.11336643732857477,0.7330418092751316,4.500386180899088,5.947984511764859,-0.7599555165349621
0,4.513701904823346,14.423091593635608,4.509750139925837,12.117373452743985,-0.7549558091893367
0,1.994032326417301,3.453137027357977,0.32910894595068374,1.1367628939766858,-0.7499561018437113
0,6.3343577171679994,10.743178125541224,9.08846262489122,8.666152854688145,-0.7449563944980859
0,1.404678091786487,2.8932149025231513,3.4478112022734715,3.2555433534997187,-0.7399566871524641
0,4.114993464617204,-1.7567526279824384,4.747154703143151,4.184934408510301,-0.7349569798068387
0,-6.554696150273481,-10.966724452540609,-3.0535068479003256,-8.145673962570708,-0.7299572724612133
0,-1.004390738876558,-0.3867005575185619,2.2658265734903376,5.823718257844062,-0.724957565115588
0,-3.9540902870036136,0.8133190711465494,-2.9148450084000626,-3.4668889126025886,-0.7199578577699626
0,-0.5537947801955517,-1.196665552202903,2.4344784307321268,2.1525045437632664,-0.7149581504243407
0,0.7564957962244885,-2.306654413134975,-1.2562030847912,-3.3381013553818244,-0.7099584430787154
0,0.29678145703582626,0.9933525028586594,3.163110469331472,0.7012934076857715,-0.70495873573309
0,-11.222937782911256,-9.446644789571833,-13.897580882586457,-9.969311149175866,-0.6999590283874646
0,-0.9026619085135368,0.9933537244748134,-3.1882771159734467,3.500084992155224,-0.6949593210418392
0,-2.5523909042321575,-2.2566519397756153,-7.508978205696393,-2.510518149901376,-0.6899596136962138
0,-0.4221247541591302,2.5733382331296326,-5.659684125969182,-0.5011205567513963,-0.684959906350592
0,1.9081365577958898,1.473324258687482,0.5596051495652423,-2.4717222097060203,-0.6799601990049666
0,3.1583930477405104,4.433306152286809,6.388889647620436,5.76767691000663,-0.6749604916593412
0,6.338644731623027,3.7432839290830766,11.848169394845325,14.38707682104829,-0.6699607843137159
0,4.468891625050755,-0.5767423960694307,2.507444417372496,-3.1735224583978887,-0.6649610769680905
0,10.959133743135537,8.663227191391234,11.27671474061305,13.035879089198419,-0.6599613696224651
0,4.149371100360126,3.143192705699784,1.7959803892734887,-0.904718519214301,-0.6549616622768433
0,-2.060396289428846,0.523154160686049,-2.6447586125124145,2.5346847328329036,-0.6499619549312179
0,-3.640168412758045,-0.22688843015377935,-0.9255022408963425,-6.14591113848068,-0.6449622475855925
0,3.110054743822876,4.503064946506163,2.7937495279597817,-0.27650611697405475,-0.6399625402399671
0,2.7602731938298093,1.9730143038465449,2.9629967178952272,-6.55710018625159,-0.6349628328943417
0,-4.609513049273134,-10.55704034509796,-9.547760647328177,-8.027693329564494,-0.6299631255487199
0,3.0206960279178605,-1.9370989872041093,1.0914774561066607,-1.5582855296755098,-0.6249634182030945
0,-1.4490995611761504,-0.14716160899040898,-2.6692889477339383,1.5611232311357957,-0.6199637108574692
0,-3.9588998030894635,-3.2072281966364486,-4.150059834518766,5.59053297080998,-0.6149640035118438
0,-5.9387046842164555,-0.40729873612440015,-5.38083517965373,-1.120056292811873,-0.6099642961662184
0,3.6414858093326323,6.992626786663479,4.728385041767457,7.949355457857607,-0.604964588820593
0,-3.0683283083005355,-10.847451614165536,-6.242399145112198,-7.211231759848805,-0.5999648814749712
0,5.461852977103196,5.842466075498552,5.006812284955457,13.458182071198255,-0.5949651741293458
0,-4.097970320285768,-5.017620130117629,-3.983980642733509,0.8275969678720057,-0.5899654667837204
0,5.862201813620119,11.80228978327108,7.745222097107225,12.167012946587155,-0.584965759438095
0,1.8923693927896084,3.4621958297483735,5.384420529604161,9.946430023087352,-0.5799660520924697
0,2.282532430983787,-12.267901976956141,-1.6663853204535615,2.8958482123099416,-0.5749663447468478
0,11.232690941652972,10.271996376740033,7.542804571356838,10.98526752839013,-0.5699666374012224
0,3.1128449377896317,6.961890904418773,4.1819902291315545,7.814687984726101,-0.5649669300555971
0,2.012994431820963,-3.7582183805822122,3.8211716765739716,6.454109593953993,-0.5599672227099717
0,-2.046860564263752,-11.298331465194698,-5.939651062995737,-1.2564676320102781,-0.5549675153643463
0,2.0332799613446975,4.661551663801568,2.159522033586786,3.912956318263336,-0.5499678080187209
0,-7.846583979539502,-3.78856898000187,-7.151309010424749,-6.017618544012935,-0.5449681006730991
0,-7.956452374899318,9.371306617149555,-3.9421441715359413,-7.00819220758916,-0.5399683933274737
0,-7.376325212229555,3.9011784688520916,-7.702983425864721,-4.258764660886629,-0.5349686859818483
0,-1.6462024783659914,-0.38895341166909647,-2.463826749021412,3.910664108131949,-0.5299689786362229
0,-3.9460841595692275,1.4409109884641844,-2.394674116120851,2.000094111759428,-0.5249692712905976
0,-1.2459702417080072,4.430771681930268,-0.3055255019161123,0.5995253622395305,-0.5199695639449722
0,2.114139289595485,2.3506286812183284,2.2036191190281227,-1.271042128332717,-0.5149698565993504
0,-0.7757555511759907,1.1304819985588428,1.1127597721712092,-4.791608347897095,-0.509970149253725
0,1.274345250448592,4.390331645925494,1.3318964828788382,1.0678267157367096,-0.5049704419080996
0,0.1144417088927756,-2.8298223649232326,-0.9489707236024308,0.36726307493305155,-0.4999707345624742
0,3.1845338385177424,0.2000199776366367,3.6901581778854595,-0.45329925786450254,-0.4949710272168488
0,2.544621653560862,-0.8601413147809948,4.929283212376126,2.2461397297748102,-0.489971319871227
0,5.4747051680374,2.2096937694801557,3.4784044046421903,-3.2444199497521757,-0.4849716125256016
0,-0.7952156043369518,-1.9504747579218227,-3.3424782208722377,-1.3949782840343814,-0.47997190517997623
0,0.8248593498862689,-2.7206468853257384,-4.6033646398831864,-4.785535260530898,-0.47497219783435085
0,8.064930043966903,5.3191773989861755,8.365745171961862,-1.9460908664563779,-0.46997249048872547
0,0.5749964909204797,5.318998106703136,3.424851239019219,-2.7166450887327227,-0.4649727831431001
0,6.7350587033979465,4.2788152492426335,8.823953585334952,-0.46719791401692184,-0.45997307579747826
0,7.205116693619743,8.088628837561481,5.863052234403718,1.9922506712092027,-0.4549733684518529
0,1.9651704733096786,5.548438882067471,0.9321472091150862,2.8317006804928586,-0.4499736611062275
0,6.015220053676725,6.508245392561612,10.771238531820435,2.3611521272533333,-0.4449739537606021
0,7.075265445451788,7.468048378215274,6.400326224339313,8.170605024653566,-0.43997424641497673
0,9.465306658824545,11.397847847526478,8.559410307831454,6.460059385450703,-0.43497453906935135
0,2.385343703322465,5.207643808218892,4.398490802719596,-8.580484778076427,-0.4299748317237295
0,3.18537658784115,2.987436267233342,-1.962432271202795,-6.591027453848959,-0.42497512437810414
0,1.6354053208278487,-1.5127747690661157,3.2766411054775286,0.33843137047658756,-0.41997541703247876
0,6.225429910420173,5.047010705385314,6.695710951965681,0.44789170764306474,-0.4149757096868534
0,6.165450364414377,13.66679269639713,7.93477728715677,4.7873535705537025,-0.409976002341228
0,5.9054666901344,7.726571209233278,-1.0961598705531177,4.256816971984946,-0.40497629499560617
0,1.2254788943660053,-3.1836537516239996,3.2428994967662357,-3.173718075559202,-0.3999765876499808
0,-2.4445130165238314,-7.013882182218035,-5.188044593196317,-5.304251559739851,-0.3949768803043554
0,1.9854909636532163,6.875885921381721,-1.238992122758086,-6.224783468067887,-0.38997717295873
0,1.545490841051273,0.6856505632209083,1.2000569259036742,1.404686212333841,-0.38497746561310464
0,1.7954866217553698,-0.2545882527309815,3.989102570710066,-0.2758425053140463,-0.37997775826747926
0,5.115478311685773,10.335169477289064,4.908144829473086,13.073630392268765,-0.37497805092185743
0,-3.6845340834547944,-0.415076243254409,-5.8728162802464405,3.7731049180348677,-0.36997834357623205
0,3.0754494418675065,5.994674588701322,-0.8037807410234985,7.7925810843183205,-0.36497863623060667
0,-2.654571106873058,-4.665578024133608,-7.054748535299856,-0.20794109718998635,-0.3599789288849813
0,-0.9345957241859025,2.1941659207793855,-1.735719645192403,4.591538384721882,-0.3549792215393559
0,-3.6346244044907228,-6.42609357400843,-6.956694052420391,-5.7689804590159905,-0.3499795141937341
0,-3.8346571420156192,-8.01635650574355,-8.28767173824309,-5.759497617508081,-0.3449798068481087
0,-10.014693930662386,-10.266622871205,-10.488652683314783,-10.470013079554635,-0.3399800995024833
0,1.705265236134828,0.5431073335108559,4.910363132418519,2.389473166607561,-0.33498039215685793
0,1.7852203653707763,0.4728341129008826,1.179375729511345,2.898961133223404,-0.32998068481123255
0,0.9351714641961171,-9.467442528212922,-2.961614871365948,0.19845083266899394,-0.32498097746560717
0,-3.0248814602887153,-0.21772258474467848,-1.2926086495618139,-0.37205772278263227,-0.31998127011998534
0,-3.304938400977565,-3.8680060512486767,-3.313605584323499,-3.442564520920724,-0.31498156277435996
0,0.7350006493887611,-0.8482929219441406,4.605394345266579,-2.793069549442594,-0.3099818554287346
0,6.114935698202845,8.311416809123903,7.614391160138039,13.776427204072204,-0.3049821480831092
0,6.314866752742006,7.9911231477859275,9.943384880894866,6.875925751854872,-0.2999824407374838
0,4.63479381988042,6.550826099378538,5.472375527495473,3.6554261055325736,-0.29498273339185843
0,-0.23528309400306757,-3.899474331386614,0.5713631191848245,-0.9550717239201263,-0.2899830260462366
0,-9.515363982826669,-4.39977814016063,-7.019652325251667,-4.835567725861095,-0.2849833187006112
0,-9.52544884036112,-7.750085322506008,-7.910670787024166,-1.236061889618895,-0.27998361135498584
0,-9.645537659761724,-9.460395873523087,-9.33169224688421,-15.216554204221502,-0.27498390400936046
0,-4.895630433337779,-5.05070978763715,-3.2927166848795753,-1.4270446581490392,-0.2699841966637351
0,-2.345727152622997,3.0089729413923263,4.136255919573189,8.952466760714012,-0.26498448931811325
0,1.1941721913705023,0.12865232019385398,0.6452255873485775,1.6319800646854614,-0.25998478197248787
0,0.9940676078593168,6.0583283554266645,-2.585807660692992,2.6314952658276547,-0.2549850746268625
0,-0.6560408939171258,-9.97199894638419,-0.596843803728725,-4.83898762410057,-0.2499853672812371
0,-3.4361533047335713,3.0976704212677166,-4.0778828208429285,1.0605314065805724,-0.24498565993561172
0,-8.576269615236264,-12.182663534896635,-5.278924690907603,-3.389947630351428,-0.23998595258998634
0,-2.526389815711911,-7.263000807722481,-4.309969392460722,-1.4504247229647933,-0.2349862452443645
0,-1.916513895972908,0.12665861055131955,-3.2710169036196266,-4.050899859140163,-0.22998653789873913
0,-0.5666418454597323,3.776314728202939,1.7179327978783725,1.5486269734600624,-0.22498683055311375
0,-3.5767736533933157,-3.0240324463166197,-2.6931202654729116,0.9281557873340633,-0.21998712320748837
0,-3.896909308801014,-6.2343829045415085,-6.714176071030041,-6.102313404954601,-0.21498741586186298
0,2.0429511995282637,-4.874736637806689,-3.2452345958898703,-0.8327805907354477,-0.20998770851624116
0,-10.097192116949717,-9.925093636989578,-10.516295816705831,-2.853245757109748,-0.20498800117061577
0,-13.677339246408065,-11.44545389230788,-9.267359709520367,-12.21370889086132,-0.1999882938249904
0,-8.187490176293885,-7.2458173931373295,-2.8584262496287898,2.0958300216722208,-0.194988586479365
0,-8.247644893071854,-0.2561841279861675,-11.119495411574768,-9.484629005319288,-0.18998887913373963
0,-3.427803382291264,-7.406554084707398,-4.27056716921099,-7.235085957132685,-0.18498917178811425
0,-8.987965628779245,-2.176927250705001,-3.2416414957342874,-4.365540818492459,-0.17998946444249242
0,-1.2081316167608875,-17.127303612904715,-5.102718363787235,3.424006426445124,-0.17498975709686704
0,-4.238301329943839,-1.1076831575470263,-1.743797745587451,-6.2964442061281,-0.16999004975124166
0,-5.10847475161782,-6.588065870081605,-7.274879612974454,-4.936892699811378,-0.16499034240561627
0,0.06134813529058425,5.501548264639706,4.374036062570469,5.642660962054861,-0.1599906350599909
0,-2.9688326518314323,-9.6188407379386,-4.257050690175307,-8.807783203640483,-0.1549909277143655
0,5.430982904590467,6.400767137789602,3.4118601576765037,-2.8682251798243352,-0.14999122036874368
0,6.350794822097729,11.790371907460194,4.790768634995191,-2.588664949123608,-0.1449915130231183
0,0.21060311794945363,-2.440026413596237,-0.7103252295098696,0.7108975061784779,-0.13999180567749292
0,-2.159592190933413,-1.3604278105094303,-2.811421407327064,4.430462203972343,-0.13499209833186754
0,4.210208912201619,0.7991677313822045,0.7674801300075171,-1.5299708378954073,-0.12999239098624216
0,-9.779993555900912,-6.311239773203441,-6.763620588928898,-12.610401601627872,-0.12499268364062033
0,-11.500199578290786,-10.161650309314137,-12.514723535273422,-5.380830069144271,-0.11999297629499495
0,-5.7804091374344555,-4.962063861500649,-7.125828679569521,-1.261256221754428,-0.11499326894936956
0,-13.370622214943877,-7.952480413624423,-13.086935991490307,-11.54168004015409,-0.10999356160374418
0,-9.440838791496903,-7.192899948842337,-9.868045439723849,-6.2421015044662225,-0.1049938542581188
0,-11.931058846769929,-10.703322449597755,-9.069156991934932,-10.61252059411201,-0.09999414691249342
0,-9.741282359383518,-13.783747897502847,-6.700270614804154,-7.402937287692148,-0.09499443956687159
0,-8.65150930692158,-2.064176273206975,-4.541386274170023,-1.0133515630113226,-0.08999473222124621
0,-4.691739666024603,-7.314607556456793,-2.0825039352220927,-6.393763397243579,-0.08499502487562083
0,-2.4319734125782038,-3.195041726325119,-2.6236235626989606,-5.334172767092872,-0.07999531752999545
0,-0.892210521962079,-13.485478761323511,-4.464745121020696,-6.324579648791468,-0.07499561018437007
0,-3.7624509692553714,4.484081360645028,-2.2858685743105234,-5.124984018029678,-0.06999590283874824
0,-4.562694729297651,-4.576361337788974,-5.976993886359953,-3.265385849953232,-0.06499619549312285
0,0.3970582233544395,-9.676806833640509,0.5618789793898484,0.3942148807429444,-0.05999648814749747
0,-3.5431920855804306,-0.3372551035468023,-1.6292499402048992,-4.906181800333369,-0.05499678080187209
0,3.1365543698033562,0.33229387629870955,-2.410380608094651,-3.0865758673395347,-0.04999707345624671
0,-2.1437023845044343,-7.338159869984976,-4.251512987063072,-3.186967294149146,-0.04499736611062133
0,-2.8039623224754022,1.8713836819434486,-0.1626470396649986,-1.7473560543175783,-0.0399976587649995
0,0.09577458200986233,0.020924556641588765,0.756217271768,-2.0677421211234552,-0.03499795141937412
0,2.8255083551870253,3.73046277875212,1.7650799849993544,2.631874532348914,-0.029998244073748737
0,-1.3347609766913697,-5.140001627143434,-0.4160588622457395,2.2814939330749553,-0.024998536728123355
0,-0.9650333874226815,-6.97046863644414,-2.867199232296393,-0.7888838920561858,-0.019998829382497973
0,5.004691149168067,3.7390617756947027,1.4816589125466932,6.910741083687216,-0.014999122036872592
0,6.184412659146739,6.848589634342078,3.1805156100314877,7.640368886779396,-0.009999414691250763
0,-1.7458688317116136,-4.971885035505015,0.48937089784375876,2.929999543243254,-0.0049997073456253815
0,-3.776153297908727,-1.572362209017724,-1.3917751864689607,1.2496330785804286,0.0
0,0.15355928602761582,1.797158138652184,1.647077394560363,5.289269517894685,0.0049997073456253815
0,3.0232689456902495,2.5266760324306254,4.525928678350669,9.858908885937359,0.009999414691250763
0,-0.1570242933037016,1.6461914971749225,-3.9352212977946324,-2.0114487930093317,0.014999122036872592
0,7.052679594532561,9.365704557518757,5.8036275032914375,10.158196504827176,0.019998829382497973
0,5.162380634413889,3.2652152377152577,2.14247511864495,5.847844802737736,0.024998536728123355
0,4.842078851127702,0.9047235615349432,10.051321585044914,9.857496123428803,0.029998244073748737
0,-1.3082257310078886,-5.505770447597552,0.7301669388254615,0.13715048891716675,0.03499795141937412
0,1.9314669119997436,-1.1162667662862518,3.4990112158269993,3.6668079206294584,0.0399976587649995
0,-9.438843195947857,-10.796765370883142,-14.402145548392108,-6.723531560336604,0.04499736611062488
0,-3.6991560307647755,-1.8772662372964692,-2.5333033181140943,-2.9438679328990314,0.04999707345625026
0,7.430528431985119,6.092230659029218,7.755537942829665,-1.5442011757390044,0.054996780801875644
0,7.150210216867013,6.111725342802152,6.924378270798764,4.645468732720132,0.05999648814749392
0,1.5698893481383154,-0.058782161529069565,5.143217701818932,1.0651418141048359,0.0649961954931193
0,5.149565849567293,4.450708170098369,5.952056271328026,1.1248180898944904,0.06999590283874468
0,3.439239744499337,2.7101963614385687,1.500894014206113,1.0844975813918682,0.07499561018437007
0,-0.3310889440720495,-2.4403175640038475,2.489730964896714,-3.595819690200332,0.07999531752999545
0,3.088579806575611,8.429166417076821,1.6285671575417306,2.3738662963205965,0.08499502487562083
0,-2.1717539810005175,-8.33135167217225,-3.562597373898648,-2.1564444377894962,0.08999473222124621
0,-0.1720902843148311,-3.7918718086428287,-2.9137625954889836,-5.096751871196856,0.09499443956687159
0,2.5375709191129805,0.8776060309742046,2.7850715268354795,-1.0570559823943126,0.09999414691249697
0,6.517229651702383,7.357081870211849,9.113905027199461,13.572643250292558,0.10499385425812235
0,-0.983114064355427,3.2465557325152252,-0.0972620605027652,1.1323458483767843,0.10999356160374774
0,4.366539792829438,-0.9739723590107159,0.12157029724172208,-1.0579481670888748,0.11499326894936601
0,8.596191244850045,8.905497618405375,9.470402133649866,11.151761224540762,0.1199929762949914
0,8.985840312859839,5.734965687194806,15.249233481557575,15.001474043476277,0.12499268364061678
0,12.075487017305944,9.574431869269574,13.408064372999487,15.051190309083214,0.12999239098624216
0,11.005131377709983,10.393896185824781,10.526894838831222,6.350910039508366,0.13499209833186754
0,-5.8452265873510605,1.8233586572477014,-1.8742750912553405,-1.2493667482312798,0.13999180567749292
0,1.1644131400844473,7.832819303185817,2.5545546116579048,1.1003599622150688,0.1449915130231183
0,4.8940505777918695,4.252278142691921,5.82338397612186,6.090090186933711,0.14999122036874368
0,10.203685743398191,9.291735194264886,11.412213030364391,13.959823941729061,0.15499092771436906
0,8.58331865405788,7.831190475772473,9.861041802011872,5.9495612417878965,0.15999063505999445
0,2.8829493262000248,8.200644004351147,5.19987031784467,8.829302101433395,0.16499034240561983
0,-1.9774222243963402,-1.4499042035917364,-1.2913013961491997,2.6390465341631515,0.1699900497512381
0,-3.987795982256089,-4.300454132134192,-3.09247331443101,-7.231205447097745,0.17498975709686349
0,3.3418280681221657,6.928994234513954,-1.0436454115198734,7.0785461703612,0.17998946444248887
0,-1.1085500576582765,-2.041559087871005,-4.244817661770884,-0.37169860077371564,0.18498917178811425
0,1.2010696560126082,-3.932114083578673,-1.4559900393056087,-4.101939747880591,0.18998887913373963
0,1.900687224687296,1.3673292631208294,7.302837481944685,0.7878227416428403,0.194988586479365
0,4.330302663808485,4.966770968044959,5.521664928000168,8.5475888804434,0.1999882938249904
0,4.429915988594488,4.426211046921545,4.460492324513939,16.097358680935088,0.20498800117061577
0,-3.740472786033328,-6.474350484780736,-4.750680303311281,-5.172867845135008,0.20998770851624116
0,-1.6208636453312675,10.475086388209709,-2.3018529304849267,0.12690931330428235,0.21498741586186654
0,-6.13125657447672,-12.955478318913283,-8.133025531879575,-10.683309832868764,0.21998712320749192
0,-3.451651558353298,-1.096044590885601,3.0058019179845985,4.7964747274782304,0.2249868305531102
0,-5.912048581438347,-1.056612412152464,-7.685370555056968,-6.483736994180881,0.22998653789873558
0,-3.2624476277600083,-6.2771817668033565,-4.066542924854611,3.266055013849808,0.23498624524436096
0,-1.432848680921184,0.9222473613636324,-1.1277151648957293,-3.684149236605818,0.23998595258998634
0,-2.0732517241928026,-9.238325011154139,-3.008887248304548,-4.864349733595089,0.24498565993561172
0,-3.2036567406083,3.2511011324715335,-1.8000591479340435,1.4254535350388955,0.2499853672812371
0,0.5759362870042273,6.390525809304002,0.8487691635636176,0.8252605816610639,0.2549850746268625
0,2.605527375962609,-0.790050963643659,0.5575977136580785,2.785071418687658,0.25998478197248787
0,0.21511654358987697,7.459370830359152,6.1764265297989684,5.124886058401105,0.26498448931811325
0,-2.1652961928728898,-0.3612087922830477,0.0952556392548336,-1.6652954871617138,0.26998419666373863
0,6.974289183750811,5.478210184517677,6.554085069007652,10.174526793754838,0.274983904009364
0,6.463872690486567,-0.5623722234444917,5.822914845687045,5.014352912547325,0.2799836113549823
0,-0.9965456559949931,-5.642956000563994,0.24174499550002326,6.614182880087128,0.28498331870060767
0,4.923034160578376,8.99645886873672,10.980575544207996,10.444016706600735,0.28998302604623305
0,6.092612156158365,2.8558723999851647,1.8594065171030802,-1.2561455983581609,0.29498273339185843
0,-0.26781165364467285,6.505284608411931,1.948237938977836,4.783695974192847,0.2999824407374838
0,2.691762746432861,-1.855304491188553,0.6270698342367507,-5.366458567096678,0.3049821480831092
0,10.8613353713549,4.294105115635218,11.965902227012913,-0.7666092136492973,0.3099818554287346
0,-0.24909376430702146,-1.116486556871061,-2.455264858918742,-0.13675595678097838,0.31498156277435996
0,6.660475353523872,5.382920505381462,6.723568599771383,7.053101212282123,0.31998127011998534
0,9.960042738429586,10.652326316233223,10.912402625977169,6.332962302160051,0.3249809774656107
0,4.039608403421504,6.521730889029875,4.171237242042701,-5.447172678897886,0.3299806848112361
0,0.789172360883521,0.5311342364417153,3.7900724696400223,-1.5873037229022942,0.3349803921568615
0,7.328734622704961,10.910536370529234,4.648908329861509,3.5425691781549156,0.33998009950247976
0,4.718295200380043,0.5799373028406087,5.047744843349153,1.6624460323377597,0.34497980684810514
0,9.12785410492114,10.549337044394477,6.766582030293305,5.842326847576558,0.3499795141937305
0,1.2974113467546036,2.2687356056486854,2.6854199103825134,1.2722116315141725,0.3549792215393559
0,7.8169669357348806,19.83813299641913,11.004258502774539,1.0821003914804068,0.3599789288849813
0,9.846520881167507,10.147529225633487,8.47309782601396,-0.2580068654183395,0.36497863623060667
0,9.126073191690265,11.446924301058548,7.7819378978830915,5.981889867787897,0.36997834357623205
0,4.485623875133018,3.246318229294979,7.380778735335957,6.481790597859347,0.37497805092185743
0,11.43517293852636,13.02571101599906,13.169620354509071,10.641695331114887,0.3799777582674828
0,9.134720388120623,9.895102665990455,12.29846277063265,8.571604073180964,0.3849774656131082
0,2.8042662293441536,-0.5255068167734477,1.347305997921025,0.031516828892293486,0.3899771729587336
0,14.583810466828805,21.913882570845686,16.6661500496394,14.171433602384784,0.39497688030435185
0,8.683353104403846,-1.3167291688405542,5.584994938184167,8.761354397121146,0.39997658764997723
0,3.6528941450081196,-0.07734203433591778,1.9538406750873913,-3.868720784196232,0.4049762949956026
0,12.062433590728862,8.952043975320867,12.8226872711374,11.151208060495872,0.409976002341228
0,7.301971442881287,7.341428860729811,11.511534736431319,3.9511409328070273,0.4149757096868534
0,1.5015077020112644,-2.7591873779881513,-3.0896169197452186,2.481077833868728,0.41997541703247876
0,9.451042367987863,7.500195258823763,9.279232311167535,1.8010187643488629,0.42497512437810414
0,3.430575440122973,4.249576770481301,5.608082437223636,7.480963724571225,0.4299748317237295
0,2.150106917205494,2.6989571559288223,0.556933466003398,-1.7690872854622186,0.4349745390693549
0,-5.310363202360038,-9.76166358621666,-6.174214595300858,-2.639134266022391,0.4399742464149803
0,1.389165079731876,-6.1722854573106085,-3.245361739540096,0.8408227825503569,0.44497395376060567
0,-0.3713082381239639,-6.202908458255435,-3.8965079592847096,-3.059216139992445,0.44997366110622394
0,-4.811783157428969,-6.193532589318013,-3.5676532467229642,-2.089251033767421,0.4549733684518493
0,1.3077403204366873,8.55584214976985,5.0612024062719145,-2.1792818987197977,0.4599730757974747
0,-6.962737805720185,-8.984784240462462,-8.5099409919998,-4.529308734568559,0.4649727831431001
0,-5.1632175368203255,-6.105411759353526,-3.111083433085911,-5.759331540738148,0.46997249048872547
0,0.14630112659254396,3.7039595940418013,2.347775091736565,5.930649683682459,0.47497219783435085
0,2.645818184304886,8.67332982091532,5.076634591392588,7.480634939747993,0.47997190517997623
0,-6.6646663637577594,-9.537301077626179,-3.964504925250563,-1.6793757717071403,0.4849716125256016
0,-0.3251525175743482,3.1820668993670926,0.7143565505429395,6.090617549772243,0.489971319871227
0,2.024359723049752,6.69143375284132,4.953219027468241,2.300614904322226,0.4949710272168524
0,0.8038703584133898,1.1107994836362034,3.8220825141161328,4.860616291766279,0.49997073456247776
0,7.523379388724085,7.650164092253955,9.940947018749638,12.390621711511729,0.504970441908096
0,12.462886813854167,8.279527578737149,11.48981254905514,8.31063116234301,0.5099701492537214
0,9.80239263300546,8.838889942525718,11.898679111880421,6.650644642216704,0.5149698565993468
0,8.23189684444812,7.688251182302038,12.857546713020174,9.190662148236484,0.5199695639449722
0,3.8513994455206153,3.6176112959681768,6.986415357138458,-0.6493163232344923,0.5249692712905976
0,-6.4090995671084,-12.373029719133111,-4.144714952074933,-5.309290776333075,0.5299689786362229
0,-5.589600196980978,-5.773671865695761,-5.435844211436928,-2.9092612152900195,0.5349686859818483
0,-9.180102447357111,-9.324315145899268,-8.706972417676102,-10.48922764404737,0.5399683933274737
0,0.2593936790620407,4.155040438768794,1.5919004329382993,4.700809933919095,0.5449681006730991
0,-12.931111819841641,-11.205605112655535,-15.369225655332533,-6.429148484455358,0.5499678080187245
0,-4.081618945598585,-0.20625180075163804,-5.050350677635378,-5.559102901943673,0.5549675153643499
0,-6.802127699076498,-2.5268996257135816,-2.181474628405108,-4.649053320970809,0.5599672227099752
0,-2.5126380804995483,-6.387548587379914,-0.22259750147303559,1.7010002564720983,0.5649669300555935
0,-0.43315008960175644,1.6818013147216984,2.8662807096137266,8.371057828645828,0.5699666374012189
0,-6.303663725785696,-6.248849918643193,-6.574839988629697,3.221119393672633,0.5749663447468443
0,1.1058210118112677,1.8504977135413299,3.0640404103672885,8.041184949228528,0.5799660520924697
0,3.865304124257219,-1.8801557875162047,0.8129219132674171,8.231254492411693,0.584965759438095
0,2.504785612626701,-3.260810420467307,0.06180452674400139,-1.1586719802961885,0.5899654667837204
0,-0.7757345221916324,-2.981466183804247,-0.8293117425903949,1.3014055270905804,0.5949651741293458
0,-5.6062562794486075,-6.512123075753431,-3.8004268881205756,3.8314870102959,0.5999648814749712
0,0.3732203416829747,-5.20278109415122,-0.6915409031107504,-1.548427535109898,0.6049645888205966
0,3.57269534220808,-2.0234402363646424,2.0373462193379535,4.8616618862871075,0.6099642961662219
0,1.8421687231609813,0.49589950065228905,-0.8437655137972113,0.16175526973678456,0.6149640035118473
0,11.811640485353532,5.83523812013832,10.145123904385354,1.2018526103145222,0.6199637108574656
0,1.9211106291419595,8.134575625203306,5.114014480494457,4.741953902922796,0.624963418203091
0,-8.819420845608807,-6.826087981412311,-5.957093779311784,-4.5179408577013485,0.6299631255487164
0,-4.069953939163183,5.753247302720879,-5.508200869125394,-3.737831676891741,0.6349628328943417
0,-4.600488651455201,0.3925814799054501,0.3806932171247359,-4.89771855981895,0.6399625402399671
0,-3.571024981933367,4.30191455231486,3.589588485793717,3.6423984886612124,0.6449622475855925
0,-6.4615629295987596,-5.9387534780590165,-2.7115150566777357,-4.4674805360712195,0.6499619549312179
0,-8.212102492978172,-5.29942260924905,-1.2426174038821787,-3.237355638498551,0.6549616622768433
0,5.367356329920126,9.429907160893245,4.516281450599922,8.28277317702944,0.6599613696224687
0,-7.383186458518996,-5.200764165369626,-7.164818486788703,-7.5870940937875435,0.664961076968094
0,-11.233730855618983,-5.6214365857934645,-10.915917209482572,-8.926957455207285,0.6699607843137194
0,-5.084276858209975,-1.142110097997686,-7.55701471044508,6.0831830887879885,0.6749604916593377
0,-3.9748244624165308,-10.372784699236156,-4.258110981883943,-6.716672465430812,0.6799601990049631
0,0.8346263362326565,-4.863460386270208,0.830793984677265,0.08347587871176193,0.6849599063505885
0,-1.4159244574653118,-5.114137155270685,1.5397001980913914,6.743628117899428,0.6899596136962138
0,-0.936476838576062,-6.504815001807076,-2.051392332694367,-3.446215751203655,0.6949593210418392
0,-0.017030802086329178,-0.15549392092114694,-2.622483598717444,0.5639442679396093,0.6999590283874646
0,0.042413657080488665,0.4738260927380318,-1.6135735909091975,1.57410817180415,0.70495873573309
0,3.141856544013122,2.2031450446916625,2.9053376999569824,-1.5557240431416628,0.7099584430787154
0,-6.098702136234713,-1.4375370595578896,-2.6157497168118136,-0.5255523804388038,0.7149581504243407
0,1.700737621413443,4.2317797854099295,-0.28683583189392026,3.6546231563776446,0.7199578577699661
0,1.230175822130861,4.24109558488279,1.3220793640658954,8.514802563679094,0.7249575651155915
0,-7.320387528826974,-8.729589656034817,-9.689004119493873,-3.6250141624596153,0.7299572724612098
0,0.9890475739180828,-5.690275932240304,-2.0500862729116642,0.295172973726206,0.7349569798068352
0,-6.35151886401392,-8.39096323825168,-5.7011670861178345,3.285363967876691,0.7399566871524605
0,-1.912086836702088,-8.551651567935897,-2.9822465485829226,0.19555881557656235,0.7449563944980859
0,-3.0826563379075904,-11.532340914383202,-7.563324649341659,-1.6842424876893158,0.7499561018437113
0,-6.863227361056348,-10.253031269789213,-5.574401376950377,-6.794039946442416,0.7549558091893367
0,5.87620010075502,6.476277374541258,9.004523280499123,9.096166434942598,0.7599555165349621
0,2.9756260546059132,4.195585027827647,6.913449335059621,3.776376652134515,0.7649552238805875
0,6.865050507433063,7.8648916992225795,4.8723767984387685,6.9465907005112335,0.7699549312262128
0,-0.06552653420388621,0.2841973974369456,-1.1186943182055233,-1.283191425028778,0.7749546385718382
0,5.293894935865046,1.073502130739253,6.440235995871553,4.207030270017656,0.7799543459174636
0,-2.0966850764889253,-17.2771940927504,-7.880832248813963,1.2372557798981727,0.7849540532630819
0,-0.36726656557516635,-6.007891264548601,-0.12189904179101455,2.2974850986518476,0.7899537606087073
0,-2.0478495257334597,-1.8785893754109817,0.6370356275483815,-3.5422817798565567,0.7949534679543326
0,4.091566048753603,0.44071158458359405,2.3159717699397593,2.0379551381717294,0.799953175299958
0,6.250980163562359,4.660011625637184,6.60490939604972,5.178195846520465,0.8049528826455834
0,3.62039282409729,3.81931075788145,9.143848516228978,3.2484403388252936,0.8099525899912088
0,3.3998040353387227,3.0486089911669088,2.0227891402917177,-1.0213113915682253,0.8149522973368342
0,0.719213801870376,-3.3320936649655604,-4.708268722477433,-1.0210593515406938,0.8199520046824595
0,-5.6813778719573556,-4.792797201097473,-2.169325063002744,-7.70080354797418,0.8249517120280849
0,-4.841970981757379,1.2364983923230572,-2.8503798720712634,-9.590543987462539,0.8299514193737103
0,9.737434477085333,7.3157931250109245,11.418566859711449,10.019719323885413,0.8349511267193357
0,-2.323161490726294,-4.874912993375624,1.0975151416406834,1.5999863802510275,0.8399508340649611
0,3.3562411193434607,11.384380046602894,6.746464982609477,5.900257175655335,0.8449505414105793
0,2.6056423116102243,2.2636722540873504,5.395416391012892,-0.9794682962624249,0.8499502487562047
0,-4.794957909770217,-3.487036362156997,0.38436937476958843,0.6708099578411906,0.8549499561018301
0,-1.1255595406809928,3.632254206367713,4.433323941393824,-4.128908068799096,0.8599496634474555
0,4.663837423084761,16.201543967975145,6.092280098068279,-2.328622382870507,0.8649493707930809
0,1.783232985751765,7.940832930474597,4.241237851597317,2.7716670091199513,0.8699490781387063
0,0.5126271513843835,-0.9398788991714114,1.4601972083402677,-5.338039899188076,0.8749487854843316
0,-0.7579800761329514,-9.260591514627755,1.8391581742794465,-5.647743114009926,0.879948492829957
0,-1.6685886929774372,-0.7913049095867054,0.04812075515835751,-3.0574426412632376,0.8849482001755824
0,-2.83919869526425,-0.09201907740783316,-8.122915043359768,-3.7471384864489385,0.8899479075212078
0,-3.3598100789424845,1.3572659888033574,-3.2439492154495566,-2.4168306546802496,0.8949476148668332
0,-1.6804228397204037,0.2865502959856353,0.8350182450725931,-0.0965191507651737,0.8999473222124514
0,-4.591036973035345,0.6658338510241639,-0.07601265531354937,-5.52620397927768,0.9049470295580768
0,-10.801652473986353,-13.184883339174759,-11.417041909958916,-9.815885144512174,0.9099467369037022
0,-8.302269337130191,-6.475601267383911,-7.3980695118891555,-12.105562650231317,0.9149464442493276
0,-3.3228875562842504,3.6836800742228704,-6.669095453495375,-2.695236499392985,0.919946151594953
0,-6.783507124549795,-3.2370393060447005,-8.090119726408254,-8.124906694124906,0.9249458589405783
0,-1.624128034463232,-3.1477593996754707,-3.0411423215496813,-4.004573235879693,0.9299455662862037
0,-7.234750278098501,-6.038480197976912,-4.732163229235698,-11.324236125507205,0.9349452736318291
0,-0.9453738471027577,0.7307983080574318,5.03681756065093,-4.513895363193643,0.9399449809774545
0,-2.3959987327403036,-6.599923872226578,0.5158000583978046,-0.33355094845259636,0.9449446883230799
0,1.6533750739933342,0.9493532708113395,0.8047842742248443,-6.753202880283272,0.9499443956687053
0,3.252747582197286,-4.211370252925941,4.58377021819177,-0.5528511573261028,0.9549441030143235
0,-2.6878811990887037,-0.19209443331024417,0.16275790017305175,-0.8424957779206796,0.9599438103599489
0,-2.3785112608893093,-1.732819260027257,-2.078252670138311,1.5178632597915442,0.9649435177055743
0,-2.909142594144625,-3.633544722594527,-1.6992614831108515,0.5882259577136788,0.9699432250511997
0,-2.5597751895757423,0.2257291896510567,-5.780268528992469,-7.051407682253877,0.9749429323968251
0,-1.0104090376548287,-4.324997512430423,-3.1212737977596063,-3.9910376580682785,0.9799426397424504
0,-0.8410441286454888,0.3042751822153934,-2.4922772790323666,-1.9706639673432202,0.9849423470880758
0,4.438319547299127,2.8335472847927803,2.8267210378777774,6.0997133926322435,0.9899420544337012
0,-7.9023179999630955,-23.977181193324146,-6.934278836165045,-6.689905575326769,0.9949417617793266
0,-4.802956760488359,-4.147910240236719,-7.165276890107749,-6.329520868354036,0.999941469124952
0,-9.243596723973567,-7.048639843097353,-8.956273112468626,-7.629132483274913,1.0049411764705773
0,-4.0842378795251,-5.839369988133122,-3.26726749111456,-0.5787404163685439,1.0099408838161956
0,6.165119784315407,9.819899339015832,4.93173998668097,1.7616553365627983,1.014940591161821
0,-9.395523720682942,-10.840831847053604,-11.659250666023576,-7.277945220036046,1.0199402985074464
0,-4.236168382566076,-5.65156353161971,-1.330239435923716,1.8224579184416767,1.0249400058530718
0,-7.946814189010273,-9.542295699572627,-6.861226309315169,-4.0771352431899395,1.0299397131986971
0,-0.4274611271499063,4.026971664816043,2.01778872796368,-1.556724699908338,1.0349394205443225
0,1.3218908163338332,6.516238577689088,6.296805690340967,-1.1963104464968473,1.039939127889948
0,1.351241654954216,-5.724494944814766,-2.3541754077927024,-1.9558924775526525,1.0449388352355733
0,2.610591402186092,6.234771113266582,1.1948454477659618,-4.155470787493681,1.0499385425811987
0,11.519940071291874,12.7840367676915,9.6438682710528,9.744954629414178,1.054938249926824
0,3.8092876750939073,2.0133020337668146,2.0528930758316464,1.6053837788644867,1.0599379572724494
0,5.60863422579482,7.5625669261202315,7.021919875406573,6.755816666227869,1.0649376646180677
0,3.7779797350022415,6.831831458730932,6.590948682553387,5.4062532964069065,1.069937371963693
0,5.57732421382989,0.42109564500604213,4.339979509495772,3.486693673805937,1.0749370793093185
0,7.196667672914444,7.6603594978498215,7.179012367883774,0.48713780236969195,1.0799367866549439
0,6.996010122344427,3.1796230297328,9.47804726877309,13.137585685651013,1.0849364940005692
0,12.655351571539589,12.258886252641805,11.527084222510396,14.92803732665615,1.0899362013461946
0,0.5146920291432355,0.36814917795763,1.796123238603243,0.6184927275112513,1.09493590869182
0,9.274031503053614,5.867411816444495,6.48516432578039,1.70895188944865,1.0999356160374454
0,20.893370000445966,18.536674178279558,17.704207492100846,18.249414813081817,1.1049353233830708
0,13.92270752747392,13.335936272809445,14.89325274475099,8.999881498356787,1.1099350307286961
0,14.932044088868787,17.63519810812642,15.212300089646343,3.010351944270087,1.1149347380743215
0,16.561379687823628,20.704459690792962,15.721349531221602,1.340826148953151,1.119934445419947
0,15.100714326024619,13.813721025701414,19.700401072382515,13.271304109983623,1.1249341527655652
0,23.150048003595835,25.05298211598829,28.509454714346127,20.891785824311917,1.1299338601111906
0,10.539380718987458,8.222242963013732,13.458510456358148,4.232271287817957,1.134933567456816
0,14.028712468993708,16.911503566457185,13.897568295635104,15.642760495088872,1.1399332748024413
0,13.548043248943802,15.210763924499014,13.266628227668436,10.113253439525248,1.1449329821480667
0,19.167373052810504,13.47002403389672,19.405690246499436,10.613750113415119,1.149932689493692
0,16.236701873099975,18.859283889947392,16.634754344690528,11.55425050794138,1.1549323968393175
0,4.8260297007782995,5.468543486490161,7.973820513233977,3.1047546132576356,1.1599321041849429
0,5.985356525515158,9.547802816063347,9.04288874171182,9.175262418643879,1.1649318115305682
0,1.7446823361354846,10.547061870167488,2.9519590186533957,-1.6042260872931262,1.1699315188761936
0,6.164007120949356,4.606320639421487,3.5610313318686857,5.996289083575196,1.174931226221819
0,9.023330867822636,14.255579113594209,4.5901056686764345,8.636807918994633,1.1799309335674373
0,0.7426535640929646,-2.675162718359635,2.1091820160137233,0.4173304062625738,1.1849306409130627
0,1.8019751965788107,7.544095131836865,-0.5317396395028289,-0.0521434677853827,1.189930348258688
0,-7.7387042481828185,-6.146647347963253,-7.232659311410145,-6.071613716537273,1.1949300556043134
0,-4.779384783576182,0.6826098299414233,3.1764229868517813,1.648919646695705,1.1999297629499388
0,1.2499335773576634,-4.51813334667977,-3.8144927579469012,-0.26054339121564174,1.2049294702955642
0,-7.240749178056664,-7.1988768898247475,-4.405406558852958,-0.3900028433038625,1.2099291776411896
0,-6.131433062163179,-6.7096208110894855,-4.966318428669636,-5.799458722550369,1.214928884986815
0,-7.3321180868485865,-4.200365121512137,-7.867228379796874,-6.4589110417455196,1.2199285923324403
0,-7.312804263383968,-12.061109831507228,-9.908136424070767,-13.958359813214447,1.2249282996780657
0,-3.773491602378,-0.4218549508323245,-0.399042572648558,1.8321949514260727,1.229928007023691
0,-7.654180113818041,-6.242600488613071,-6.579946836053989,0.7927532412122722,1.2349277143693094
0,-8.344869807093486,-7.453346453442905,-9.890849224286558,-4.916684954496754,1.2399274217149348
0,-6.6955606909338465,-4.124092853397031,-1.781749746783662,-2.4361196461958508,1.2449271290605601
0,-8.116252773341905,-2.4448396960083985,-13.19264841233504,-12.53555084409513,1.2499268364061855
0,-6.426946061589355,-7.045586988337403,-5.953545229026877,-8.044978557846438,1.254926543751811
0,1.1123594377121164,-3.9563347370136657,1.3455597957769223,-1.0644027963521905,1.2599262510974363
0,-1.1683362815956964,1.3129170517635589,-1.9953333447585693,1.9961764321129403,1.2649259584430617
0,-4.599033225449568,0.1721683720929975,-6.406224657204526,-1.6932408804528438,1.269925665788687
0,-3.73973139959653,-9.618580781781006,-4.757114147870799,-5.862654741972544,1.2749253731343124
0,-5.060430809472228,-4.569330415366242,-0.8980018226715074,-2.2920651601925526,1.2799250804799378
0,-1.0511314601269706,-2.440080533705155,-2.1188876871440763,-3.911472142536614,1.2849247878255632
0,-0.3018333562796716,-4.100831141355729,-5.529771746553034,-1.7908756960852634,1.2899244951711815
0,-13.54253650237498,-6.431582242477977,-11.480654005830104,-11.490275827571256,1.2949242025168068
0,-5.17324090242891,-6.57233384079822,-4.081534469343501,-5.01967254324231,1.2999239098624322
0,-2.5139465598076804,0.09691406046635036,-2.322413140781009,4.710934151234494,1.3049236172080576
0,-5.154653477264329,-8.23383854143204,-6.303290023273123,-3.2084557494288775,1.309923324553683
0,-6.985361657083574,-2.1345916488320094,-3.634165119520584,-6.567842250382185,1.3149230318993084
0,-5.556071101065259,-8.545345263629695,-1.9250384318122564,-0.2972253565807391,1.3199227392449338
0,-11.996781810404809,-1.8060993872242788,-7.49590996204411,-9.366605072625818,1.3249224465905591
0,-10.717493785535876,-5.096854020525656,-7.406779711687289,-8.345981402649697,1.3299221539361845
0,-1.4882070260058498,-5.787609163997315,0.21235231830898355,-3.1553543501727197,1.33492186128181
0,1.8810784693798472,4.041635182295837,3.461486127434034,-0.6947239180994538,1.3399215686274353
0,-0.5596372978379225,2.210879018523483,-0.989378284682817,1.5159098910487916,1.3449212759730607
0,-4.390354326045262,-9.949877655113623,-6.800240918433275,-3.8234529251098506,1.349920983318679
0,-4.5910726135097955,-12.120634838242548,-2.6811017740765544,-2.26281236886982,1.3549206906643043
0,-6.831792158183032,-11.231392529841852,-8.881960851501121,-4.8821684423334535,1.3599203980099297
0,-6.1925129575343805,-11.28215072787625,-6.202818150071782,-3.441521147296895,1.364920105355555
0,-4.803235008465499,-1.7529094292590777,-6.913673668529094,-5.820870485180253,1.3699198127011805
0,-11.183958307272002,-1.4836686300925104,-10.734527404920666,-11.580216456933115,1.3749195200468058
0,-10.654682849544633,-11.674428325964357,-12.695379356497751,-11.369559062827486,1.3799192273924312
0,-7.995408630002712,-10.565188511948211,-11.366229519534995,-3.9088983022491828,1.3849189347380566
0,-7.496135642434591,-12.855949182308919,-11.827077889191004,-10.118234173694375,1.389918642083682
0,-2.2568638798124505,-1.926710330307211,-6.357924459507927,-0.24756667492113077,1.3949183494293074
0,4.63240666545139,5.422528051608034,5.281230776380845,6.08310419681535,1.3999180567749328
0,1.9316760011338934,0.13176597130290457,-0.4096121741947202,-2.0362215555963954,1.404917764120551
0,10.520944134832314,6.371003436528519,10.749546696073796,7.824456070579432,1.4099174714661764
0,5.96021107368173,9.490240454698021,4.328707394131736,-0.5448629221809034,1.4149171788118018
0,-1.5105231757781565,3.8694770327008765,-0.5921300735922063,0.12582146833811325,1.4199168861574272
0,-9.521258607398886,-3.631286823148134,-9.932965701011856,-9.573490755751095,1.4249165935030526
0,-4.641995214925696,0.2279488931415321,-1.2437994819407872,1.31720040785044,1.429916300848678
0,-8.362732991591578,-15.652815812369198,-8.40463140976023,-8.712105038188044,1.4349160081943033
0,-10.393471929951826,-10.01358093312069,-10.335461477292878,-10.491407090736384,1.4399157155399287
0,-4.224212021806787,-3.2843464617011304,-6.426289676672843,-1.6907057460547432,1.444915422885554
0,-4.634953258213754,0.7248876101224297,-1.937115999276161,-5.690000999739577,1.4499151302311795
0,-1.965695629647096,-5.295878708943338,-2.7279404358774935,-5.019292846848273,1.4549148375768048
0,-1.8564391261865694,1.4233545900429805,0.8112370231001975,2.6514187179808384,1.4599145449224231
0,-6.427183737616989,-8.777412483762582,-6.309583612561488,-13.06786629954338,1.4649142522680485
0,-7.687929453376204,-7.968179920869208,-7.520402332832882,-5.757147893298566,1.4699139596136739
0,-7.438676262377389,-8.48894771122215,-2.471219127258818,-1.706426056568763,1.4749136669592993
0,-4.139424152878884,-1.5797158440541514,-1.7020339848901676,4.194299217890658,1.4799133743049246
0,-6.080173112503076,-8.980484307947265,-9.79284689436491,2.5550279374885365,1.48491308165055
0,-1.2909231283371778,-3.971253090927676,0.4563421560828323,-5.054239890474157,1.4899127889961754
0,-2.8916741870513536,1.0879778194866425,-0.014466821377899952,2.1364957412284205,1.4949124963418008
0,-3.1524262750055785,-8.442791563823967,-9.405273814288279,-3.0727651601143067,1.4999122036874262
0,1.2268206216834252,2.8464387723207873,-2.0360788098989815,-0.3820225871062999,1.5049119110330516
0,1.876066517051178,7.6756688412911664,4.703118204901375,-4.691276532222563,1.509911618378677
0,-8.684688574810087,-8.89510134358029,-7.837682756539136,-8.160526987698558,1.5149113257242952
0,-9.595444639617401,-3.2558717690229066,-5.9184816807104825,-8.399773945320552,1.5199110330699206
0,-5.516201662556543,-4.046642421541412,-5.599278553740265,-2.7790173962384346,1.524910740415546
0,-2.606959628112384,-2.9474132872352543,-3.8000733612181627,-2.028257330988068,1.5299104477611714
0,-2.4577185202034117,-10.208184351788635,-4.840866088215468,-8.397493739649164,1.5349101551067967
0,-3.078478322381497,-8.168955600361455,-7.231656719330355,-5.76672661186873,1.5399098624524221
0,-1.3692390179284373,-0.03972701744510343,-3.382445238660837,1.0840440632130255,1.5449095697980475
0,2.8699994100781416,4.90950141300505,5.246768370150682,-1.295181703135106,1.5499092771436729
0,5.759236978595527,4.77872970714749,6.355984123624459,7.135596100495596,1.5549089844892983
0,5.3484737043554675,5.007957880865192,8.215202038010702,12.536377485320099,1.5599086918349236
0,-3.392290396291926,-10.062814050313401,1.6244221290103162,-3.722837537965388,1.564908399180549
0,2.9469446927152094,1.2464139290484402,-3.466355588181063,6.237951040764551,1.5699081065261673
0,-7.843821012626685,-1.8243581654153402,-8.38713109853042,-9.281256768672893,1.5749078138717927
0,0.15541250381124783,-0.08513031785673353,-2.887904386745862,-5.140460956416873,1.579907521217418
0,-2.955354741592535,-8.725902512275088,-8.938675437029865,-5.999661512234924,1.5849072285630434
0,-5.7261227321853365,-10.676674732352208,-5.589444233002338,-4.568858425344831,1.5899069359086688
0,-9.926891450962701,-2.8674469611605358,-9.000210757644394,-7.378051684407421,1.5949066432542942
0,-4.217660880372534,-3.7782191810767114,-3.590974993256654,-1.8072412775485343,1.5999063505999196
0,-9.438431002182448,-12.038991373894167,-8.821736921479303,-6.286427192394328,1.604906057945545
0,-3.0592017974809464,1.6002364791499701,-2.4324965233384983,1.1843905838481636,1.6099057652911704
0,-1.6499732467640877,-10.230535602608956,-2.0732537793240553,-2.874787935720578,1.6149054726367957
0,2.7892546698625105,-2.9313075993108084,1.6859913304399976,1.5060372621814493,1.6199051799824211
0,-5.711518027547555,-11.642079490545198,-2.99476117400454,-6.583133809045872,1.6249048873280465
0,3.67770868113275,-1.3028512552638651,1.4344887274520604,-2.832301135817405,1.6299045946736648
0,-4.763065183879253,-2.2636228718140172,-0.7462589450299153,-1.7414647042470661,1.6349043020192902
0,-1.4238396022538005,-1.4043943181303113,-2.837004171244471,-1.6306245001417203,1.6399040093649155
0,-2.1346145534945156,-3.9151655719040184,-0.8777469309006078,-2.139780509083004,1.644903716710541
0,0.10460998309243075,1.3540633893750496,0.8115127964221573,3.051067283500137,1.6499034240561663
0,-7.286165971616133,-8.196707411575073,-9.039224968714713,-7.858081107718965,1.6549031314017917
0,-6.496942396469191,-5.627477951747957,-4.419960205493712,-6.117225667887975,1.659902838747417
0,2.142280730105706,5.871751792254322,5.849307107290452,8.343633618169433,1.6649025460930424
0,0.9715034300372349,1.1409818440767319,1.4685769910683182,-0.35550323417521146,1.6699022534386678
0,0.6907257253505181,-1.259787772683449,-0.33215053281429563,3.955363790326321,1.6749019607842932
0,-7.650052361947733,-8.940557034494208,-4.542875443145011,-4.7337652932983465,1.6799016681299186
0,-8.470830809674723,-16.35132591752383,-8.08359771861086,-3.312890470072721,1.6849013754755369
0,-5.1316095951536855,-6.462094397152688,-7.274317337492616,-6.912011724818835,1.6899010828211622
0,-7.1923886950472395,-14.632862447692082,-9.355034277429057,-4.381129041951228,1.6949007901667876
0,-1.9931680853907312,-4.143630042382981,-3.655748515318601,-10.310242405353364,1.699900497512413
0,-0.9539477417257869,2.0756028464132883,-0.3364600274005618,-0.8293517983038061,1.7049002048580384
0,1.5252723606993404,-1.8351637531569094,0.5828312104960788,2.8215427964470323,1.7098999122036638
0,-3.085507753255182,4.004070187187261,0.10212522268576607,8.862441396334315,1.7148996195492892
0,9.823711941266136,7.013304695628159,8.801422033436053,14.083344018471598,1.7198993268949145
0,7.352931468915832,9.882539800003013,8.94072166672983,6.0242506792052,1.72489903424054
0,6.042150853837991,9.211775527509694,8.460024145953241,11.635161393916713,1.7298987415861653
0,6.791370119498929,7.371011904520795,8.749329493691574,9.54607617702901,1.7348984489317907
0,5.8505892887043816,7.240248956565464,4.178637731711277,6.076995042038217,1.739898156277409
0,6.249808383639613,7.039486708399876,11.81794888102503,3.7079180016010875,1.7448978636230343
0,5.529027425888139,7.248725184064654,5.077262961909601,6.978845067716474,1.7498975709686597
0,5.498246436453242,7.15796440690191,6.006579993894824,4.929776251841502,1.754897278314285
0,2.5174654357991364,0.29720439959741274,7.305899995821082,6.240711564893093,1.7598969856599105
0,3.276684443935407,2.076445184336159,5.965222985899523,1.5516510172542366,1.7648966930055359
0,5.255903480500215,10.495686782959382,6.9345489817097485,8.242594618829347,1.7698964003511612
0,5.205122564757513,7.124929216882681,3.7438780002073084,1.7335423790728954,1.7748961076967866
0,2.1043417155446114,2.9841725068942364,2.253210057799801,-1.0455056929732975,1.779895815042412
0,-6.566439048650359,-3.2865833267989446,-4.22745482947624,-6.504549588475935,1.7848955223880374
0,-1.557219709405667,-5.44733826422309,-4.468116645669837,-6.9435892984552385,1.7898952297336628
0,2.801999751878191,1.2819077147244293,-0.3487753746423261,-3.0426248134912623,1.794894937079281
0,2.381219353921989,2.5511546303603834,0.17056900000486508,-5.051656123640744,1.7998946444249064
0,-3.019560884617443,3.3404025030248414,0.909916494807891,-1.5006832185086336,1.8048943517705318
0,-9.310340945099021,-3.330348647094364,-5.120732873658603,-15.23970608726941,1.8098940591161572
0,2.618879191364651,6.108901200042526,4.2786209112434275,-5.088724718499314,1.8148937664617826
0,1.6580995439859976,0.7381520643467998,0.2979778662098317,7.922260899925234,1.819893473807408
0,3.0773201320679524,2.6474039655332415,1.457338007883249,0.533250780497803,1.8248931811530333
0,2.796540974753733,-0.003343076903249864,6.266701352748738,0.32424493562418066,1.8298928884986587
0,2.205762090936153,9.305910956323785,-1.8239320829366756,0.555243377517472,1.834892595844284
0,-2.0250165007202154,-2.0348339157823165,1.9354377168504655,8.586246118252227,1.8398923031899095
0,1.074205218324182,3.7844223254524167,6.064810767954684,8.777253169608603,1.8448920105355349
0,-6.506572733373999,-2.016320301530298,-6.095812913954502,-0.59173545717228,1.8498917178811531
0,-6.687350337062744,-8.497061778333208,-6.036433313279931,-6.110719751330878,1.8548914252267785
0,-0.2081275736016417,6.202197913604041,1.9429495857739099,0.03030029779666396,1.859891132572404
0,-5.838904423413752,-4.448541206945804,-6.9576642006704015,-14.438675298854553,1.8648908399180293
0,2.250319133416385,8.040720878842112,5.001725343761861,4.202353470128132,1.8698905472636547
0,-2.180456882978083,-3.8000158103169337,-0.11888176443209769,-1.6366133833714391,1.87489025460928
0,3.848767547626989,2.659248744145615,0.0005144912227500464,0.22442415276725936,1.8798899619549054
0,1.0779924454155665,7.128514560660214,1.8399141271150938,0.6254660907006508,1.8848896693005308
0,-5.8127821695200845,-7.342218342525105,-5.210682840407032,-4.143487557398612,1.8898893766461562
0,-5.733556277031315,-2.972949947267458,-1.5012763949260424,-6.4024367792364245,1.8948890839917816
0,-4.934329856637188,0.7963197647220261,0.4881334801547411,2.83861843775469,1.899888791337407
0,3.2548971125881714,5.365590811924145,1.1675468015835526,4.139678106378728,1.9048884986830323
0,-3.855875348129943,-5.545136787189241,0.8669635861253521,-5.309257760551033,1.9098882060286506
0,2.063352782551307,-9.205863014152362,0.2363838504771627,0.15181084972550107,1.914887913374276
0,3.122581525997104,0.25341214979012716,6.1558076112296956,5.022883950009923,1.9198876207199014
0,-1.0881890964982097,-3.1573112761547013,0.20523488478564023,-1.816038446908929,1.9248873280655268
0,1.4110409362369123,-3.188033272434753,-2.335334312678972,3.09504367162866,1.9298870354111521
0,1.7102716452804398,-5.6587538192207205,-2.4058999650754513,4.26613031812378,1.9348867427567775
0,-2.790496948358564,-7.439472896308307,-2.666462056197447,6.607221504834195,1.939886450102403
0,0.5787351763033313,-0.5201904830053907,1.2629794303621433,1.3583172436282671,1.9448861574480283
0,-0.862031959707537,-0.4809065581752088,-1.4375754888413816,-2.610582454006927,1.9498858647936537
0,-2.7427983352908436,6.698378899524469,-0.8081267971793433,-3.1394775767381,1.954885572139279
0,0.41643607075241573,-2.8023340886346304,0.19132552203344444,0.9416318868609062,1.9598852794849044
0,-5.354328720238693,-2.7930455015253033,-1.8692185144542726,-1.8672540516254181,1.9648849868305227
0,-4.375092686711314,1.7062446819794315,0.8202411101682159,-0.6561353805051346,1.969884694176148
0,-1.3658558067953086,1.2255364830869926,2.2097044127467416,0.9549879119881515,1.9748844015217735
0,-3.6166180582778287,-0.3551700770000694,-8.040828589863345,-12.033884162265245,1.9798841088673989
0,-7.287379418624354,-8.315874977089283,-12.43135788062449,-3.4927515910784384,1.9848838162130242
0,-8.568139864879102,-4.236578195787104,-10.391883441898234,-4.051614361734429,1.9898835235586496
0,-6.508899373474952,0.7427202887036046,-5.802405255121264,-8.660472460949984,1.994883230904275
0,-7.479657920128663,-2.967979501460623,-4.462923300830518,-10.049325874863367,1.9998829382499004
0,-3.150415479864653,-7.858677543876438,-5.8834375588777155,2.081825411055313,2.0048826455955258
0,-1.2311720271393505,0.7406261841625107,1.596051991386564,-0.6470185881079538,2.009882352941151
0,2.158072463944551,-0.22006829429936337,-0.774454629063484,-1.6958578570200133,2.0148820602867765
0,2.1673180193859003,5.099239043939147,-0.7049573991183614,0.2653076197264058,2.019881767632395
0,3.176564665081619,4.028548221968302,-0.9254562976205373,-1.28352214239509,2.02488147497802
0,-2.3941875732582476,-5.042140737374401,-5.785951303319822,-8.192347127794356,2.0298811823236456
0,-0.04493867004710772,-1.752827811388026,0.08355760523005606,6.538832679329173,2.034880889669271
0,2.694311400283245,-0.6535129772699126,-1.6069295502787015,4.240017294920202,2.0398805970148963
0,1.2935626632681076,-2.114196212026385,0.7025872520244398,9.091206734732904,2.0448803043605217
0,-0.037184855671120176,-0.6248774925111305,3.372108034064275,-0.9375989859581402,2.049880011706147
0,-3.3579311312043303,2.474443204525999,-5.828367182268083,-11.90639985225844,2.0548797190517725
0,-2.1086761379535277,2.413765902338632,-1.9788383750580363,-4.165195849170937,2.059879426397398
0,-4.099419850348491,0.6230906240554184,-6.639305522175888,-0.4139869611923537,2.0648791337430232
0,4.26983775741383,8.082417392596039,5.900231398827525,6.697226827597734,2.0698788410886486
0,-1.2009032887388316,-0.8982537694077658,-0.7102275894118169,4.628445533117504,2.074878548434267
0,4.48835703708011,5.251077160340511,0.9593175357117458,8.169669170913487,2.0798782557798923
0,2.9076187605949344,-5.349589796125726,2.6388667966871218,8.920897755949502,2.0848779631255177
0,10.456881907234843,5.92974538310197,8.988420215830558,5.012131302489339,2.089877670471143
0,7.996146501917476,9.299082719804016,8.157977815074322,13.113369824042138,2.0948773778167684
0,4.545412568857738,11.4084222353466,7.247539615709447,3.9046133333238573,2.099877085162394
0,2.0946801315831203,0.5377639503633396,4.177105638292093,6.065861842263017,2.104876792508019
0,5.54394921311148,9.427107884738025,6.726675902717613,10.357115362084686,2.1098764998536446
0,1.3832198360816519,1.9264540577591323,8.406250428287631,8.73837390331244,2.11487620719927
0,5.762492022782301,8.905802488187058,5.395829233674646,3.4996374756855992,2.1198759145448953
0,4.221765795137939,6.805153194220674,6.635412336883039,6.180906088212374,2.1248756218905207
0,2.3910411746778033,1.8645061934521345,6.604999755272637,6.63217974930637,2.129875329236139
0,0.2103181825683974,0.6438615029471502,0.434591505614802,5.8034584668199685,2.1348750365817644
0,2.209596839732629,-2.5567808605168114,-2.71581239574884,-2.1052577519365747,2.1398747439273897
0,5.848877166912299,1.6225791197797874,1.9637880673603738,8.46603109993519,2.144874451273015
0,12.59815918452981,5.821941460547913,9.623392911063117,14.067325028937137,2.1498741586186405
0,8.857442912377909,4.151306178330503,2.0030021512252634,2.418624040920682,2.154873865964266
0,5.776728369382567,9.130673289277233,7.982615803232514,11.469928140901231,2.1598735733098913
0,5.476015573629658,6.460042808972779,9.052233881901564,-0.05876266686730025,2.1648732806555167
0,0.12530454256763057,-2.480585247610425,0.41185640142720836,7.8025516212595,2.169872988001142
0,9.02459529319215,7.028789134034012,8.021483375408138,4.1338710084188515,2.1748726953467674
0,3.6338878420842073,4.368165968092447,5.861114816927905,6.805195497252747,2.179872402692393
0,8.423182205318597,5.287545268376994,10.900750738502827,13.396525089814888,2.184872110038018
0,6.9524783983695295,-0.9130729517390422,5.670391151937297,1.0178597874298736,2.1898718173836365
0,5.691776436056291,6.846311320755857,6.990036068265292,9.679199590658564,2.194871524729262
0,3.041076332559559,17.035698098480776,7.429685497797077,-4.329455500552669,2.199871232074887
0,-1.6896218984320206,-2.204912606606692,1.3193394501941529,-2.968105486593714,2.2048709394205126
0,-2.4503182434659236,0.7144792167169665,-0.44100206538754405,-0.05675036786558896,2.209870646766138
0,-1.4510126890680568,4.913873579251945,2.2486609599332605,-0.23539014461167218,2.2148703541117634
0,-0.971705221610889,2.2032704915892403,2.0283285349095115,-0.06402481696826312,2.2198700614573887
0,-1.2823958273125842,0.06266996408231773,-0.20199933183347196,6.007345614920993,2.224869768803014
0,-2.9930844922558526,-1.0879279931147363,1.4976773681992834,0.31872115077297536,2.2298694761486395
0,-5.1237712023402535,-8.228523369857083,-4.042641356564817,-5.14989820988847,2.234869183494265
0,-2.244455943180369,3.810883844202036,-2.242955497648408,-0.47851246756870003,2.2398688908398903
0,-1.6151387000582635,3.690293659620851,2.006734953580711,-2.9371216225997028,2.2448685981855085
0,-6.45581945795246,-10.160293913002636,-8.533569994070923,-8.615725675048541,2.249868305531134
0,-0.11649820153891532,0.5991211369958616,-1.1038703315762912,-2.4143246246075556,2.2548680128767593
0,2.7728250847814118,0.5385388205207845,1.985833950382908,-0.71291847051662,2.2598677202223847
0,5.532150416677668,12.207959148592284,8.835542861258759,9.308492788260763,2.26486742756801
0,5.531477809591383,5.437382131927628,7.02525641025168,15.319909152578589,2.2698671349136355
0,9.340807278503561,10.746807780583636,11.444974605956965,10.271330622547143,2.274866842259261
0,8.15013883776456,14.296236103769106,7.634697456160819,3.0827571972259658,2.279866549604886
0,10.229472500954373,13.915667109660722,11.204424967752388,7.614188874748261,2.2848662569505116
0,5.138808280813628,6.385100805240347,3.374157146727028,7.385625652560568,2.289865964296137
0,0.6081461893252689,0.7245371964080853,1.4638939983241572,-1.1029324724791005,2.2948656716417624
0,-7.4725137619836595,-11.80602371154092,-6.716364472654163,-9.741485503900707,2.2998653789873806
0,-2.353171561599324,-6.736581913249634,-5.666618261411668,-4.250033445157127,2.304865086333006
0,0.17617280227515186,8.5928625971254,2.6031326371592067,-1.6685762992496325,2.3098647936786314
0,-2.8044806582864683,-2.5376901742370066,-3.717111771513108,-4.4071140687130566,2.314864501024257
0,-7.535131930999645,-10.828240221108196,-7.907351481777724,-7.135646755707557,2.319864208369882
0,-10.235781003221735,-14.118787536985495,-13.637586487601256,-9.144174361936408,2.3248639157155075
0,-6.036427861681378,-8.63933211456474,-11.597816782184113,-9.282696888445562,2.329863623061133
0,-4.547072492358456,-6.2098739454986855,-6.068042357693963,1.1587856644726604,2.3348633304067583
0,-6.637714880565605,-1.0004130205574522,-4.518263205319291,2.9502732970849945,2.3398630377523837
0,-6.648355011038324,-4.800949329934394,-4.06847931552666,0.10176600982493739,2.344862745098009
0,-6.478992867920624,-8.981482863410903,-11.428690678230575,-0.2867361969539599,2.3498624524436345
0,-7.969628434718041,-9.072013610256871,-4.068897282746832,-4.885233322944212,2.3548621597892527
0,-13.220261694222584,-7.462541559024757,-6.669099117707512,-18.473725367616737,2.359861867134878
0,-6.740892628373936,-3.3730666974853976,-4.239296171104741,1.5677876701825597,2.3648615744805035
0,-3.9115212182072576,-1.9535890127674271,-1.389488430406682,-1.3806942076263584,2.369861281826129
0,0.08785255595357955,0.11589150840760737,-1.869675882694242,-2.609170998651703,2.3748609891717543
0,-7.912771285781684,-6.084625120448726,-8.379858514757174,-6.34764270027495,2.3798606965173796
0,-2.3733927229630964,-5.495138885579332,-3.2900363130332027,-4.84610930957385,2.384860403863005
0,5.075988265196967,-2.8456497728446415,2.7597907364633634,7.155429176752027,2.3898601112086304
0,-0.004628300358585413,7.6138422322661,-0.25037735201182487,1.8869727621648744,2.394859818554256
0,1.0447576012272473,-2.4166628556323295,-0.7505405641621332,6.398521449937226,2.399859525899881
0,-1.8558540093114293,-1.1171650220348217,-2.4506988856957554,1.0400752429657147,2.4048592332455065
0,-2.966463111246317,-4.88766425245909,-2.720852302227939,-6.218365856163585,2.409858940591132
0,-0.407069683732089,-3.838160532227197,-1.8710007991869477,5.393198155048526,2.41485864793675
0,-1.9976737057539233,-0.62865384634345,-3.1311443617727885,1.7247672791224766,2.4198583552823756
0,1.481724843840861,2.390855820454685,-5.38128297492693,1.8463415184733756,2.424858062628001
0,2.2711259862560835,3.470368483496512,-1.4014166232747622,4.257920875288992,2.4298577699736263
0,5.140529742605777,0.37988415797586883,5.088454708845707,3.0495053514926886,2.4348574773192517
0,-2.020063866215674,-4.9005971410739555,-3.2116689628066295,-3.278905051257612,2.439857184664877
0,6.659345180442799,4.06892460136193,10.298212377423694,8.112689668500213,2.4448568920105025
0,9.278756902948107,3.7584494003250555,10.498098744879343,15.174289511957882,2.449856599356128
0,8.748171321162715,2.6079772707180062,6.157990154280914,1.4658944796937265,2.4548563067017533
0,3.207588454227752,7.6075082271269405,4.757886619555352,4.287504571492233,2.4598560140473786
0,-6.292991679341515,-5.62295771622455,-5.202211845997875,-11.270880213370269,2.464855721393004
0,-5.013569061232847,2.6565794546435972,0.5376947706564384,1.0507401243657049,2.4698554287386223
0,0.6558563270827886,1.4661197536420931,-2.1223935174100115,6.402365584193772,2.4748551360842477
0,-1.094715495558216,-5.554336805326704,0.3875233030018866,-1.8960038343271206,2.479854843429873
0,-3.615284510134278,1.5952097916811856,-0.8225547548170911,-1.5043681317731847,2.4848545507754984
0,-1.3258506974731867,1.1147595587150154,0.4273723224755288,0.24727269122100598,2.489854258121124
0,2.7135859617678153,1.344312509856857,-1.6526954517446026,0.6289186340734457,2.494853965466749
0,4.933025486978359,2.3638686590958455,3.5672419359187657,8.59056969617375,2.4998536728123746
0,8.5424678973314,6.693428020236857,7.3471844987852375,7.332225876637569,2.504853380158
0,7.341913211508697,4.212990606770282,7.587132249856657,10.70388717400642,2.5098530875036253
0,-1.8886385524238989,-0.4674435682235886,-3.8929147983714034,1.3955535860717347,2.5148527948492507
0,2.600812623123426,2.652125507999597,2.647043366197559,7.497225109923499,2.519852502194876
0,7.880266755467276,7.141697847949774,5.637006755473944,9.638901742053951,2.5248522095404944
0,-0.020276138361158214,-3.528726536126654,0.2969753811810059,6.330583478309387,2.5298519168861198
0,14.029183958244625,9.310852367723351,12.546949254711702,16.862270313735873,2.534851624231745
0,5.1686470613111,-1.9795654288230693,3.4469283869682075,8.283962242406943,2.5398513315773705
0,1.0581131861724749,-4.469979914310945,-2.1030872117182953,-1.5143407426254312,2.544851038922996
0,4.597582347578751,9.09960892263515,6.6569024685608,3.7273613509534167,2.5498507462686213
0,3.217054559898641,-0.5907989066725848,3.8568974374449785,1.0790685151115267,2.5548504536142467
0,1.7665298371864293,6.488796608841555,3.5668977042451697,0.650780741637058,2.559850160959872
0,-0.6639918067783962,6.438395479883121,2.1569032778821047,9.812498022121659,2.5648498683054974
0,-3.524510358349569,-1.372002283268729,1.4169141669506173,6.614220347804954,2.569849575651123
0,-1.275025803825768,1.787603329298105,-1.743069620167477,2.1959477093712714,2.574849282996748
0,-9.855538129280248,-13.432787672612266,-10.773048075108337,-7.712319902985971,2.5798489903423665
0,-5.746047320374787,-6.553175278899791,-5.03302118919909,-7.910582499138675,2.584848697687992
0,-8.686553362166098,-6.673559478808653,-8.85298895316306,-15.478840088483707,2.5898484050336172
0,-9.427056238984195,-9.833940260805086,-11.072951356983742,-10.287092679515014,2.5948481123792426
0,-8.027555934363233,-10.224317612568434,-8.38290838981241,-19.075340279554755,2.599847819724868
0,-6.73805243101016,-3.374691520946888,-4.73286003991669,-14.5735828945711,2.6048475270704934
0,-3.378545710871556,-5.145061972021528,-3.1028062948002577,-10.961820529068971,2.6098472344161188
0,-12.539035755236332,-11.005428951249044,-11.84274714137472,-5.850053186191287,2.614846941761744
0,2.060477455235769,2.3942075564997163,-3.462682565962535,-1.218280868059438,2.6198466491073695
0,2.1099939404033443,2.7338475668267876,1.1173874457282902,-2.4165035761814506,2.624846356452995
0,-2.190486279662367,1.3334910954713768,1.2274629083888642,2.3052786882335785,2.6298460637986203
0,3.9690368150879785,-2.7668618419340643,3.387543836775384,4.407065924046903,2.6348457711442386
0,11.328563244554337,9.442788770122906,10.017630245449604,9.058858129939516,2.639845478489864
0,4.2780930282300895,-2.147557053010198,4.677722148540396,1.5206553041598314,2.6448451858354893
0,-4.1523738149672225,-3.7178992961965687,-2.442180440378308,-4.017542555508274,2.6498448931811147
0,1.507162733515548,-0.5082379443404589,1.5579224918819885,-2.385735451471646,2.65484460052674
0,-4.093297307801928,3.0814270177781395,1.1380309583791897,-3.353923386004078,2.6598443078723655
0,-1.0737539202734472,-0.7089043945693561,2.7681449721007385,5.067893638847279,2.664844015217991
0,-4.284207085062687,0.33076783382625974,-4.971735454067718,1.8997156211052704,2.6698437225636162
0,-6.834656783057482,0.22044371811866603,-4.281610307231694,2.0515425586452176,2.6748434299092416
0,-10.0251029947108,-5.579876726523404,-8.641479574232559,-8.756625550826877,2.679843137254867
0,-9.57554569981248,-4.41019348478026,-10.46134324137694,-4.794788709514433,2.6848428446004924
0,0.9940151226332776,2.1294934589586063,0.4387987057308399,2.907053080736505,2.6898425519461178
0,3.6735794942115403,-2.760815879435658,-2.2210537178921017,-1.6911001816045719,2.694842259291736
0,-5.316852563292094,-9.361121483904078,-5.910900496847189,-12.019248497890167,2.6998419666373614
0,2.5427189719219285,-0.20142333808273097,-1.9707416154457924,-0.49739186915672584,2.704841673982987
0,-2.8777058782922995,-6.0017214251699595,-1.430577057675244,-0.5655302959626782,2.709841381328612
0,-0.2881270919950277,-5.302015727933574,-1.2704068072508445,-9.07366377847625,2.7148410886742376
0,-2.6785446471472616,5.577693771234935,3.2097691522597405,-5.591792316504779,2.719840796019863
0,0.10104147841948663,2.7474070901325223,2.319950837289778,7.020084090586192,2.7248405033654883
0,1.4706313069849193,2.7771242464342976,-1.9698617358495498,3.231965443668938,2.7298402107111137
0,8.840224860802074,8.706845257490789,4.450331449018633,2.03385174345999,2.734839918056739
0,3.2798221618491765,10.216570140176023,2.650530407942613,2.5557429903555193,2.7398396254023645
0,0.14942323166418048,-2.483701089272119,4.790735156748236,-7.12236081546288,2.74483933274799
0,2.0590280914247945,8.766031584789303,3.7009457109289565,1.9795403261854148,2.749839040093608
0,3.4186367620987133,7.3557681775338315,9.751162085562097,9.591446415559725,2.7548387474392335
0,0.628249264467625,-3.414491296345253,0.7013842952152431,-2.536642547213006,2.759838454784859
0,2.4978656191069306,7.8352531774137795,2.5216123539480737,7.235273437656547,2.7648381621304843
0,7.547485846366429,1.375001612765639,5.921846275437184,8.407194369577496,2.7698378694761097
0,8.947109966230192,4.224754023358062,6.722086073005477,7.8691202474453235,2.774837576821735
0,5.956737998088043,9.18451042245966,5.642331759495818,1.5410510694866901,2.7798372841673604
0,3.126369960639615,4.864270822850317,4.47258334718132,-0.907013166640138,2.784836991512986
0,13.096005871947385,14.814035236654519,14.08284084773459,8.444927536394854,2.789836698858611
0,5.76564574940617,6.033803675172169,6.923104272101419,7.006873175620964,2.7948364062042366
0,11.48528960960945,2.9735761488226466,11.343373630332268,7.97882374755264,2.799836113549862
0,14.42493746823482,16.43335266724204,14.053648931492717,13.650779247970611,2.8048358208954802
0,12.754589339891206,17.603133239213378,16.513930183536882,15.092739671718013,2.8098355282411056
0,11.194245237966998,14.06291787229594,15.034217393093451,5.604705012500652,2.814835235586731
0,16.353905174591464,17.682706572537615,14.874510565319914,9.336675262898492,2.8198349429323564
0,21.663569160556186,19.54249934439422,20.064809703852475,9.078650414553723,2.8248346502779818
0,17.803237205069323,13.02229619067087,19.945114810707285,11.860630458245769,2.829834357623607
0,15.452909315553445,15.712097112529781,18.725425886114095,4.292615383845746,2.8348340649692325
0,12.252585497703038,7.331902109646667,11.235742928470481,11.054605180342088,2.839833772314858
0,16.93226575568104,24.081711180362056,21.426065934478103,8.79659983589928,2.8448334796604833
0,9.01195009225102,8.98152432164559,9.966394899268279,4.568599337859476,2.8498331870061087
0,15.16163850885374,10.411341529030985,11.976729816486456,15.850603672740105,2.854832894351734
0,17.68133100563688,18.13116279672881,16.37707067843245,15.472612826130204,2.8598326016973523
0,22.78102758130258,27.700988117593816,22.727417476058264,19.92462678237691,2.8648323090429777
0,9.760728232868896,10.130817482773999,12.467770198735943,10.34664552430012,2.869832016388603
0,7.390432955715992,11.530650881583615,8.858128834178078,6.208669033228735,2.8748317237342285
0,12.93014174394645,18.08048830179105,13.618493368690014,14.710697289293664,2.879831431079854
0,12.259854590626935,12.570329729811228,18.198863787369103,7.992730271618809,2.8848311384254792
0,12.699571487736621,15.240175150657342,19.549240073961403,7.704767958335121,2.8898308457711046
0,9.419292426080302,13.090024547922019,10.189622210624517,13.096810326617907,2.89483055311673
0,14.149017395305968,12.619877903829398,14.860010177937255,11.438857352688435,2.8998302604623554
0,11.498746383919276,3.369735199349957,6.500403955117873,5.570909011740845,2.9048299678079808
0,8.038479379273305,7.0395964144567404,6.890803520274421,9.692965277990734,2.909829675153606
0,4.718216367674522,-4.010538471534363,1.6812088506755354,-2.824973875126812,2.9148293824992244
0,4.50795733462765,5.999330520337644,3.9016199230246857,-2.9429084746494203,2.91982908984485
0,4.717702265060451,-0.8707966311524613,3.052036713642936,3.349161452269858,2.924828797190475
0,9.747451143398095,5.639080052592592,10.282459198489027,6.011235878476971,2.9298285045361006
0,7.297203953473043,12.598960549866241,7.79288735300711,9.323314776581324,2.934828211881726
0,3.9869606784175016,3.6988448384111927,3.643321151955707,2.9753981186639784,2.9398279192273513
0,-0.16327869926523464,3.64873289526571,-2.2962394305350546,2.3474858762118505,2.9448276265729767
0,-0.6635141974464145,10.628624696838166,0.6942055793311865,0.9295780202766475,2.949827333918602
0,1.9562541658714254,-4.201479780996358,-2.81534384470127,-0.2983254783256375,2.9548270412642275
0,2.146026372628937,-1.1415805627531417,3.7351122711660887,2.683775351102713,2.959826748609853
0,0.18580240465910225,-5.571677673013276,0.6455739007367833,0.17588047916681182,2.9648264559554782
0,4.745582243639465,0.40822886385460766,2.356041017712182,6.667989876330636,2.9698261633011036
0,3.255365871041083,10.348139023665857,2.7465135956221465,6.890103512783696,2.974825870646722
0,3.3351532680447664,3.1180527820925374,6.136991607767771,7.512221358237933,2.9798255779923473
0,3.9049444154905326,5.367970114344125,7.587475027092879,8.414343381755916,2.9848252853379726
0,7.1047392938501845,12.307890995056015,9.377963825994016,5.476469551679207,2.989824992683598
0,10.924537883112183,4.867815398199244,6.958457976153662,2.6585998356674567,2.9948247000292234
0,5.6943401625894765,2.0377432970146043,3.518957448498722,4.250734200839095,2.999824407374849
0,11.86414611078822,8.877674664128975,10.91946221327518,9.24287261387099,3.004824114720474
0,9.22395570535211,7.067609471642119,10.249972240045595,8.645015040909223,3.0098238220660996
0,8.323768923011073,10.51754769101412,11.370487497526785,2.2471614474178594,3.014823529411725
0,6.403585739592989,-1.2325107070303547,3.6910079534744122,3.5393117982183666,3.0198232367573503
0,5.233406130136606,11.117434247585384,6.941533574780593,0.011466057696764231,3.0248229441029757
0,4.7032300690321645,8.377382524362101,8.552064327642173,2.1136241899893906,3.029822651448594
0,1.603057530147755,2.2673340921426615,0.9326001776294066,4.8357861590514855,3.0348223587942194
0,4.022888486949581,8.567288919093315,4.813141089756621,5.887951928585452,3.0398220661398447
0,-2.157277087385719,-1.6827530271726228,0.02368702863618921,1.1501214619153046,3.04482177348547
0,-1.8974392198323926,-8.942791779365585,-5.95576204133442,-6.267705277970727,3.0498214808310955
0,3.122402062633978,1.877172629849427,-1.0552061557300196,1.7444716718431044,3.054821188176721
0,1.8222467330476944,3.0971401680582886,2.4753546500728607,0.10665227439425373,3.0598208955223463
0,1.452094764335503,-1.7528891970584373,-0.7440796591746177,1.3988364927909367,3.0648206028679716
0,5.9519461292211275,9.147084502062494,0.8264908812633414,3.1310242900801146,3.069820310213597
0,-3.378199199812299,-3.692938767238875,0.08706623607518038,-3.746784370809008,3.0748200175592224
0,0.7916587495319167,5.327040962124785,2.2276463699065396,2.365410472980746,3.079819724904848
0,-2.5384800504839227,2.2870236570199034,2.4482312473151153,1.6176087842907245,3.084819432250466
0,-3.858615627494785,-3.25299071588326,1.1588208327034095,-3.7701894740679136,3.0898191395960914
0,0.6912519910479663,6.626997809933613,3.629415090279398,0.3620156607113112,3.094818846941717
0,-0.22887722212466,1.2869892008502748,2.3100139840331013,1.9342241514985328,3.099818554287342
0,0.6309967058045051,-0.40301657695910764,2.0506174777100825,2.2264359611718376,3.1048182616329676
0,1.770873747641322,1.2669804424930862,-0.04877446517354311,-1.241348947493897,3.109817968978593
0,-4.299246123846988,-3.3830197748727198,-1.668161881243575,-4.42913061179717,3.1148176763242184
0,7.300637064088602,8.256982736851707,10.692455192787502,2.6430909310345907,3.1198173836698437
0,5.5405232840954035,6.356987943429993,7.973076719947891,4.105315643863104,3.124817091015469
0,1.4504125085043849,6.186995810206356,1.5037026627128423,3.7275434894462656,3.1298167983610945
0,-1.9096952907312952,2.387006301947081,0.9543329829736937,0.9597744302580713,3.13481650570672
0,3.65019985813361,4.107019382904296,2.424967642269602,0.9420084284909751,3.139816213052338
0,0.8100979267509969,1.0770350169469758,3.9956066019362995,0.9942454461577692,3.1448159203979635
0,-1.170001113335297,-2.602946832312149,1.4262498230825806,1.1864854451593747,3.149815627743589
0,0.39990270933773764,3.7070737986266775,1.9168972665600073,0.8987283872970766,3.1548153350892143
0,-3.510190633754571,-3.6829031267609036,-3.2824511069707096,-5.469025765689464,3.1598150424348397
0,-3.6702811710200436,-3.642877644965913,-3.251795336878211,-4.756777051966405,3.164814749780465
0,4.879631069318714,6.377150207630648,2.7988645375955357,3.2054744905671213,3.1698144571260904
0,8.159546059087878,11.247180394624115,8.149528477277867,3.3277288242151086,3.174814164471716
0,-1.740536230142196,2.897212879196544,2.940196442776657,-4.280014088741376,3.179813871817341
0,4.45938417281968,3.5372476238939203,1.9308683942704117,4.152245713886983,3.1848135791629666
0,-9.210692761052593,-8.822715409188786,-6.068455708395376,-3.7954918057326434,3.189813286508592
0,-1.5407670607218904,-5.002676257979467,0.7322240945763971,-3.89322668538468,3.1948129938542174
0,0.1691612451241118,0.9073650399287458,-3.0970922368594245,4.86904103727523,3.1998127011998356
0,-3.3809078719324255,-6.042591552666539,-2.136404742550267,-5.79868867528251,3.204812408545461
0,-2.8709744401222617,-3.5425460726565614,-0.31571346215736584,-2.096415860493414,3.2098121158910864
0,1.1989615125154605,7.677501443336064,0.19498156481354,0.3258594443728742,3.2148118232367118
0,-5.751100041866497,-4.062449041202563,-0.24431970106412804,1.1881372022198913,3.219811530582337
0,2.1488408690581693,6.747602437114216,8.306382700752,10.420417375933207,3.2248112379279625
0,0.8687842177566377,-0.8823441585029639,-0.20291126939066206,-1.787300071883273,3.229810945273588
0,-2.8012700232537973,-1.732288865005665,-4.252201651412504,1.7249848209962169,3.2348106526192133
0,1.5886781185537338,5.307768280557016,0.49851151467321064,2.5072720165440465,3.2398103599648387
0,1.1986286157279342,0.5378272410471565,0.6492281889468099,8.279561476538388,3.244810067310464
0,1.9885814407815656,2.7478879791506916,4.489948331532079,5.991853162396675,3.2498097746560894
0,4.0785365660882125,7.00795045730559,5.260671902401439,4.254147034990394,3.2548094820017077
0,2.6984939637945473,4.428014637606424,2.6613988612001593,1.3364430546435644,3.259809189347333
0,1.1284536057699641,6.168080481676209,6.242129167165235,2.4187411812811996,3.2648088966929585
0,7.558415463600124,2.3481479506243144,5.272862779096881,1.7110413745701591,3.269808604038584
0,6.17837950851745,10.9782170050603,5.933599655305933,4.113343593963724,3.2748083113842092
0,1.788345711272847,3.2182876050438023,3.0043397535796124,4.1156477986605,3.2798080187298346
0,1.3683140421488256,0.398359710057947,9.655083031190044,2.397953947537575,3.28480772607546
0,1.0882844711261093,-10.011566720762108,-1.104170555105398,1.2902619991447302,3.2898074334210854
0,3.9482569680037045,10.078508271741516,7.296578950971176,10.452571911724121,3.2948071407667108
0,-4.761768497570342,-1.1614153531753355,-2.372668494678705,-2.365116356853198,3.299806848112336
0,0.07820804398813008,0.6886623636405891,0.9380870636001626,-4.332802849059825,3.3048065554579615
0,0.8381865623278114,2.6287413811676563,4.61884558132771,1.5095123925520468,3.30980626280358
0,2.4681670271507183,0.7588216582573746,-2.53039298609412,2.6518293255294485,3.314805970149205
0,1.2481494080877857,5.288903153604885,3.3203713166009114,-1.475852092571377,3.3198056774948306
0,2.7681336746115384,6.698985825639742,6.18113844453479,2.066468095721745,3.324805384840456
0,7.728119795969425,8.229069632350665,6.001908352554641,11.17878984774309,3.3298050921860813
0,10.778107741008517,12.549154531071425,9.94268099500967,7.361113120453856,3.3348047995317067
0,5.6180974779216015,2.4692404783191813,5.4534563255837565,4.723437870157709,3.339804506877332
0,1.0380889741599666,3.0393274298329542,2.9242342972632014,1.265764052481836,3.3448042142229575
0,1.618082196624711,9.559415340773635,-1.8949851375032467,-2.3019083773831697,3.349803921568583
0,-2.431922888047726,-4.950495834148125,-1.7642020265101,-1.2495794643890887,3.3548036289142082
0,5.578073686685595,6.099593859423512,8.10658358240654,7.8727507465190225,3.3598033362598336
0,7.038071887232098,0.22968437562398947,3.007371641287632,8.625082210246278,3.364803043605452
0,-1.541928320317413,-8.490224331525605,-8.301837898090186,-6.782585118714506,3.3698027509510773
0,-6.051926970175505,-6.5301323078844185,-9.041045083989566,-6.850251286162404,3.3748024582967027
0,-8.931924096502222,-12.830039598807168,-10.630249964207632,-12.947916337661345,3.379802165642328
0,-8.581919732972102,-14.069946248806456,-11.409452585699057,-13.055580318017546,3.3848018729879534
0,-11.741913912496058,-15.729852301277177,-12.968652994402687,-15.713243270942435,3.389801580333579
0,-19.471906667012657,-16.439757798264942,-21.047851235082735,-20.260905238807414,3.394801287679204
0,-17.811898027185784,-25.2796627802657,-16.9870473510711,-21.238566262390794,3.3998009950248296
0,-14.091888022110007,-20.419567285966306,-13.226241384051425,-4.966226380720956,3.404800702370455
0,-18.171876679229975,-27.42947135196976,-20.15543337405047,-20.043885631218355,3.4098004097160803
0,-20.53186402435549,-36.07937501252985,-19.704623359459262,-17.311544049888195,3.4148001170617057
0,-23.581850081537837,-18.5592782992556,-19.183811376910434,-18.009201671222034,3.419799824407324
0,-24.111834872828435,-34.02918124098673,-26.842997461114887,-22.49685852798489,3.4247995317529494
0,-22.46181841808292,-17.719083863902835,-22.20218164469134,-18.524514651080047,3.4297992390985748
0,-20.741800734903787,-27.178986191671882,-25.511363957994853,-12.742170069516156,3.4347989464442
0,-23.45178183869413,-25.26888824555715,-23.100544429037097,-20.949824810529982,3.4397986537898255
0,-12.091761742761095,-9.328790044518339,-11.269723083562562,-16.217478899695685,3.444798361135451
0,-14.991740458527378,-10.988691605528302,-16.538899945340383,-14.235132360917595,3.4497980684810763
0,-14.801717995821472,-14.588592944081862,-16.558075036506544,-11.632785216502429,3.4547977758267017
0,-18.39169436301453,-15.46849407444196,-15.087248377682776,-17.560437487324158,3.459797483172327
0,-15.191669566958044,-14.558395009548887,-10.486419987983334,-6.438089192919598,3.4647971905179524
0,-8.851643612956032,-8.668295760948514,-12.345589885136862,-5.555740351623653,3.469796897863578
0,-8.881616504950061,-10.6881963389132,-7.12475808567675,-6.573390980862226,3.474796605209203
0,-9.261588245803546,-5.288096752657446,-8.433924605113369,-4.571041097406606,3.4797963125548215
0,-4.781558837493046,-4.307997010550611,-2.9830894581087577,-3.568690717480611,3.484796019900447
0,-4.941528281239986,-2.8578971203335914,-7.952252658647187,-4.476339856832741,3.4897957272460722
0,-3.1214965776720205,-10.997797089259427,-3.491414220140257,-0.6639885308170033,3.4947954345916976
0,-1.9914637269756539,-4.9676969240416256,-6.13057415546276,-1.9116367544813055,3.499795141937323
0,-4.061429729000395,-2.3075966307611093,-3.849732476977408,-3.62928454264981,3.5047948492829484
0,0.34860541667972944,7.402503784978971,-2.1788891965824986,0.1830680900536792,3.5097945566285738
0,-3.421358289281197,-6.667395682291932,-5.608044325777974,-7.054578870772859,3.514794263974199
0,-5.071320846016272,-1.1972950380587069,-2.7671978756996767,-7.472225439220834,3.5197939713198245
0,-1.1512822523871116,-5.157194287668338,-0.7963498571298709,8.740128371022465,3.52479367866545
0,1.7387574930284102,-2.4970934361659927,-0.09550028057992721,-1.5875174534899732,3.5297933860110753
0,1.4787983917878469,8.483007511670486,3.1653508435524573,0.8148370737343965,3.5347930933566936
0,5.6088404453736285,7.503108551035025,3.8862035048085684,3.417191939037902,3.539792800702319
0,5.738883655007474,-1.606790323268992,6.107057692489425,0.5795471286321077,3.5447925080479443
0,8.558928021467725,11.533310883065267,4.717913395500142,4.141902628553954,3.5497922153935697
0,2.148973544956032,9.55341216382993,3.9387706022699684,7.244258424586186,3.554791922739195
0,2.4590202251201356,-0.9164864878377963,-1.4003706992039553,6.786614502107652,3.5597916300848205
0,2.299068061212106,0.21361492060025725,2.2404894788000282,4.658970845934495,3.564791337430446
0,-1.3408829477581505,2.503716381392466,-4.328648876098134,-4.2086725596545795,3.5697910447760712
0,1.489167197085922,3.51381788666115,1.8722142237438166,9.9036842692819,3.5747907521216966
0,1.5892184945531023,-1.8560805716367028,2.583078766018886,7.036041316400202,3.579790459467322
0,6.829270943335789,5.834020998274976,3.773944738357595,3.9983985648734226,3.5847901668129474
0,4.199324541848842,5.034122587966462,4.744812128156081,1.5407559972952922,3.5897898741585657
0,-0.9006207118872267,-2.165775811290605,0.9256809224771175,4.033113595819783,3.594789581504191
0,6.819435179799175,4.464325791486261,6.6565511080394915,5.555471342272134,3.5997892888498164
0,2.2194922142892044,2.3144273870777594,2.9774226712094,7.967829218084909,3.604788996195442
0,5.1695503886256375,4.754528966038289,7.03829559794311,9.530187204127824,3.609788703541067
0,5.489609699450375,2.314630518612314,3.759169873726092,6.642545280547429,3.6147884108866926
0,9.069670142931983,7.034732034687879,8.18004548353236,11.76490342668075,3.619788118232318
0,1.5297317146689884,2.5248335037519523,4.370922411783244,7.277261621010768,3.6247878255779433
0,9.029794409671132,8.754934914834362,9.681800642301523,12.22961984111941,3.6297875329235687
0,8.319858222367351,2.7050362564577215,12.122680158218612,4.831978063668229,3.634787240269194
0,8.809923146508325,9.245137516598332,10.413560941797419,-0.10566373549329366,3.6397869476148195
0,12.589989175020113,10.215238682617708,12.8544429742638,0.346694418965641,3.6447866549604377
0,9.700056299883856,10.985339741104932,15.805326235699773,13.999052502094386,3.649786362306063
0,4.0201245120950455,8.525440677714869,7.036210704962697,1.5214104885520685,3.6547860696516885
0,1.2901938018286936,3.825541477165129,1.897096359773242,2.003768352429807,3.659785776997314
0,1.4502641587597584,-2.9543578765429714,5.937983177049544,4.976126067340918,3.6647854843429393
0,0.6203355723201522,1.8257426002385202,1.588871133218598,-1.4815163934089166,3.6697851916885647
0,2.9604080317998345,0.9958428910698212,1.5097602043535792,3.9208409432583107,3.67478489903419
0,4.410481526323974,10.765942979403349,2.21065036626323,-0.4268019497514721,3.6797846063798154
0,-2.389443955207445,-0.543957151630204,-1.058458405421078,-4.104445099634491,3.684784313725441
0,-2.479368424057827,-5.4338575192824115,-4.737566135140552,2.337911466428044,3.689784021071066
0,-4.3992918914416315,2.7162418590625412,-0.03667284724516051,0.6202677213305411,3.6947837284166916
0,-0.8792143683389495,0.7263409660960882,2.3842214340868706,4.0326236379450044,3.69978343576231
0,-5.32913586544039,-6.0835602154345745,-4.304883315231385,-4.395020810982764,3.704783143107935
0,-5.079056393121661,-8.35346170264282,-4.093987119214433,-2.272665652762563,3.7097828504535606
0,-1.7689759613808964,-8.09336351220131,-3.123090001658677,-7.910310914542304,3.714782557799186
0,-5.528894579818999,-2.583265660121043,-4.062191986019858,-5.9779566230752845,3.7197822651448114
0,-2.0088122576693297,1.2568318381783068,-2.701293095398357,-0.8256028045931532,3.7247819724904367
0,-2.518729003824676,-4.953071032380975,-6.940393352537152,-6.413249484843436,3.729781679836062
0,-5.56864482686414,-5.70297428665509,-5.989492779757143,-3.4308966891730908,3.7347813871816875
0,2.3314402649292614,1.5771220607951277,-1.2485913988817123,-0.41854444255167933,3.739781094527313
0,-1.9684737364951812,1.027217995685468,-4.537689231271992,-2.1261927696395047,3.7447808018729383
0,1.6416131609152744,0.5773135038146029,0.6832137020509919,-4.713841694878257,3.7497805092185637
0,-1.7782990507663823,-3.4825914290528197,-2.4858826197027053,-1.4014912424777932,3.754780216564189
0,-2.2982103794364304,1.87750318286547,-5.234978217137449,-0.9191414363816719,3.7597799239098073
0,-5.758120832862848,-3.532402674565545,-4.704073110599696,0.6932076996639638,3.7647796312554327
0,-7.548030418510535,-5.852309015346517,-4.8131673200444345,-5.374443857975218,3.769779338601058
0,-1.7679391433723044,-1.7222158532205665,-3.1022608649761105,-3.1520961327776815,3.7747790459466835
0,-1.3678470139599506,-2.462123201585569,-5.2513537644694,-5.559749147926229,3.779778753292309
0,2.342245963517425,3.0779689264288255,-2.2604460371981734,0.6225970737695835,3.784778460637934
0,1.1823397829252333,10.228060517723193,-2.65953770146838,0.9949425097918347,3.7897781679835596
0,2.592434438043129,8.838151558853228,-0.0686287752914414,-3.272712862250189,3.794777875329185
0,5.962529922459165,6.148242035688403,10.48228072344323,3.3096309352949955,3.7997775826748104
0,-2.487373770506288,-11.31166806657329,-6.7868092232866895,-8.858026119856575,3.8047772900204357
0,-0.41727664775785245,-2.3315787629463323,-1.0458986336969054,-2.7356840498034427,3.809776997366061
0,5.4128212837069425,-0.38149006817645925,8.795012473961851,6.346657123646534,3.8147767047116794
0,4.09292001677313,4.0185980032987185,7.375924081319418,8.508997378774765,3.819776412057305
0,7.303019544009348,7.43868543703791,14.20683616948506,16.471336693443632,3.82477611940293
0,13.203119857447351,11.588772218224864,11.097748718677249,13.053675044586479,3.8297758267485555
0,16.413220948297976,20.708858331267784,17.97866170798263,9.75601240791176,3.834775534094181
0,10.24332280662471,9.828943759381762,11.519575115183626,15.64834875786521,3.8397752414398063
0,7.86342542122852,3.9490284844345753,6.440488916729453,5.270684067705048,3.8447749487854317
0,2.1435287798513407,-2.0808875127234514,0.4914030879833029,-1.996981690315514,3.849774656131057
0,10.80363286948075,15.009195748207615,12.65231760359414,4.895351455442604,3.8547743634766825
0,20.523737676383845,11.329278247013285,17.063232437553985,15.09768347625664,3.859774070822308
0,11.013843185766234,6.159359962643965,8.114147562876596,6.220014342836083,3.864773778167933
0,14.313949381452533,11.76944087306181,9.355062951386785,14.032344024994932,3.8697734855135515
0,13.84405624586642,12.209520955275725,14.085978573806822,17.12467249147663,3.874773192859177
0,11.414163760108769,10.359600185285345,8.04689439982375,8.976999709796925,3.8797729002048023
0,7.404271904036326,11.609678537997182,6.9178103980947885,8.489325646195978,3.8847726075504276
0,4.814380656454996,5.649755987253271,8.13872653636521,6.6216502658367915,3.889772314896053
0,11.744489995349097,10.769832505941803,11.519642781577552,14.193973533001598,3.8947720222416784
0,9.134599897935669,8.989908066081767,10.69055909981398,9.736295411064452,3.899771729587304
0,-2.735289659365356,-2.6000173611126054,0.471475456232334,2.708615862414261,3.904771436932929
0,-1.2351787007087776,-6.09994380495169,-2.8276081847243884,-7.36906515132249,3.9097711442785545
0,7.114932749543253,2.8801287051956823,6.673308141067345,3.1432523312182674,3.91477085162418
0,6.735044666870307,-1.7897998598672347,9.464224397537636,-2.4744317285168016,3.9197705589698053
0,4.795157026345629,1.9902704707535177,3.015140548189996,7.1978826309835755,3.9247702663154236
0,4.27526980248806,5.360339667903141,4.15605655593821,6.620195371073648,3.929769973661049
0,3.185382969310428,1.8304077022385021,3.966972383189426,5.372506452692037,3.9347696810066743
0,5.005496500403357,1.760474544127796,7.817887991923757,2.4548158362294203,3.9397693883522997
0,-0.044389631013660225,1.3705401636785173,0.37880334366414004,5.197123481584025,3.944769095697925
0,-2.7542754519896873,-3.8193954691534957,-4.96028160045299,0.6094293482627384,3.9497688030435505
0,-4.074160989621775,4.650667615548212,0.5906331205976221,3.7517333954526757,3.954768510389176
0,-3.6040462708144387,2.720729387665689,-4.138452532023578,0.754035582080823,3.9597682177348013
0,-1.3639313221599254,1.6407898169195596,-3.8375385969351026,-4.003664133102933,3.9647679250804266
0,-3.383816169949181,-4.459151127171814,-1.5266251124857062,-7.761365791326725,3.969767632426052
0,-1.3737008402198758,0.3109065248622326,-0.24571211674812687,-7.539069433478728,3.9747673397716774
0,1.2064146411950876,1.71096274258062,2.7352003523686603,2.6632249000966475,3.979767047117303
0,-4.513469751398044,-2.528982504396675,1.736112256947997,-5.264482830489039,3.984766754462921
0,-7.383354043528257,-0.43892924642837317,-5.392976441020838,-5.412192664829446,3.9897664618085464
0,-4.503238260373563,-1.4388775138049361,-3.542065779524202,-6.329904642174595,3.994766169154172
0,2.336877573355925,-6.418827336675468,1.9188442036641764,-1.2776188013029057,3.999765876499797
0,2.9169934332470646,4.331221255019502,0.30975347097211725,-1.1653351805595156,4.004765583845423
0,-8.132890705065542,-4.808731768464586,-5.829338015095621,-14.883053817936872,4.009765291191048
0,-3.022774865866772,-6.978686436705813,-3.4284302919079206,-6.790774750911284,4.014764998536673
0,-4.092659073131378,-12.708642778925734,-6.227523396518558,-15.448498016119789,4.019764705882299
0,-10.132543350381754,-12.558600823614242,-12.046617365491004,-18.796223649091345,4.024764413227924
0,-7.562427720575158,-10.09856059823048,-7.925712234700646,-7.923951684028555,4.0297641205735495
0,0.4476877940010019,2.0514778708105363,0.6551919607787173,4.858317846133428,4.034763827919175
0,-0.2821968284021026,0.14151455779506406,-7.313904813477354,-9.279415090761145,4.039763535264793
0,3.8979183906794517,1.4115494372447865,4.736997408498406,13.272849473407287,4.0447632426104185
0,6.638033429619542,4.041582483628748,1.807898592846339,2.595111506687921,4.049762949956044
0,5.868148266456732,5.42161367121706,8.16879870561414,1.9673709767663548,4.054762657301669
0,5.438262878717423,1.0716429739584037,6.789697712472349,7.0696278508759205,4.059762364647295
0,4.158377243371016,9.711670365411214,5.510595578521361,2.2318820958480146,4.06476207199292
0,-0.40150866309418753,-11.088304181230892,-1.558507731721092,-4.765866321832908,4.069761779338545
0,-0.26139486449852334,-4.568280692890288,-0.24761225411418875,-10.383617435768993,4.074761486684171
0,5.438718615191187,14.681740803694547,3.033281975351862,1.8586287207558025,4.079761194029796
0,10.848831751803925,7.661760281758673,8.214174920576404,6.890872114852345,4.084760901375422
0,12.408944520638737,10.951777713926353,10.385066545100253,8.90311271362322,4.089760608721047
0,8.689056896112486,15.191793071853109,12.845956811760706,5.235350483688618,4.094760316066665
0,9.809168851620315,11.661806326077473,10.876845682418146,3.147585391017823,4.099760023412291
0,11.059280359565332,8.181817445935899,11.5877331178254,10.589817400988919,4.104759730757916
0,6.429391391396802,8.331826399652199,7.47861907763419,4.8720464783957205,4.109759438103541
0,0.7095019177074269,8.79183315451846,2.299503520533745,-2.3257274125675615,4.114759145449167
0,2.6696119084923433,5.211837677006355,3.6603864045134387,1.0464956918882589,4.119758852794792
0,-1.2702786665604124,0.7718399328820184,1.571267687127257,2.5087157554136357,4.1247585601404175
0,0.699830162109968,3.6218398874155655,-1.307852674336353,4.350932741560069,4.129758267486043
0,2.169938364011203,7.751837505533097,2.3930252772678173,4.713146613641477,4.134757974831668
0,0.8100459085823003,-0.2581672482093753,-2.356098500971754,1.0953573346238616,4.139757682177294
0,8.020152765105056,8.531825590322502,3.374775948005137,17.907564867044268,4.144757389522919
0,2.8502589025620866,2.4118159848391696,2.635648581196198,-0.5702308271742011,4.149757096868537
0,-2.639635710443481,4.361803898613286,1.0465193554481176,-4.478029786776829,4.154756804214163
0,-2.4695311055333806,2.7217892945003754,-2.2226117725684786,3.404167949157587,4.159756511559788
0,-1.5994273142813147,-1.6682278649701496,-3.7017448462292704,6.076362341498579,4.1647562189054135
0,-1.5593243680754245,-5.698247617413903,-3.870879908756562,-5.171446649012327,4.169755926251039
0,3.5907777018469527,0.8417299996552912,-3.0800170030766685,-2.0692590617728994,4.174755633596664
0,-1.939121135716217,-2.0082950510525475,-5.429156171762782,0.792925063884896,4.17975534094229
0,-2.5790209119876817,-5.538322806626511,-0.018297457026429376,6.575105688734309,4.184755048287915
0,-7.328921658089776,-1.2083533039259513,-6.157440900744347,-9.192717226502557,4.18975475563354
