labels,F4,F3,Fz,Cz,timestamps
0,-6.4908969894621364,-8.050913344864806,-4.661160190454079,-6.2020645367334275,-2.000037371826277
0,-5.039355916842106,-5.868795056627946,-6.259949162511837,-6.4490191952418465,-1.9950372783967083
0,-13.457814552499052,-16.486675903055083,-14.648738126890905,-13.675972555870754,-1.990037184967143
0,-9.966272903097623,-16.57455590475461,-14.097527095664125,-13.892924631799534,-1.9850370915375777
0,-9.014730974350712,-12.79243508105915,-9.216316079787378,-9.639875435116313,-1.9800369981080124
0,-10.433188770965447,-20.45031344982279,-14.785105088993697,-18.186824976683678,-1.975036904678447
0,-14.281646296654813,-16.7781910273281,-16.553894131785654,-13.963773266062766,-1.9700368112488817
0,-12.72010355404425,-16.126067828191395,-11.502683215342397,-12.170720311417071,-1.9650367178193164
0,-9.118560544563913,-6.783943865406386,-5.361472345509075,-6.597666119561632,-1.9600366243897511
0,-9.187017268489933,-10.431819150615597,-4.220261527061192,1.2253893037369974,-1.9550365309601858
0,-0.725473725140191,0.04030630553452974,1.2009492358969538,-3.6315540466732488,-1.950036437530617
0,6.586070086779449,4.8424324930119,4.392159939560699,4.86150382430475,-1.9450363441010516
0,-3.0423858312724397,-9.085440597984606,-4.7966294198607295,-10.22543708814522,-1.9400362506714863
0,-1.0808414779234223,-2.7433129771324074,-2.235418846192588,-7.552376788641084,-1.935036157241921
0,-2.8092968518031425,-2.4311846538135558,-6.484208343104092,-5.4193152813064795,-1.9300360638123557
0,-1.9377519513868717,-5.759055637024007,-7.672997913889145,-5.006252569607339,-1.9250359703827904
0,-3.6262067749337032,-4.446925935381312,-7.501787561288041,-2.4931886564281127,-1.920035876953225
0,-7.7446613204215815,-7.22479555706456,-12.040577287333223,-2.3301235442179253,-1.9150357835236598
0,-3.323115585421881,-6.582664509719256,-5.1093670932332405,0.6929427648726698,-1.9100356900940945
0,-6.731569567002144,-8.51053280037162,-6.938156979359561,-5.933989731111054,-1.9050355966645256
0,-8.220023261683389,-11.848400435324892,-7.56694694534399,-10.08092103387168,-1.9000355032349603
0,-12.028476665339594,-11.616267420007992,-7.705736990135015,-5.3878511446194155,-1.895035409805395
0,-14.326929772979739,-16.95413375878361,-17.394527111912442,-9.994780063863402,-1.8900353163758297
0,-13.535382578501213,-19.511999454717998,-15.263317307830464,-12.561707791314811,-1.8850352229462644
0,-10.183835074542937,-12.829864509349981,-12.132107573729462,-6.83863432577975,-1.880035129516699
0,-9.962287252519872,-11.857728922637367,-10.920897904059288,-8.385559665111364,-1.8750350360871337
0,-9.740739102755299,-13.525592693119664,-12.20968829200878,-8.412483806291094,-1.8700349426575684
0,-6.429190614601677,-3.5634558181209988,-7.238478729638042,-9.059406745490913,-1.865034849228003
0,-5.857641776559469,-0.4513182940150976,-4.7472692080164345,-3.2163284780895536,-1.8600347557984378
0,-6.566092576413308,-3.06918011661425,-5.446059717435931,-8.22324899875007,-1.855034662368869
0,-2.364543001343518,7.152958718486008,-0.37485024763013897,-2.7601683015296627,-1.8500345689393036
0,-0.11299303805121258,2.185098215647663,1.2763592120279372,-4.53708637995657,-1.8450344755097383
0,-0.29144267295084564,-4.422761620977758,-0.9524313276853345,-1.2140032271206715,-1.840034382080173
0,0.6501081076485722,-1.4606207873570614,3.4487781440045544,3.4390811641800085,-1.8350342886506077
0,-3.5783406825289443,-5.848479279321281,-5.360012362173059,-3.5878331987430117,-1.8300341952210424
0,4.353210970285472,4.933662907558673,5.081197164500156,1.3352536914326487,-1.825034101791477
0,-7.6152369200822605,-7.56419422208599,-10.357593265201405,-8.411658157897168,-1.8200340083619118
0,-0.1536843396954662,2.037949336518874,1.0536163596676413,-0.14856873911309565,-1.8150339149323464
0,-3.332131274399823,-3.8399064116872164,-4.0151739496621355,-0.34547804429389495,-1.8100338215027776
0,-4.190577709769361,-1.907761461579844,-1.543964181669705,0.027613934692541586,-1.8050337280732123
0,-6.7090236310640785,-7.35561580780657,-6.132754324575332,0.27070720604308274,-1.800033634643647
0,3.592530976833543,-4.123469444660053,-3.2015443662823126,2.5338017779410644,-1.7950335412140817
0,1.704086129309975,-3.4313223659730996,-2.480334294315646,6.286897658461526,-1.7900334477845163
0,4.4456418417405,2.5708254348307906,-1.2091240958560494,7.089994855383662,-1.785033354354951
0,4.2271981292585075,2.03297396452377,0.4020862421481014,4.603093375993233,-1.7800332609253857
0,6.738755006626814,7.63512322979651,5.673296732828952,5.056193227005309,-1.7750331674958204
0,4.03031248814688,2.387273237023471,1.3345073892015633,2.709294414616462,-1.770033074066255
0,7.641870587599593,12.829423992098716,7.35571822399411,6.962396944574814,-1.7650329806366898
0,5.733429318206953,10.071575500256955,9.37692924950959,5.585500822175017,-1.760032887207121
0,7.214988692590124,4.4137277658877085,5.5381404774527105,4.678606052196119,-1.7550327937775556
0,4.626548722745554,1.5558807925685039,4.35935191883682,4.501712638885231,-1.7500327003479903
0,10.508109420043498,6.168034583317007,9.540563584036445,5.774820585996437,-1.745032606918425
0,0.8396707952139959,3.4701891407536265,5.401775482809004,0.6279298968255962,-1.7400325134888597
0,0.7312328584210983,4.332344467098237,7.612987624245894,2.5610405742899336,-1.7350324200592944
0,2.0527956194846175,0.8445005641731576,3.1942000167774536,-5.095847378916513,-1.730032326629729
0,-4.36564091191046,-5.993342566463215,-2.7245873316945888,-5.102733960088275,-1.7250322332001637
0,-3.434076726050998,-3.2511849232445758,-1.5233744135285274,-3.2096191662557425,-1.7200321397705984
0,0.8474881869620718,0.06097349564635714,2.8478387789129544,-1.066502994070546,-1.7150320463410296
0,-0.25094616277482235,2.86313269226741,1.07905225329369,-2.5533854398695652,-1.7100319529114643
0,-3.0493797650589713,-7.2847073312355315,0.25026601719948627,-0.8802664997744843,-1.705031859481899
0,4.122187390369322,3.137453427355614,2.4914800780951487,8.552853830201713,-1.7000317660523336
0,10.033755313721707,7.369614970333447,4.842694443302406,5.1059755539070535,-1.6950316726227683
0,5.815324014854683,3.381777299835984,5.143909119891021,5.729098674755135,-1.690031579193203
0,3.7968935030121314,3.073940417598954,4.02512411454084,11.27222319556193,-1.6850314857636377
0,4.468463786835712,1.2061043249536312,3.256339433493337,-0.9746508815109243,-1.6800313923340724
0,7.450034874472215,6.148269022925183,8.077555082559485,4.498476445112211,-1.675031298904507
0,9.881606773534939,11.240434512180935,11.47877106703574,7.45160517657833,-1.6700312054749382
0,13.463179490911177,21.592600792710485,14.449987391452316,15.034735313552266,-1.665031112045373
0,13.154753032510502,19.594767863290485,12.65120405927403,12.197866855882445,-1.6600310186158076
0,14.496327403055568,16.55693572101989,13.532421072719252,12.570999802285996,-1.6550309251862423
0,20.827902605922223,23.599104361140704,18.893638432677324,12.184134150242274,-1.650030831756677
0,19.37947864292799,18.801273776992215,19.41485613856944,13.597269896003786,-1.6450307383271117
0,12.37105551414911,12.973443959992393,14.906074188155925,8.980407034611426,-1.6400306448975464
0,10.832633217991654,15.66561489978564,8.31729257753246,9.293545559961004,-1.635030551467981
0,10.60421175148278,12.527786584483268,14.7885113013696,10.986685464921816,-1.6300304580384157
0,9.745791110517196,5.889959000852794,10.589730353127598,4.509826741427188,-1.6250303646088504
0,2.7773712900081717,7.172132134556724,3.530949725155182,8.772969380564703,-1.6200302711792816
0,12.578952284045426,10.234305970404877,11.892169408843905,15.716113372624125,-1.6150301777497162
0,4.600534085980398,5.186480492444615,2.923389394801663,18.479258706902506,-1.610030084320151
0,4.172116688441318,1.6886556840023728,4.144609672954632,5.22240537139989,-1.6050299908905856
0,-0.1862999165360909,2.610831527865225,0.7158302327059451,7.255553352834074,-1.6000298974610203
0,0.655284262744206,-0.006991993493664639,2.87705106312914,8.04870263696052,-1.595029804031455
0,4.446869217811434,-0.9248148977632988,1.8782721530709003,5.9818532087974825,-1.5900297106018897
0,4.668454940014326,6.537362797276428,8.279493491134506,9.205005052659294,-1.5850296171723244
0,4.980041420379275,3.5495410736828337,4.630715065549877,9.288158152120692,-1.580029523742759
0,-0.8083713504654249,-3.5082800867681065,-1.1480631359242732,-7.3986875099559555,-1.5750294303131902
0,-0.47678338219194605,0.9838992974957795,-0.4468411258809366,-3.7755319511042424,-1.570029336883625
0,2.2848053154046335,0.04607920802429921,1.5243810829676903,-2.092375188765634,-1.5650292434540596
0,0.6363947324771598,5.548259626360541,-0.6943965221077775,-3.1192172400498803,-1.5600291500244943
0,-4.0820151408798315,-3.0595594660734737,-5.623173953823382,-4.726058121748838,-1.555029056594929
0,-0.18042431454693064,-1.5773780879814727,-4.381951224740234,0.9071021496433651,-1.5500289631653636
0,1.6911672017096882,-1.2651962580443419,0.2892716528983295,-0.05973644212770779,-1.5450288697357983
0,-4.14724060179125,-1.553013994804581,-5.8395053328219735,-0.23657391321291388,-1.540028776306233
0,-4.365647734634441,-5.770831316628553,-0.4782821935390623,6.036589720214979,-1.5350286828766677
0,-6.004054206151573,-7.868648241596858,-5.967058940609558,-3.560245558137848,-1.5300285894470989
0,-6.872460025235604,-8.51646478729048,-7.975835585039826,0.012920235307204764,-1.5250284960175335
0,-10.92086520019455,-5.894280970609533,-7.074612137332084,0.4260870841104691,-1.5200284025879682
0,-14.2192697385608,-10.442096807709301,-9.833388607318,-8.42074502807776,-1.515028309158403
0,-11.697673646845569,-2.969912314001912,-4.272165004074298,-3.25757611737607,-1.5100282157288376
0,-9.796076930388606,-8.517727504198746,-3.860941335970193,-4.114406199501871,-1.5050281222992723
0,-1.5344795934422055,1.8944576075835415,0.19028238915646026,4.428764710222651,-1.500028028869707
0,0.13711836050754184,-4.663356992342489,-0.7884938362271844,-0.008063403352244758,-1.4950279354401417
0,3.3387169283169706,1.4888286825965493,-0.02727001952123198,0.7051094445781236,-1.4900278420105764
0,7.4603161068071815,3.461014619092946,3.7139538319000165,9.558283238660747,-1.485027748581011
0,4.621915892473382,-0.9867991961919291,0.01517771058999623,-0.9285420367374797,-1.4800276551514422
0,5.80351628130918,6.845387223251676,2.5264016089576633,-2.8453663975755306,-1.4750275617218769
0,5.965117268758956,3.3175738636888763,4.7076255192294365,2.467810140038656,-1.4700274682923116
0,1.2467188497440729,2.1097607110444674,-0.011150566597458944,3.670987559982842,-1.4650273748627463
0,10.368321018705501,15.70194775081418,13.100073343161444,13.354165845949185,-1.460027281433181
0,4.429923769579075,6.47413496787252,6.7812972397000335,-0.7626550188680372,-1.4550271880036156
0,2.7015270957295057,5.636322346256768,7.452521113495324,6.800524948110846,-1.4500270945740503
0,-0.5868690099620061,0.3085098692335017,0.043744954275815595,0.6937057289758809,-1.445027001144485
0,8.09473544508207,4.370697519576025,3.6049687512298436,11.76688730541724,-1.4400269077149197
0,1.2163404531622746,3.8528852797396262,2.676192493216645,3.8000696586291887,-1.4350268142853508
0,7.287946006207092,10.675073131819545,11.677416168782047,11.95325276915273,-1.4300267208557855
0,0.19955209572946309,9.02726105734668,8.508639765949141,8.486436616756372,-1.4250266274262202
0,3.491158712870524,7.32944903707752,4.3798632719942425,10.639621180336176,-1.420026533996655
0,9.642765848435324,15.991637050879355,8.031086673425937,6.872806437863628,-1.4150264405670896
0,-4.545626507154592,4.32382507765101,-2.937690043862541,-0.8240076335210329,-1.4100263471375243
0,-6.1340183637687815,-4.3339869046050765,-1.2464668943517618,3.7991789427582616,-1.405026253707959
0,4.417590268756321,-0.09179891837226117,5.16475610736326,3.9823661429585187,-1.4000261602783937
0,4.689199380724065,0.8603890138186364,3.0259789466097997,3.525553943057481,-1.3950260668488283
0,4.6108089623107436,-2.347423130487382,5.547201608468297,2.878742318697035,-1.390025973419263
0,23.51241900319659,16.494764626208745,16.338424077556155,21.771931245067165,-1.3850258799896942
0,-3.0959705078023734,-9.603047738871693,-8.260353662165484,0.9351206966068046,-1.3800257865601289
0,9.595640417147886,5.28913975114348,6.800868372674822,7.4483106467999525,-1.3750256931305636
0,-11.192748234772212,-13.998672926953773,-13.037909834768387,-11.33849893156368,-1.3700255997009982
0,18.928863523357453,16.453514203809725,15.473311698736557,18.414691934042164,-1.365025506271433
0,3.540475678167951,4.735701120418277,5.124532956374329,6.397883215883677,-1.3600254128418676
0,-1.377911784264875,-1.4921122005420502,-3.424246079064356,-1.6289251143611154,-1.3550253194123023
0,-5.2562988783211315,1.4700742170536745,-7.493025425143331,-5.405733085554312,-1.350025225982737
0,-1.5146856183956456,-4.1277396508414546,-1.5218050993292191,-8.852540726581005,-1.3450251325531717
0,-0.9430720186358668,-3.96555382819564,-3.870585118702178,-4.249348065887053,-1.3400250391236028
0,-7.151458092931441,-2.553368338741155,-6.94936549994675,-7.1161551313059945,-1.3350249456940375
0,4.1401561450804,8.628816794036073,2.1718537406333054,-7.552961950048635,-1.3300248522644722
0,1.4517706819462397,3.5610015466331215,4.763072587008128,0.24023145127386625,-1.325024758834907
0,9.833385504145689,3.833185895208166,5.594291023112877,-0.5765749534764539,-1.3200246654053416
0,10.315000597746481,8.075369815452232,9.465509032503233,-1.5133811901965388,-1.3150245719757763
0,16.07661594804695,16.26755328248126,15.746726598075538,10.139812715253752,-1.310024478546211
0,21.718231539196942,19.99973627048344,21.167943701702278,18.733006736721,-1.3050243851166456
0,22.579847353781478,22.601918752208025,16.839160323798694,22.186200847130394,-1.3000242916870803
0,20.061463372466243,21.164100698549078,21.440376443024714,19.74939501782482,-1.2950241982575115
0,14.823079573885934,10.746282078408248,12.621592036215043,14.37258921825052,-1.2900241048279462
0,17.88469593479072,16.308462858880823,15.562807078479915,15.1357834160353,-1.2850240113983808
0,23.436312430185346,22.420643005482912,19.53402154334652,16.57897757719718,-1.2800239179688155
0,14.207929033280797,15.472822482104357,9.265235402802855,6.262171666288399,-1.2750238245392502
0,-0.2404542844383719,4.285001250950236,-2.8935513725399273,1.7453656466368717,-1.270023731109685
0,-11.118837552613066,-1.572820727079396,-8.272338812859687,-4.951440519166567,-1.2650236376801196
0,7.272779198863124,10.249356508221604,8.218873051579875,5.6817531312375396,-1.2600235442505543
0,8.474395940192743,7.751532916621291,1.0600841906230167,9.394946560113507,-1.255023450820989
0,17.786012641270823,20.473708457212233,15.471294573914086,16.398139729299185,-1.2500233573914237
0,16.79762927103797,18.75588308795118,15.42250417043765,14.391332599694481,-1.2450232639618548
0,9.649245797065712,12.218056765264459,9.44371294810425,9.664525130927087,-1.2400231705322895
0,5.140862185562297,2.0902294440375275,4.154920873622575,4.31771728138148,-1.2350230771027242
0,21.482478401609608,20.192401077954013,18.6761279126718,20.820909008406336,-1.2300229836731589
0,11.914094409168863,10.084571619656504,12.457334029924635,13.45410026828114,-1.2250228902435936
0,17.565710170835356,16.28674102057989,16.388539188810164,18.057291015922836,-1.2200227968140283
0,16.37732564768718,15.938909230792671,12.089743351349021,14.51048120469574,-1.215022703384463
0,8.398940799290237,9.281076198955144,8.210946478202805,10.463670786433042,-1.2100226099548976
0,6.560555583867382,7.153241872417923,1.5321485289057255,4.736859711632729,-1.2050225165253323
0,2.4921699586535624,5.945406197494682,2.0933494622490136,4.600047929803634,-1.2000224230957635
0,-2.446216119704977,2.057569119757682,-3.5354507633353256,-3.3667646101526705,-1.1950223296661981
0,-7.154602694762547,-9.96026941565825,-12.304252189418431,-9.133577959544567,-1.1900222362366328
0,-15.39298980981501,-14.698109463549823,-11.183054857134803,-9.330392169418886,-1.1850221428070675
0,-17.23137750737377,-17.045951077974532,-14.221858806736693,-12.537207290131443,-1.1800220493775022
0,-18.049765828669095,-20.91379431168028,-17.300664077295465,-13.77402337106488,-1.175021955947937
0,-21.018154813315387,-17.771639215756366,-18.81947070647978,-9.750840460466604,-1.1700218625183716
0,-17.26654449913801,-13.259485839510278,-15.788278730357725,-16.527658605380257,-1.1650217690888063
0,-16.944934922125615,-18.927334230548826,-13.567088183334441,-13.504477851597235,-1.160021675659241
0,-24.84332611645221,-28.055184434802584,-24.695899098194587,-20.501298243529817,-1.1550215822296757
0,-18.40171811440589,-18.83303649628203,-17.75471150601781,-14.018119824050881,-1.1500214888001068
0,-10.830110946335802,-14.440890456884498,-9.753525436064443,-13.154942634433448,-1.1450213953705415
0,-20.678504640821114,-19.648746356549626,-20.28234091590058,-15.681766714441085,-1.1400213019409762
0,-24.196899224795036,-25.46660423342661,-21.591157971528155,-18.618592102395265,-1.1350212085114109
0,-18.12529472336046,-17.794464123752093,-18.219976627225876,-19.245418835068477,-1.1300211150818456
0,-26.093691159566045,-28.89232606165686,-24.168796905339345,-19.96224694750101,-1.1250210216522802
0,-20.26208855432538,-26.250190079018218,-23.197618826169936,-22.03907647286096,-1.120020928222715
0,-23.030486926375136,-21.208056205301702,-17.296442407890847,-16.625907442366966,-1.1150208347931496
0,-17.578886292299597,-16.80592446758297,-12.465267666631119,-17.252739885319873,-1.1100207413635843
0,-11.517286666690392,-18.3537948908271,-17.7840946167638,-12.119573829260895,-1.1050206479340154
0,-14.86568806244199,-12.401667498186228,-15.322923271118231,-13.646409300183363,-1.1000205545044501
0,-5.514090491064455,-7.109542311258538,-5.771753641057028,-6.5832463227446985,-1.0950204610748848
0,-13.972493962918126,-9.697419350407937,-10.38058573667021,-16.02008492044539,-1.0900203676453195
0,-17.850898487280006,-18.69529863497451,-18.40941956698987,-22.45692511561291,-1.0850202742157542
0,-11.76930407218682,-8.703180183187456,-13.178255139908037,-7.853766929150742,-1.0800201807861889
0,-9.76771072430247,-9.391064012044488,-9.047092461979336,-11.26061038045288,-1.0750200873566236
0,-10.666118449038272,-5.918950137446329,-10.055931538483991,-7.987455487658622,-1.0700199939270583
0,-8.904527250740161,-6.4368385744416186,-6.894772373652901,-6.454302267934339,-1.065019900497493
0,1.8070628671516258,-5.174729337392798,-2.3336149708649847,2.798849262307605,-1.060019807067924
0,0.16865190179572037,-3.76262244007685,-2.6824593328762485,-1.688000912904172,-1.0550197136383588
0,1.7602398505519192,-1.670517895787361,1.428694537929679,0.1451471906024961,-1.0500196202087935
0,-3.308173289237951,-2.428415717459599,0.06984663932991014,-3.7717064429475937,-1.0450195267792282
0,0.7734124797626237,-0.2063159177843804,1.280996969120298,-0.01856182921927818,-1.0400194333496628
0,-4.975002845019399,-7.07421850925221,-4.867854474927175,-7.655418983685614,-1.0350193399200975
0,-7.713419265948515,-5.1621235040729845,-3.3867076949577215,-1.7522779215310043,-1.0300192464905322
0,-7.011836784975992,-3.9200309140286196,-5.245562692855645,-3.7291386575713883,-1.025019153060967
0,-7.030255403440369,-12.777940750365943,-7.1244194701008645,2.7839987937017003,-1.0200190596314016
0,-1.3086751220270658,-1.0458530237022738,-1.293278027686381,4.807134417925169,-1.0150189662018363
0,0.582904059081297,-3.1537677440164873,2.4978616338176485,-0.9697317993753336,-1.0100188727722674
0,-6.215517860013373,-10.171684920775457,-6.881000485923909,-4.096599872846641,-1.0050187793427021
0,5.586059120963098,1.8603954370087636,3.230135612885633,5.596530182831829,-1.0000186859131368
0,7.12763500232505,-1.3175266792585996,3.61126993013933,1.3396583529801465,-0.9950185924835715
0,-3.0907902158239224,-1.2554512779333886,-0.647597534317936,1.602784622777312,-0.9900184990540062
0,0.9907834663309696,-1.8733783672650115,-4.436466780768071,7.79590897715542,-0.9850184056244409
0,5.272356048453035,7.928692044561422,7.0346621904884366,4.869031400701533,-0.9800183121948756
0,-1.9560724699146694,3.610759949252384,-2.044210620852002,4.132151877527765,-0.9750182187653103
0,5.845497910584675,6.662825338149928,6.186914784774763,11.355270391198239,-0.9700181253357449
0,8.497067189050522,10.504888202055987,9.588038406652986,9.428386924626784,-0.9650180319061761
0,0.3986353641757459,6.066948531100298,-0.3008397563825542,1.6015014599422708,-0.9600179384766108
0,-2.3797975657831296,2.7090063146802863,2.6902802940052344,2.5346139785735535,-0.9550178450470455
0,0.6417683972267639,1.5110615416003843,2.5013985558116953,5.377724461497262,-0.9500177516174801
0,-7.85666674868308,-7.836885799634855,-8.497484973125268,-1.3091671106213956,-0.9450176581879148
0,-3.5951030051562975,-2.3948357204735684,2.2336297050698963,-1.4660607573445574,-0.9400175647583495
0,-5.6235403734285745,-0.5127882320693549,-1.2152574115412837,-6.022956498260836,-0.9350174713287842
0,0.7980211457143735,10.549256654641493,5.46585367520995,1.730145647230407,-0.9300173778992189
0,-2.78041844817371,-2.6787010713931836,1.6369629633899896,-4.326754340022316,-0.9250172844696536
0,-6.558859155302503,-6.176661421480897,-5.371929549124776,-10.953656478906591,-0.9200171910400883
0,-4.667300975577196,-7.35462440688981,-6.740823864471964,-11.500560787820046,-0.9150170976105194
0,-4.055743908461933,1.0074099615111967,-0.6097199844986133,-10.357467284322453,-0.9100170041809541
0,-5.624187952940657,-8.080558326686326,-4.618617910641056,-13.22437598492774,-0.9050169107513888
0,-3.9926331075349197,-11.008529281447423,-5.297517643971793,-16.241286905003616,-0.9000168173218235
0,-2.401079370320441,1.8334970878353085,-0.30641918520873845,-16.39820005861732,-0.8950167238922582
0,-4.44952673898183,-3.7744792276595955,-2.135322534738463,-21.215115458329173,-0.8900166304626929
0,-1.767975210863255,-1.3324582364033466,-3.304227692707678,-9.302033115050861,-0.8850165370331275
0,2.5035752169626226,2.6295600533094983,-1.103134659058549,-10.368953038131961,-0.8800164436035622
0,1.8751245475395257,-1.298424366742068,1.4379565664603278,-3.855875235689267,-0.8750163501739969
0,0.02667278384254851,-2.4064115047736547,-0.10095401580140446,-1.9727997149992045,-0.8700162567444281
0,1.298219928720745,3.335598631029109,0.770133594499454,-2.2097264828267544,-0.8650161633148628
0,3.8397659849060135,5.277606032470549,0.10121939766078047,0.5233444543423529,-0.8600160698852974
0,2.041310954965009,9.80961069111157,2.4223033939301293,-0.6735869098332391,-0.8550159764557321
0,-4.107145158732985,-3.5983874019635524,-4.586614416498887,-5.720520581597813,-0.8500158830261668
0,-3.7656023538714973,-5.216388256057864,-3.575534033394355,-2.7574565670135383,-0.8450157895966015
0,-1.6440606279550656,-10.194391880425142,-5.374455456296825,-1.6543948718433752,-0.8400156961670362
0,1.427480021768407,-5.3923982838198,-6.883378684346761,-0.161335501565058,-0.8350156027374709
0,4.7890195981629375,-1.7804074743323743,4.3876962837682765,0.2917215385083816,-0.8300155093079056
0,-3.2594418959921576,-0.1584194595323693,-2.291230550328507,2.974776243101746,-0.8250154158783367
0,0.49209554195785965,-6.34643424668822,-6.810159184876974,-9.27217139307321,-0.8200153224487714
0,5.053631914619548,0.26554815716641184,2.0209103820568908,6.820878624765122,-0.8150152290192061
0,3.6751672244861138,3.167527745218744,3.421978152612782,1.4639262914880242,-0.8100151355896408
0,5.496701473750808,-2.7704954892585425,7.02304412891189,7.306971601844654,-0.8050150421600755
0,10.178234664150928,4.961478446961019,6.86410831272865,8.730014550190274,-0.8000149487305102
0,11.109766796787179,13.083449546925838,7.885170705271282,7.873055130275475,-0.7950148553009448
0,-0.31870212803599224,-3.3445821967470097,-2.6737686928710334,-3.8639066648233396,-0.7900147618713795
0,-2.2671721106805847,-9.94261679188029,-6.742709881500757,-7.560870842433888,-0.7850146684418142
0,-3.855643151749749,-8.28065424623091,-5.7216528603574695,-6.857837409761976,-0.7800145750122489
0,2.0158847482569784,-6.858694566947255,1.689402371211534,-6.774806373482956,-0.77501448158268
0,0.15741158898866606,-6.396737760407096,-6.929544185750041,-6.4517777396094935,-0.7700143881531147
0,0.1389373701233802,-3.0047838323010194,-3.878492529888006,-6.388751513497835,-0.7650142947235494
0,3.4804620912833504,8.937167212150081,8.872557340439503,1.3742723000853543,-0.7600142012939841
0,-9.478014247957287,-10.150884632123228,-4.096394573016921,-12.142706303154508,-0.7550141078644188
0,-3.2764916479052912,-2.6789393701414443,-0.6653482685900431,-10.099687327009686,-0.7500140144348535
0,2.2550298914591127,-2.566997006672336,2.565696255345005,-1.8966707745667637,-0.7450139210052882
0,8.836550370376942,2.6649424538530395,-0.003260999579494661,1.8763433517795094,-0.7400138275757229
0,13.458069788846878,9.826879007099578,6.6977799681752845,8.52935504992557,-0.7350137341461576
0,2.8895881461636073,-1.3411873515171764,1.4488191599191051,-4.0876356823759625,-0.7300136407165887
0,6.861105440790804,2.4307433730277612,9.049856576609882,6.705371152340618,-0.7250135472870234
0,7.712621670489859,3.9226711754697283,5.040892218738536,7.328375551263685,-0.7200134538574581
0,6.434136832392359,2.2345960503191082,2.5419260862520385,3.1613775111861173,-0.7150133604278928
0,8.445650922955553,4.996517991806943,6.032958178584201,6.634377028377331,-0.7100132669983275
0,-0.172836062032383,-2.6115630061331827,-2.7560115052310676,5.877374098574764,-0.7050131735687621
0,2.9486758726909112,-5.589646949731204,2.825017033576715,-0.7296312829867933,-0.7000130801391968
0,0.7701867220720895,0.49226615487652925,5.176043793616031,-1.5666391214405546,-0.6950129867096315
0,4.771696480855725,1.2441763017711076,1.6770687732862253,6.696350577920355,-0.6900128932800662
0,8.613205143519108,5.476083485104244,2.348091970690266,2.239337809665747,-0.6850127998504973
0,6.704712704077116,2.3579876988567,1.7991133836591033,-5.167677431859898,-0.680012706420932
0,12.116219155872395,8.529888936666026,11.820133009748949,3.6253048475562406,-0.6750126129913667
0,8.137724491419558,3.8717871917120332,3.0111508460773893,5.6282846420984125,-0.6700125195618014
0,6.189228702338861,6.763682456636214,4.802166889169384,0.5312619457897987,-0.6650124261322361
0,-1.1692682205263967,2.3755747235377283,-2.8468188649586024,-10.39576324755823,-0.6600123327026708
0,1.132233713191127,2.407463984049618,-0.4258064205385813,-0.7427909440553903,-0.6550122392731055
0,4.723734493644553,2.9093502294539593,4.535204218148214,1.5801788505301837,-0.6500121458435402
0,8.585234110768834,6.971233450732179,5.896213046730335,9.283146130611604,-0.6450120524139749
0,2.386732554083017,4.073113638491932,2.447220060539814,3.4661108903792184,-0.6400119589844095
0,4.608229812584195,-0.4250092170959189,3.338225254505786,5.159073123534035,-0.6350118655548407
0,1.299725874824174,0.5968648738100182,4.179228623189281,6.45203282324994,-0.6300117721252754
0,3.621220729022479,4.4287359008834555,4.210230160807391,8.064989982165264,-0.6250116786957101
0,7.342714363091441,4.250603853628162,2.501229861210371,7.717944592292713,-0.6200115852661447
0,3.0542067645536872,1.4724687212616783,1.1422277179038527,0.8308966449681636,-0.6150114918365794
0,-0.9643020795000334,-4.9856695072707415,-1.6367762758421798,-7.776153868961809,-0.6100113984070141
0,0.01718781773048278,-5.95381084305036,-1.605782126837547,-3.9532069587059437,-0.6050113049774488
0,4.298676442936525,-0.8519552968879017,3.845210158140688,0.629737366837521,-0.6000112115478835
0,0.7601637827032013,1.3098971207485655,5.296200572281678,1.4726790990739878,-0.5950111181183182
0,-3.4083501765332254,-3.0382536004159206,-3.3128108914268815,0.9356182294880205,-0.5900110246887493
0,-2.176865448372541,-0.9864074705671699,-0.5518242401889853,-1.441445250494735,-0.585010931259184
0,8.044617953668933,7.515435500171444,5.019160518741556,-5.018511349457078,-0.5800108378296187
0,5.696100016002175,7.597275301549431,8.49014337800568,7.764419924114487,-0.5750107444000534
0,1.777580724668544,4.969111922868945,5.441124329855944,2.2973485617425373,-0.5700106509704881
0,2.0190600652634614,3.420945352835818,5.092103365951214,-0.7297254452540721,-0.5650105575409228
0,3.4905380230586722,1.9827755796482802,2.1130804773776855,-5.976802105744957,-0.5600104641113575
0,0.7020145830859198,-6.585397408795904,-1.6159443451902114,-1.853881428519404,-0.5550103706817922
0,-1.0865102698223343,-2.673573624608461,-0.724971111268517,-5.640963422065244,-0.5500102772522268
0,-9.825036550868953,-11.03175307959717,-8.903999830324961,-2.3880480945003058,-0.5450101838226615
0,-5.023564274986453,-9.21993578499908,-4.33303051153064,0.32486454640104473,-0.5400100903930927
0,-2.9820934565859867,-3.73812175129589,-2.8320631635820206,-2.532225506892268,-0.5350099969635274
0,-1.4206241095673164,-0.3963109882542041,1.38890220526545,-1.0393182617624863,-0.530009903533962
0,-3.9491562474810236,-4.194503505177052,-6.290134412977102,-2.1664137254542437,-0.5250098101043967
0,-2.667689883609598,-7.962699311055338,-5.249173026067502,-3.8135119050384265,-0.5200097166748314
0,0.6037749690221788,2.18910158548654,3.1817863585572685,-3.820612807350211,-0.5150096232452661
0,-3.9247617023990324,-4.169100823808818,-4.797256266251775,-3.4077164389126184,-0.5100095298157008
0,-3.563299910501751,-4.827306546927921,-3.39630090745566,-7.194822805875935,-0.5050094363861355
0,0.7681603323121124,-4.255515591566658,-6.145347571766319,1.3480680860170342,-0.5000093429565702
0,4.0496190138189085,3.3762720349267776,3.5156037344550173,11.070956231292566,-0.4950092495270013
0,-3.148923878200977,-4.121943674554502,-1.513446994894033,2.9138416243358023,-0.490009156097436
0,-4.267468356010197,-5.930162726971179,-7.152499765791834,-2.8132757409146896,-0.4850090626678707
0,-5.826014431719738,-1.5683851290358573,-4.42155458401031,-0.2403958708351947,-0.4800089692383054
0,-9.104562117035734,-5.526610887092872,-9.480611454878229,-2.0075187718192384,-0.47500887580874007
0,-2.723111423089515,-7.6848400070781,-2.4496703831345408,-0.3146444501501285,-0.47000878237917476
0,-2.981662360428619,-4.773072494435384,-6.558731372919975,-11.301772911938315,-0.46500868894960945
0,-9.090214939115,-8.791308354013786,-5.907794427833107,-8.508904162905441,-0.46000859552004414
0,-7.768769168711339,-8.739547589999889,-6.636859550930969,-8.526038208080859,-0.45500850209047883
0,-5.067325058139863,-1.5877902058738058,-1.975926744706482,-5.173175051667689,-0.45000840866090996
0,-4.785882615646124,-2.546036204498809,1.1850039888144217,-2.230314697141246,-0.44500831523134465
0,-13.814441848845327,-15.724285588256361,-12.494067352077014,-9.817457147414936,-0.44000822180177934
0,-13.49300276458906,-8.892538358905945,-10.903140768673385,-7.184602404859486,-0.43500812837221403
0,-6.911565368706245,-12.140794517270345,-10.352216261500438,-11.501750471156498,-0.4300080349426487
0,-8.900129665944476,-6.709054063112779,-4.481293830108309,-3.438901347171636,-0.4250079415130834
0,-8.178695660120123,-11.747316995205654,-7.760373473170243,-3.7760550330083076,-0.4200078480835181
0,-2.077263354261782,-6.695583311399715,-6.049455188652942,-4.143211528204128,-0.4150077546539528
0,-5.4458327507566695,-6.06385300867944,-7.868538973871541,-3.9203708318797776,-0.4100076612243875
0,-3.9244038515071,-3.252126083290111,-3.427624825491465,4.542467057176257,-0.40500756779482217
0,-1.6729766580091814,0.699597469053751,-1.59671273960322,4.365302140305201,-0.4000074743652533
0,2.508448828554423,4.221317652902311,2.6841972880791354,3.5081344186752528,-0.395007380935688
0,-1.5701273928608834,2.443034472778434,2.7851052619491554,-1.1390361068698498,-0.3900072875061227
0,-7.2487053232432395,-2.275252066991836,-1.8439888136955702,-7.666209435674248,-0.38500719407655737
0,-1.0072849633930399,-4.153541962198321,3.146915065312573,0.06661443303403497,-0.38000710064699206
0,4.744133686173724,2.8081647914513113,2.207816903032817,3.089435500292581,-0.37500700721742675
0,1.155550625040676,-0.5001318016237886,4.528716703356904,-1.7677462327341067,-0.37000691378786144
0,7.696965852612124,5.331568262987768,8.389614469868974,10.065069235032585,-0.3650068203582961
0,6.158379367915817,8.943264989488119,5.640510205675701,1.757881904404138,-0.3600067269287308
0,6.469791169452472,9.90495838160165,3.2914039132968225,5.080691775774877,-0.35500663349916195
0,5.941201255108741,9.786648442298619,10.702295594668712,4.123498849092068,-0.35000654006959664
0,12.292609622119334,16.1883351736003,13.49318525107563,4.016303123888164,-0.34500644664003133
0,8.224016266956907,8.980018576425868,7.7040728829220635,1.5791045993030306,-0.340006353210466
0,6.605421185220871,4.121698650560712,5.114958489619589,4.031903274135938,-0.3350062597809007
0,2.0568243717013512,3.4533753948870243,1.3358420697716342,-7.605300853046873,-0.3300061663513354
0,-1.0417741793721318,-3.1849511922454448,-3.823276378483946,-7.592507783657531,-0.3250060729217701
0,-5.5503744739963565,-8.893281112636474,-3.762396857113226,-0.879717518748203,-0.3200059794922048
0,-3.2689765180656036,-6.321614367823651,-3.511519367893892,-0.21693005890982492,-0.31500588606263946
0,2.552419682805798,8.39004904113975,5.839356087669609,7.55585459548854,-0.31000579263307415
0,-0.7061858767942822,0.6417091134590649,1.2502295081646237,3.8986364439464474,-0.3050056992035053
0,-2.1747932022260983,-2.1166341517615006,-0.28889910795300644,6.371415485563726,-0.30000560577394
0,6.226597701147257,3.0050192444263004,8.781970237557825,6.204191718922782,-0.29500551234437467
0,0.23798682789220657,3.48666930088683,3.812837542646955,11.696965142009574,-0.29000541891480935
0,-4.110625827576989,0.2383160163360416,-3.776297195127892,3.5597357520980615,-0.28500532548524404
0,-0.7392402708881306,8.039959389247517,2.19456602151872,3.4125035457376534,-0.28000523205567873
0,0.7121434924516769,0.8515994177817727,2.325427189796322,-0.09473148105730585,-0.2750051386261134
0,-8.83647454290342,-12.166763900167918,-10.72371369308917,-9.001969332498117,-0.2700050451965481
0,-2.665094382050579,-4.515130566612959,-5.252856629752408,-3.2392100126582077,-0.2650049517669828
0,-4.493716029684814,-6.733500583038886,-4.082001622335419,-8.636453525169387,-0.26000485833741394
0,-8.342339490031922,-10.101873950249884,-4.8611486724112005,-6.713699873074158,-0.2550047649078486
0,-3.1909647668133703,-3.340250668353758,-3.4502977810714754,-7.890949058754077,-0.2500046714782833
0,-2.359591863227856,-5.0686307367855985,4.720551050956742,-1.878201083912025,-0.245004578048718
0,1.0617792179244308,-3.197014154428645,-2.9686021768816357,-2.225455949687453,-0.2400044846191527
0,3.783148474008628,-6.785400919718927,-1.1977574651211613,2.6072863431207085,-0.23500439118958738
0,-5.5554840976299245,-8.273791030616408,-6.41691481421292,-5.709974206140646,-0.23000429776002207
0,-3.9941184996363943,-6.942184484480554,-6.206074224327676,-11.057237597947447,-0.22500420433045676
0,-6.492754734414783,-11.080581277947495,-4.915235695171885,-8.874503832294426,-0.22000411090089145
0,-3.8913928039284253,-9.498981406829353,-8.754399225890534,-2.901772908414749,-0.21500401747132258
0,-12.550032709602425,-11.037384866015291,-11.813564814972665,-15.98904482474549,-0.21000392404175727
0,-6.2486744521924775,-10.38579164940381,-9.772732460083226,-12.756319578867302,-0.20500383061219196
0,-8.247318031660146,-7.044201749895332,-7.0519021579313375,-4.173597167316416,-0.20000373718262665
0,-2.125963447194617,-0.6526151595086706,-1.3010739043488493,6.559122414306394,-0.19500364375306134
0,-1.0046106973983733,6.678968130289628,-0.19024769456748702,8.861839170746553,-0.19000355032349603
0,-1.4632597805232288,3.8205481281060205,1.6205764764557382,4.464553106446237,-0.18500345689393072
0,5.598089305319059,11.722124842197372,9.50139861374671,16.57726422518012,-0.1800033634643654
0,-0.8605634380239832,-1.1863017197561112,0.3822187220517942,2.5699725298847595,-0.1750032700348001
0,1.3607819911456944,0.11526844939230407,-1.3569631942696825,1.5026780226565697,-0.17000317660523478
0,-1.2378744055959618,1.6968353565106038,0.0638528689194981,-1.4546192949604095,-0.16500308317566592
0,-12.796532626626533,-9.13160099156545,-7.065333084219288,-7.9819194215566185,-0.1600029897461006
0,-5.255192669964379,-4.820040587806105,-3.704521049302677,-2.359222355512844,-0.1550028963165353
0,-4.773854532980756,-1.358483424764422,-3.7037110215686515,-8.916528094780224,-0.15000280288697
0,-5.722518212384661,-4.156929494546674,-4.612902995830176,-7.63383663675672,-0.14500270945740468
0,-3.5511837043437557,-3.6753787889132608,-5.202096966488832,-7.811147978175529,-0.14000261602783937
0,-6.969851004539753,-6.843831299279012,-5.641292927502137,-6.328462115030329,-0.13500252259827406
0,-3.0385201081677433,-1.6222870166383745,-2.9904908723487282,-5.515779042601748,-0.13000242916870874
0,1.3528089900186133,3.4192540683974704,0.0003092059274755199,-4.613098755540026,-0.12500233573914343
0,-1.9158637044532294,0.1507919653817077,-4.158892685413662,-0.940421247974504,-0.12000224230957457
0,-1.7345381859313884,-1.687673316169836,-2.1380965388922086,2.0922534863173707,-0.11500214888000926
0,3.956785551309615,5.453858233187868,4.64269765316703,-0.47507454630962,-0.11000205545044395
0,8.358107512949623,9.465386622746488,8.07348989845602,5.847594660449412,-0.10500196202087864
0,-5.940572295589667,-4.593088138563973,-5.805719795586965,-5.069738887239514,-0.10000186859131333
0,-0.9592538691259406,0.4684339578273655,4.375068578196359,-4.197075183276604,-0.09500177516174801
0,0.4620627975314382,3.659952920361647,1.0358550268385103,6.675585778545408,-0.0900016817321827
0,2.2533777096774767,3.841468757404603,3.506639557257968,11.878244004439953,-0.08500158830261739
0,1.4546908725862626,9.662981477052545,5.847422176143385,9.620899500162244,-0.08000149487305208
0,7.056002291366223,5.32449108690164,7.98820288981136,12.573552270585033,-0.07500140144348322
0,6.58731197080242,1.945997593937833,7.118981704036773,11.626202319523275,-0.0700013080139179
0,6.318619915173608,11.117501004578742,4.749758623935477,6.068849649706046,-0.0650012145843526
0,3.9299261281611075,9.919001324651274,7.530533653972821,5.261494262892582,-0.060001121154787285
0,-3.548769387063865,-0.4695014407422894,1.6813067980243623,3.804136160110068,-0.055001027725221974
0,6.9525333723778076,7.161992712823373,10.422078059427186,8.536775341830023,-0.05000093429565666
0,7.193834409146596,10.313483789244053,11.192847440922723,8.249411807961527,-0.04500084086609135
0,2.4451337255223295,2.9149717918364244,1.6236149445022248,3.6420455577547894,-0.04000074743652604
0,-0.8035686766809805,-2.0335432766900357,-1.8856194285435872,0.2446765898369992,-0.03500065400696073
0,1.7577272040526601,4.517938585995079,-2.3048556772595874,0.897304902437837,-0.03000056057739542
0,-2.45097863086198,1.6194173820427196,2.685906199310557,-5.000069506351864,-0.025000467147826555
0,-4.8696861799802615,-3.659106886546379,-2.453333797807681,-2.977446638362591,-0.020000373718261244
0,-3.888395441664541,-5.167634217808136,-5.042575667528027,-8.484826495141037,-0.015000280288695933
0,-10.247106413893091,-7.926164609537267,-7.4618194085586875,-11.632209077731494,-0.010000186859130622
0,-6.445819094078956,-8.51469805901576,-7.58106501915149,-6.139594386445025,-0.005000093429565311
0,0.5854665210162665,-3.823234562857344,1.8496875030249202,8.733017579153625,0.0
0,1.6667504351152478,2.568225882937362,2.9504381607278,8.685626819793137,0.005000093429565311
0,8.988032652042838,9.789683282640754,6.021186956769197,19.17823333577568,0.010000186859130622
0,0.5793131753665208,-1.7888623596512512,1.0619338937012712,4.59083712641558,0.015000280288695933
0,3.720592008244436,3.66258895978193,5.032678973716138,4.043438189925085,0.020000373718264797
0,4.581869153465019,4.054037244357984,1.7034221986699212,5.486036523697814,0.025000467147830108
0,3.253144613481999,-4.714517502724948,-1.165836429861878,1.0586321246103605,0.03000056057739542
0,4.724418390378686,3.396924721598781,2.174903089519924,-0.8987750108072327,0.03500065400696073
0,4.745690485841472,2.768363920346646,6.065640758094966,0.12381511379872312,0.04000074743652604
0,2.156960901148748,3.0998000964157524,2.446376576919587,-1.1235975052400453,0.04500084086609135
0,-1.031770362776309,-5.538766747493785,-1.7528894532673778,-2.161012871540604,0.05000093429565666
0,-1.090503305201024,-1.9873366087359605,2.267842668052455,-3.28843098860413,0.055001027725221974
0,2.080762074576994,3.6540905154711067,-0.6414270586863937,5.974148140218287,0.060001121154787285
0,2.162025777248804,2.7955146279921292,3.2593013668902038,17.76672451150031,0.0650012145843526
0,2.373287803393882,3.306935731551914,0.28002794505543094,3.339298121238464,0.07000130801392146
0,-1.1654518465811377,3.728353828593405,-1.8992473240304033,-1.7481310354159465,0.07500140144348677
0,-5.33419317236035,-0.2702310787408485,-2.158524440233337,-0.5655629638570081,0.08000149487305208
0,-10.452936173463982,-6.568818988495476,-10.86780340325786,-8.182997669540535,0.08500158830261739
0,-14.251680848861234,-10.607409898591863,-8.337084212370192,-7.530435157634171,0.0900016817321827
0,-14.020427196569903,-12.326003806393775,-13.43636686609001,-10.437875432735577,0.09500177516174801
0,-13.059175213379879,-10.144600708354233,-11.115651361960003,-9.335318498653729,0.10000186859131333
0,-13.147924894760088,-13.70320059984715,-9.934937696431497,-6.972764358313124,0.10500196202087864
0,-6.836676234911667,-1.1918034751702,-2.7942258649129905,3.0997869861537515,0.11000205545044395
0,-2.7254292269696716,-6.680409327728714,-3.3935158620088317,-0.007664466915390078,0.11500214888001281
0,-5.69418386331852,-10.419018150262955,-3.692807681806726,0.3848812809283617,0.12000224230957812
0,5.3170598641097,0.47237006509422574,0.897898681942453,5.037424228060925,0.12500233573914343
0,5.7083019635344785,-0.866244673245607,0.9986032356946399,3.429964372682082,0.13000242916870874
0,6.609542442957334,5.495137643393463,3.5593059859378235,3.232501712695018,0.13500252259827406
0,0.23078130991434775,-0.27348297636060837,1.0500069390308977,-1.464963754316841,0.14000261602783937
0,3.5420185715011643,-1.502106524047155,5.320706101114735,6.757567968991407,0.14500270945740468
0,6.933254234480689,5.9292670086768355,7.951403478021596,13.370096879673483,0.15000280288697
0,1.8344883052608676,3.8906376300140675,2.242099075134119,0.2926229742244041,0.1550028963165353
0,2.315720789850221,7.19200534785056,5.302792897322306,5.505146248454256,0.16000298974610416
0,5.53695169390933,5.553370169586042,4.38348494899247,1.527666697653038,0.16500308317566947
0,-2.151818977194093,4.2447321020654485,-2.9258247658353786,-1.1398156832098052,0.17000317660523478
0,-1.7005912182998708,0.22609115162743676,-2.2051362433588775,-0.47730089932526776,0.1750032700348001
0,-5.239365024244478,-7.192552675685309,-2.934449479736426,-5.944788955865789,0.1800033634643654
0,-10.078140389594765,-10.261199373737682,-9.77376447087049,-9.912279857763071,0.18500345689393072
0,-8.306917308375947,-7.669848935866732,-6.983081212204072,-9.689773609412404,0.19000355032349603
0,3.9643042260714427,4.221498645299997,1.5476003014223148,-5.6472702144290725,0.19500364375306134
0,2.695524220874791,4.242843377580414,1.5482800756316404,-1.7547696756486768,0.20000373718262665
0,0.7967426832091524,1.51418526877482,0.008958116182415876,-0.5722719953577138,0.20500383061219196
0,8.267959620036319,3.8555243264122225,6.069634428744482,4.0402228244066185,0.21000392404176083
0,4.8691750379674295,3.966860557719042,0.640309018788618,7.332714781562968,0.21500401747132614
0,4.280388943131586,2.2381939696079916,3.740981891514645,2.2852038737137623,0.22000411090089145
0,11.551601341098962,4.929524568659419,7.171653051817964,10.337690097980675,0.22500420433045676
0,10.742812236768243,6.880852361089621,10.13232250416764,15.970173450849362,0.23000429776002207
0,11.384021634150576,12.602177352612225,11.782990252357354,16.052653927841178,0.23500439118958738
0,14.485229536192854,16.23349954814978,11.133656299259119,16.685131523135947,0.2400044846191527
0,9.856435944680156,5.284818951539645,6.804320646710091,7.217606229424539,0.245004578048718
0,5.8476408602517465,4.186135565523044,4.894983295598253,10.390078038061828,0.2500046714782833
0,0.988844282615182,-3.9025506079018673,-1.4243557538917602,8.482546939330005,0.2550047649078486
0,-9.229953789031478,-11.991239566949544,-9.02369650189634,-3.27498707733241,0.26000485833741394
0,-9.26875335544696,-9.709931309474499,-7.623038948396286,-2.8725240229961533,0.26500495176697925
0,-17.867554416778503,-17.378625832482015,-19.842383092729804,-15.000063908720884,0.27000504519654456
0,-15.296356972087281,-15.287323131790192,-11.031728933178757,-14.847606744977995,0.27500513862610987
0,-16.725161019026327,-23.256023201759042,-17.861076466681588,-19.075152541122723,0.2800052320556823
0,-11.333966553721526,-13.584726035058733,-7.760425688762712,-11.192701305053046,0.2850053254852476
0,-11.57277357086021,-12.85343162262308,-10.129776593653666,-13.99025304315919,0.2900054189148129
0,-12.391582063858408,-15.33213995382345,-11.749129174481507,-9.397807760469705,0.2950055123443782
0,-16.24039202493001,-16.860851016613715,-12.298483423345928,-11.625365460813905,0.30000560577394353
0,-14.22920344500423,-17.269564797475923,-11.097839331255345,-13.772926146902115,0.30500569920350884
0,-6.9480163136553,-6.388281281365232,-9.047196888096538,-10.59048982030574,0.31000579263307415
0,-8.466830619246931,-12.307000451871616,-11.036556082691677,-7.5180564814492765,0.31500588606263946
0,-2.1956463492231424,-7.3857222914836305,-4.235916902892763,-6.185626129743652,0.3200059794922048
0,-9.334463490353093,-7.194446781756157,-9.595279335699708,-5.773198763797095,0.3250060729217701
0,-2.0232820288369116,-2.1731739034470183,-6.91464336735813,-5.620774381570298,0.3300061663513354
0,-0.8821019503754489,8.028096363207498,0.5859910165727743,0.791647019516091,0.3350062597809007
0,1.0390767596619332,4.149364038049829,0.2266238310296418,-1.0459345575883177,0.340006353210466
0,0.0002541160173030743,-1.5693708593655313,-2.5027449088360223,-5.953519109728603,0.34500644664003133
0,-1.2185698665630882,-1.1381083097727973,-2.2221151877783174,-3.741106633529562,0.35000654006959664
0,3.5126048266550765,3.703151706006409,4.13851300956016,2.7913028746965116,0.35500663349916195
0,2.2837782103449857,0.2944092071129294,-1.2608603014160797,-2.0462905811300707,0.36000672692872726
0,-3.7850497009513564,-3.59433578739549,-0.010235105353278873,-8.773886996960426,0.36500682035829257
0,2.8261211072206907,1.696916741521906,3.430388613040738,-2.2114863684890103,0.3700069137878579
0,-0.05270935068970084,1.0581668129596866,-1.838989131009009,0.530911308993476,0.3750070072174303
0,-5.341541060226687,-3.390585553968836,-3.488368322328292,-3.256693959489619,0.3800071006469956
0,-2.1103740068335934,-4.10934034010088,-4.377748945647973,-5.7543021687126,0.3850071940765609
0,-5.959208175687641,-4.458097526058905,-1.7171309854300594,-5.431913313157391,0.39000728750612623
0,-12.488043551537887,-15.4868570920359,-10.446514425775646,-9.289527386830672,0.39500738093569154
0,-13.006880118447159,-14.465619017476492,-11.965899250267336,-8.637144383102054,0.40000747436525685
0,-7.575717859502961,-10.584383280708936,-6.895285441705144,-7.46476429457834,0.40500756779482217
0,-5.014556756760546,-5.863149858835517,-7.054672981975301,-4.592387113082372,0.4100076612243875
0,-7.90339679143669,-10.071918727921418,-7.554061852140119,-9.680012829726397,0.4150077546539528
0,-5.7822379440731435,-5.720689863191305,-7.093452032535927,-8.65764143493179,0.4200078480835181
0,-6.661080194573614,-11.019463239088745,-11.332843502767842,-10.905272918332026,0.4250079415130834
0,-5.249923522212924,-15.948238829201577,-15.172236241586713,-14.772907268625616,0.4300080349426487
0,1.0512320942873226,-5.3970166060933975,-1.5916302267309188,-3.2105444734628157,0.43500812837221403
0,-2.197613323417481,3.73420345866655,-0.011025435027582464,3.901815480417781,0.44000822180177934
0,6.0335402464752885,10.36542139400779,8.539578157142259,12.784172606648683,0.44500831523134465
0,11.344692825638326,11.626637228628562,10.870180573253835,7.546526918530174,0.45000840866090996
0,4.045844435270708,8.177850990457666,3.960781836192883,2.978878428618557,0.4550085020904753
0,5.836995095889082,4.7090627064959465,6.0013819681058935,3.9112271487629746,0.4600085955200406
0,3.648144827385104,1.490272402975814,3.2319809905126213,6.533573090307168,0.465008688949613
0,11.12929364911302,6.041480105614516,9.172578924416372,7.795916264126793,0.4700087823791783
0,1.5604415798460898,-0.08731416023609495,3.6731757902866713,-0.8817433194390271,0.4750088758087436
0,7.341588637744815,3.843889630468774,5.933771608016793,7.280594349458453,0.48000896923830894
0,3.752734840416988,1.4950915025182834,0.9443663969726477,2.14292928028009,0.48500906266787425
0,8.463880204953933,3.676291480467744,2.3649601761207832,1.135261482135794,0.49000915609743956
0,-0.2249752520827707,-7.412510411319752,-3.6744470358088095,-1.252409036134905,0.49500924952700487
0,-11.69383151450099,-14.011314148409124,-11.303855220073359,-13.810082265715787,0.5000093429565702
0,-11.392688565974579,-9.00011970579739,-8.873264357530335,-13.317758197368114,0.5050094363861355
0,-17.351546389413063,-13.958927057507491,-11.17267442826411,-7.085436820957623,0.5100095298157008
0,-17.57040496649467,-16.147736176408856,-14.302085411379148,-11.91311812527458,0.5150096232452661
0,-7.329264277442284,-6.076547034126367,-5.851497284902713,-10.50080209808826,0.5200097166748314
0,-5.018124301136613,-5.2253596011206325,-4.71091002584174,-4.028488726198688,0.5250098101043967
0,0.21301498446451284,-0.7141738470202906,-2.070323610446512,1.313822004401,0.530009903533962
0,6.304153601828332,4.207010258974774,4.500261985457357,11.166130108093224,0.5350099969635274
0,8.515291573375196,7.658192747706037,13.540846786078532,12.728435599024934,0.5400100903930927
0,11.35642892104443,10.289373649661327,13.941430815126015,18.850738490502827,0.545010183822658
0,15.697565665937944,19.57055299458089,19.74201409525685,19.443038794511438,0.5500102772522233
0,22.558701827976954,24.151730810993403,24.502596647631908,24.545336521346222,0.5550103706817886
0,27.279837425464624,24.402907125678812,30.183178491488924,34.96763167924468,0.560010464111361
0,25.890972474607775,30.484081963215637,24.47375964372043,28.46992427393481,0.5650105575409263
0,19.33210698922336,29.72525534566037,20.744340118677524,17.982214308348276,0.5700106509704916
0,17.17324098080518,27.55642729232325,22.24491992829219,18.36450178282619,0.575010744400057
0,19.584374458807364,25.927597819708517,17.39549908231208,11.486786695629574,0.5800108378296223
0,15.825507430855076,15.008766941681754,20.496077588468633,13.139069043377344,0.5850109312591876
0,12.066639902862681,10.409934669880473,11.006655452624335,7.531348821346748,0.5900110246887529
0,4.287771879265731,1.231101014333809,6.377232679026784,1.6336260237499534,0.5950111181183182
0,-1.3310966365424584,-1.0877340158558868,0.9678092707557058,4.705900644065475,0.6000112115478835
0,0.010034358317553754,-1.166570411942912,3.7183852302184834,0.5881726753308341,0.6050113049774488
0,-10.678835133340286,-7.815408165158875,-7.371039440480906,-9.859557889628029,0.6100113984070141
0,-3.437705108413631,-1.9542472664717623,-2.840464739239137,-0.8572910578864776,0.6150114918365794
0,-9.366575563262932,-3.6130877064593006,-4.209890663686221,-6.945026836139205,0.6200115852661447
0,-11.67544649356259,-7.431929475297274,-11.879317211016778,-6.262765230605906,0.6250116786957101
0,-10.084317894151651,-7.280772562709007,-12.488744377791043,-0.8805062470135475,0.6300117721252754
0,-3.613189758925193,-1.489616957859973,-1.598172159703387,4.821750109305709,0.6350118655548407
0,-4.722062080952116,-0.31846264940863617,-1.3476005516285,4.1140038331043955,0.640011958984406
0,-4.950934852707998,-8.927309625674338,-6.717029547932558,0.046254918918248664,0.6450120524139713
0,-1.8298080662140284,-6.736157874625733,-6.086459142618317,-2.1914966389675383,0.6500121458435366
0,0.23131828686955713,-2.5750073837089253,-3.1758893292314356,1.0407491536483169,0.655012239273109
0,-5.117555784876502,-1.92385813982998,-0.1853201008463468,2.3529922909810472,0.6600123327026743
0,3.543569727298119,0.2572898704624964,4.985248549742866,-0.9547672327899676,0.6650124261322397
0,2.154694832236812,3.388436660767164,3.8858166297172874,-1.7325294235504904,0.670012519561805
0,3.6858195387023356,2.929582244635306,4.9963841459761476,2.769705712811292,0.6750126129913703
0,3.686943855210524,0.3107266354269176,1.9769511050210222,4.4319381703842975,0.6800127064209356
0,-4.011932209996356,-2.328130153682699,-3.1524824869821946,-3.7458320568805465,0.6850127998505009
0,2.779191351167713,2.2330118904215586,2.408083375977681,-4.103604975134603,0.6900128932800662
0,5.900314546717956,1.2841527808523034,3.7486486998658917,4.80861940955261,0.6950129867096315
0,-5.0385626154682335,-4.454707469308838,-5.820786509431597,-6.6491589087501906,0.7000130801391968
0,5.742559872314741,9.696431152982067,6.8597777538959575,2.763060064117643,0.7050131735687621
0,5.573682017622692,8.817568660597143,6.120341495560649,3.8352763223769544,0.7100132669983275
0,9.514803827694081,11.898705065867707,10.100904720933192,12.68748986010956,0.7150133604278928
0,9.015925309169054,9.839840380244237,6.091467434745369,6.369700670882774,0.7200134538574581
0,10.717046467883408,8.39097461417816,9.452029640964067,8.701908747482145,0.7250135472870234
0,20.128167308695197,17.512107777107204,14.80259134272859,12.574114081839495,0.7300136407165887
0,17.659287835196004,16.653239877322527,16.85315254216207,5.166316664999125,0.735013734146154
0,21.69040804936381,31.134370921616235,22.413713240031072,12.34851648709401,0.7400138275757193
0,20.341527951324284,27.645500914768117,19.604273435404657,17.48071353730237,0.7450139210052846
0,20.72264753923634,21.446629859104853,22.904833125414644,12.972907803643977,0.750014014434857
0,23.893766809230666,26.617757754399136,24.485392305122502,13.225099272771823,0.7550141078644224
0,18.794885755356184,17.30888459802392,14.535950967453681,12.727287929964337,0.7600142012939877
0,14.796004369613641,12.490010385191825,17.01650910330452,13.819473759200578,0.765014294723553
0,18.66712264213508,23.96113510925427,18.85706670177573,17.361656743151286,0.7700143881531183
0,10.30824056139112,14.002258761854312,11.407623750314517,11.783836863097482,0.7750144815826836
0,10.399358114381666,12.933381332930246,14.328180234811603,12.926014098906169,0.7800145750122489
0,6.5904752868925085,9.314502810877748,9.258736139772369,6.4981884291531005,0.7850146684418142
0,6.101592063766406,3.5556231828847773,6.239291448523572,5.59035983135629,0.7900147618713795
0,1.932708429129704,0.8567424353068642,0.6798461434785705,1.8425282822629212,0.7950148553009448
0,0.27382436661307447,-3.652139445934356,-4.869599793476434,-5.305306241833716,0.8000149487305102
0,-12.965060140340029,-8.771022474949467,-11.709046380498458,-14.223143764667702,0.8050150421600755
0,-20.373945107940195,-19.089906665428604,-19.458493635217987,-13.820984309427097,0.8100151355896408
0,-18.852830551332474,-14.698792030103172,-18.22794157413837,-13.68882789824337,0.8150152290192061
0,-19.031716484027996,-19.277678580296236,-15.75739021219741,-10.526674551966089,0.8200153224487714
0,-11.840602917739314,-9.616566325747497,-8.94683956268356,-7.044524290223304,0.8250154158783367
0,-15.319489862518436,-13.695455274700928,-16.82628963742757,-10.60237713160445,0.830015509307902
0,-16.318377326934332,-20.604345434031227,-18.115740446918,-13.730233093760104,0.8350156027374673
0,-7.927265318146482,-8.16323680920971,-10.945192000207546,-5.948092193347456,0.8400156961670397
0,-11.726153842009314,-14.832129404274069,-12.90464430487738,-7.895954446028222,0.8450157895966051
0,-9.265042903253818,-8.08102322196822,-6.184097367213982,-8.013819866606935,0.8500158830261704
0,1.5160674943254548,0.14008173602600696,0.5564488074921674,4.288311530798088,0.8550159764557357
0,-3.9428226524068775,-5.458814531237526,-6.983005785414052,0.2804397324834226,0.860016069885301
0,-8.401713346197564,-13.037712024210414,-10.50246115014475,-3.3074352751543805,0.8650161633148663
0,-9.740604589365361,-5.756610742746644,-5.371917290344564,2.8646864942784225,0.8700162567444316
0,-18.61949638348454,-14.005510685866488,-15.331374208883743,-11.303194972737858,0.8750163501739969
0,-17.74838872898468,-19.964411851566457,-16.32083190766458,-11.201079689404445,0.8800164436035622
0,-14.807281624803267,-13.743314236542057,-14.430290387350375,-11.63896766821645,0.8850165370331275
0,-9.386175068299544,-11.352217835979785,-9.929749647189247,-5.6068589206842505,0.8900166304626929
0,-13.755069055434308,-10.601122643651491,-12.66920968509321,-7.624753457368022,0.8950167238922582
0,-8.133963580971589,-11.770028652128392,-9.348670497795032,-3.862651288063134,0.9000168173218235
0,-4.072858638631977,-7.588935852901457,-5.8581320809719415,-1.1905524219769752,0.9050169107513888
0,-5.6517542213130865,-8.587844236467408,-1.9475944294357892,1.8015431320615953,0.9100170041809541
0,-7.090650321300953,-12.07675379241187,-10.587057537368267,-4.476364634608773,0.9150170976105194
0,-12.189546930279487,-12.915664509377597,-10.566521398357997,-5.884275730517992,0.9200171910400847
0,-16.328444039114757,-15.614576374901219,-15.535986005171166,-8.43219016387441,0.92501728446965
0,-18.53734163751098,-21.983489375187233,-21.425451349411077,-15.3601079422744,0.9300173778992153
0,-14.466239713695765,-16.24240349484725,-16.704917421166858,-15.22802907236935,0.9350174713287878
0,-8.845138254341064,-8.291318716785256,-7.744384208848718,-4.285953559611125,0.9400175647583531
0,-5.9440372447888095,-7.6302350224329185,-5.143851699421121,0.14611859163354413,0.9450176581879184
0,0.6270633305488406,2.57084760778048,2.956680121079907,1.7881873776040589,0.9500177516174837
0,-0.3518365122335062,2.9119291939246823,-4.612788732948218,-1.3897472053033704,0.955017845047049
0,1.6692632431335683,0.04300975614084779,2.677741753052689,1.3923148392904565,0.9600179384766143
0,7.600362612866167,2.1340893144334756,5.968271593667473,10.884373507670217,0.9650180319061796
0,11.951461612865751,12.355167888591804,14.678800803241655,12.666428795751088,0.9700181253357449
0,10.462560258363611,12.136245497933338,11.65932939543846,9.148480698660546,0.9750182187653103
0,2.2136585636908994,2.8673221609593615,3.3098573829186453,1.0305292105611703,0.9800183121948756
0,4.124756542379905,2.70839789532756,3.210384777422662,-3.657425675096236,0.9850184056244409
0,3.1358542074347286,4.799472718124731,4.3809115900930635,-3.065383965090816,0.9900184990540062
0,6.046951571478581,4.600546646050396,1.1614378316887992,3.4666543339045632,0.9950185924835715
0,5.288048646727155,6.211619695395455,4.871963512652471,2.9686892153095656,1.0000186859131368
0,11.429145444874205,13.072691881918264,12.632488643063372,6.510720672402142,1.0050187793427021
0,9.790241976916679,11.853763220618948,12.963013232380117,10.19274869806536,1.0100188727722674
0,3.4613382530089933,4.634833725523564,5.003537289129251,1.2547732845951745,1.0150189662018327
0,10.352434282490387,9.415903409699142,6.63406082086307,3.4567944236871284,1.020019059631398
0,4.843530073982917,-1.443027714545804,1.8645838343868242,3.0088121066002413,1.0250191530609634
0,0.964625635464117,-0.36195963539404613,-4.244893663957833,-2.5491736756825194,1.0300192464905358
0,-9.364279025505628,-9.720892341165175,-9.884371667925612,-14.517162932230189,1.035019339920101
0,0.47681609864263996,1.450174180039956,-0.623850170957033,-1.3451556717506985,1.0400194333496664
0,0.7379110157520068,-6.06876005950498,-0.41332916602249653,-2.203151902331888,1.0450195267792317
0,-0.630994266145037,-0.12769504719198632,-0.37280864579010004,-1.2411516315825717,1.050019620208797
0,6.780100260976665,5.443369229802555,7.987711397122823,5.280845133088614,1.0550197136383623
0,6.661194604939502,8.484432784261763,5.83823096989582,5.792838384216229,1.0600198070679276
0,0.8222887731609134,0.5554956285998465,0.18875007928561727,-0.46517188595285913,1.065019900497493
0,-0.596617227361062,3.2665577747558916,3.139268731619476,2.8368143144899234,1.0700199939270583
0,8.38447661009947,3.9476192343054906,6.09978693291347,7.178796977183585,1.0750200873566236
0,6.815570291985363,1.4486800185346462,4.520304688852599,4.950776093435439,1.0800201807861889
0,-1.0733361757169217,-3.5602598615112515,-1.199177995281563,-1.5572483458874873,1.0850202742157542
0,0.8877572125497908,-0.9492003948633944,0.6113388854858185,-1.0952763502463656,1.0900203676453195
0,-0.6311495378523648,-2.4381415704441913,-2.2081446639755646,2.9566920707994253,1.0950204610748848
0,3.059943578387001,3.9429166229718255,5.14237136120606,5.488656907632062,1.1000205545044501
0,-1.9189634334750816,1.1639741966407604,1.5428869658406077,4.060618150404146,1.1050206479340154
0,-1.1578705682315475,-0.17496883828716758,-1.6365978454276189,-3.217424211077112,1.1100207413635808
0,-8.996777820591591,-6.833912470739851,-5.726083068047125,-10.975470187159246,1.115020834793146
0,-11.185685184907383,-12.04285668945112,-7.665568697289727,-10.843519787871172,1.1200209282227114
0,-9.444592654832508,-11.841801482542927,-8.745054727947823,-5.4115730224905985,1.1250210216522838
0,-11.793500223084116,-14.850746837150817,-12.984541154091966,-13.769629899396511,1.130021115081849
0,-13.382407881338262,-14.359692739193822,-13.94402796885128,-13.537690426021292,1.1350212085114144
0,-9.511315620159156,-12.768639173259599,-6.893515164238954,-7.715754608720298,1.1400213019409797
0,-7.020223429001943,-10.847586122600251,-11.893002731148927,-12.413822452722128,1.145021395370545
0,-4.969131296375861,-4.97653356926718,-1.7624906595049583,-3.6818939622361366,1.1500214888001103
0,1.6219607898903745,0.754518505599687,1.9680210614877822,0.6900308593383597,1.1550215822296757
0,3.0630528423198546,8.465570121313943,4.468532442945026,9.351952009011749,1.160021675659241
0,-0.9858551265271234,-0.41337870285441813,-0.19095650408176829,3.173869483687402,1.1650217690888063
0,11.56523689574076,12.02767205200367,9.089554231207224,13.585783279772654,1.1700218625183716
0,14.996328921094456,17.748722404201015,16.260064659178276,21.187693392867363,1.175021955947937
0,12.327420960646984,18.499772371024527,13.340574789365542,11.629599817353958,1.1800220493775022
0,10.678513024323324,9.250821968315693,9.201084630107893,15.301502546114023,1.1850221428070675
0,8.439605120850192,9.641871210450844,9.871594188522767,8.36340157058281,1.1900222362366328
0,3.9406972579440245,7.262920110630672,3.0621034707066337,5.465296880986732,1.1950223296661981
0,7.671789442535078,10.44396868112532,6.40261248197811,7.207188466626913,1.2000224230957635
0,5.92288168091572,10.485016933330296,10.733121227025348,2.3890763161178,1.2050225165253288
0,12.07397397873336,9.466064877711332,9.363629709850274,10.160960417506239,1.210022609954894
0,7.975066340865904,5.897112523785955,8.274137933609481,5.032840758265033,1.2150227033844594
0,10.716158771299552,12.448159880187632,15.87464590051837,10.45471732520795,1.2200227968140318
0,8.117251273088547,1.8692069547255539,3.9851536117868975,-0.3634098955499,1.2250228902435971
0,1.4483438484217328,1.1802537545002705,-0.7543389323060052,-0.7315409184462016,1.2300229836731624
0,-3.0705635011350907,0.7213002861718782,-2.7138317320297576,-11.409675758103612,1.2350230771027277
0,-6.309470774217901,1.582346556208909,-1.2733247877457854,-4.677814428865871,1.240023170532293
0,-16.658377969181274,-11.536607428955142,-13.052818099610759,-14.015956944441536,1.2450232639618584
0,-16.387285083576376,-14.155561662601869,-15.65231166725238,-16.20410331764518,1.2500233573914237
0,-13.046192113696266,-9.444516137232325,-5.321805489359879,-8.87225356014802,1.255023450820989
0,-14.215099054386924,-10.913470844262623,-11.071299563528344,-13.880407682358998,1.2600235442505543
0,-10.364005899107877,-9.092425774028042,-10.70079388636268,-9.408565693487237,1.2650236376801196
0,-1.2329126401216848,5.87861908403679,1.489711546412843,-0.8667276016859379,1.270023731109685
0,1.83818073113155,-0.020336258990321654,-1.0897832602622888,2.195106585634827,1.2750238245392502
0,2.1392742235385676,0.29070820804009034,-1.4192783011407333,5.65693686132302,1.2800239179688155
0,5.2403678459273655,3.17175249616417,2.641226429112101,6.228763218048392,1.2850240113983808
0,3.691461606861169,0.8927966162894592,1.4317309358278616,3.320585648054648,1.2900241048279462
0,1.9425555145458473,-1.7861594208102498,2.6122352242314917,1.3324041431173188,1.2950241982575115
0,4.583649576837081,1.2248843955634352,1.1427392993695555,-0.4357813053248991,1.3000242916870768
0,-0.6752561987094761,-0.5040719238939053,0.6632431661103997,-5.5539707059564005,1.305024385116642
0,4.2658381952150215,6.236971631481039,6.013746829155609,-3.48216406734221,1.3100244785462145
0,1.8569327657048462,3.4680150721780896,2.0242502929796986,-7.120361397713209,1.3150245719757798
0,5.44802751960973,4.43905840835253,2.924753561747786,-1.3985627048538327,1.3200246654053451
0,-2.6308775365064365,-2.5398983502085932,-2.764743360653916,-8.92676799608124,1.3250247588349104
0,-2.099782396271653,-3.918855193916829,0.985759529528879,-5.154977278217889,1.3300248522644758
0,-2.378687053296632,1.872187886863561,1.7362622360339415,-2.5731905575417735,1.335024945694041
0,0.2224084989718167,5.38323090186808,2.8867647625526867,1.9085921601344111,1.3400250391236064
0,3.8535042672119424,6.324273860705173,4.397267112607991,9.550370869167116,1.3450251325531717
0,7.5046002580255875,11.595316772540384,11.46776928939327,11.622145563633788,1.350025225982737
0,8.405696477648656,9.40635964582584,9.428271295523125,13.153916236869417,1.3550253194123023
0,12.936792931664677,9.117402488118968,15.418773132745008,13.465682881137838,1.3600254128418676
0,4.5978896247997705,3.698445306068025,4.7492748017521045,7.567445487506748,1.365025506271433
0,10.708986560881105,8.279488105548289,9.289776302202256,13.269204045896215,1.3700255997009982
0,7.250083742896103,5.010530891788255,6.85027763287916,6.580958545178746,1.3750256931305636
0,8.481181173022438,7.501573669401051,7.710778791803909,4.732708973286742,1.3800257865601289
0,8.742278852623986,8.522616442357672,9.6812797762454,0.1344553174267434,1.3850258799896942
0,10.563376782236597,5.233659213943643,7.281780582687976,3.626197564366232,1.3900259734192595
0,11.234474961500121,5.5647019867583065,10.082281206792745,8.657935700571295,1.3950260668488248
0,13.245573389049065,4.14574476279612,10.192781643366024,6.879669712090905,1.40002616027839
0,10.676672062410725,9.2567875435116,7.773281886313496,-0.7786004155941999,1.4050262537079625
0,-1.1622290219633704,-2.2121696701717837,-0.6562180713072949,-7.186874697424893,1.4100263471375278
0,1.8688701316153986,-0.0011268777493511385,-4.145718236990069,-6.015153148322139,1.4150264405670931
0,3.9199695184671937,-0.02008407888630451,0.8747813816389297,-3.533435782799244,1.4200265339966585
0,2.9810691336938664,3.330958726730034,6.735280777011829,1.0282773851094396,1.4250266274262238
0,-0.027831027856648594,-2.1779984606413785,-3.3342200585101747,-3.390013658314961,1.430026720855789
0,-0.5667309715483916,-2.1969556407962596,-5.003721132696569,-4.148308926598776,1.4350268142853544
0,1.9543692971614106,5.644087186487357,0.23677754675614504,-7.886608432999159,1.4400269077149197
0,1.4454697727625072,3.945130021382902,2.2372759723549533,6.195087809609344,1.445027001144485
0,-2.0134295503360797,-1.3938271361630834,-2.562225863298054,1.4567797886018738,1.4500270945740503
0,4.707671322198422,4.547215713533966,5.168272032372549,4.438467491281966,1.4550271880036156
0,-4.821227615360924,0.37825856996605667,0.6387696518500019,3.250150904669938,1.460027281433181
0,-2.4801263687385497,5.049301432428981,0.16926698746162622,3.80183001544751,1.4650273748627463
0,1.7609750564627704,2.170344299966531,4.469764031369358,-3.516495190009528,1.4700274682923116
0,-0.24792334522077963,-3.028612828633545,-1.3397392244183113,-4.264824725459711,1.4750275617218769
0,-6.226821579184314,-9.247569954657777,-8.629242787979797,-11.413158604471475,1.4800276551514422
0,-3.8457196506664513,-6.606527079100424,-6.1987466672055165,-11.051496840050246,1.4850277485810075
0,-8.684617564535614,-5.74548420236138,-7.96825086946701,-15.579839444294556,1.4900278420105728
0,-6.873515325114411,-14.7744413241258,-8.887755401442348,-13.388186428135228,1.4950279354401381
0,-5.1524129360772415,-8.743398443238544,-6.517260269058732,-10.286537801206423,1.5000280288697105
0,-6.631310400446801,-5.512355557578459,-4.10676547750286,-9.02489357190112,1.5050281222992759
0,-7.400207720631377,-7.781312664128486,-9.526271031301865,-13.293253747514948,1.5100282157288412
0,-13.499104898366209,-11.720269759106547,-11.485776934316691,-10.741618334292234,1.5150283091584065
0,-10.208001934533428,-4.4792268379461495,-8.455283189590167,-12.459987337372825,1.5200284025879718
0,-1.776898829041668,4.18181610465407,-2.2947897992687243,-2.3683607608070334,1.525028496017537
0,1.3642044189816882,2.3828590743755305,-3.6842967647730838,-6.586738607750065,1.5300285894471024
0,-5.7146921891919655,-4.906097923101033,-6.303804087037431,-9.16512088068537,1.5350286828766677
0,-4.873588652069047,-3.2250548821169907,-4.2533117665735745,0.30649241849900155,1.540028776306233
0,-6.752484967808244,-1.404011796831314,-7.942819803407511,-5.751898711547804,1.5450288697357983
0,-1.571381134086429,4.037031338829679,1.9776718029462685,-2.2702942717707506,1.5500289631653636
0,5.149722851827937,5.898074530965012,1.42816305335021,5.231305737167222,1.555029056594929
0,-2.6491730071928794,-1.8408822145524113,-3.5813460512001627,-2.2170986852898626,1.5600291500244943
0,-2.2780687083060394,-5.20983889207811,-3.250855509654361,-4.975507539714096,1.5650292434540596
0,6.353035751328376,8.511204504006267,8.059634679152737,2.446079173395786,1.570029336883625
0,6.444140374473628,6.7222479792702625,2.360124516372278,-0.9223385463086811,1.5750294303131902
0,0.4452451635722592,-0.3467084610511326,-0.4593859970918951,-1.3407606991002194,1.5800295237427555
0,1.47635012067067,-3.0956648121167682,1.0411031394049723,-4.959187285184539,1.5850296171723208
0,4.007455247543187,-5.854621069177168,0.7415919263894102,-0.9676183045836653,1.5900297106018861
0,-1.0414394542307854,-4.723577227230931,-2.7779196356550937,-3.3060537570569055,1.5950298040314586
0,-5.600333983197783,-7.252533280826258,-6.897431546185089,-9.494493642060702,1.6000298974610239
0,-9.389228337779134,-0.7414892239961468,-1.2969438044042998,-7.842937958598116,1.6050299908905892
0,-3.008122515944184,2.049554949647634,-1.6564564091589493,4.768613294922862,1.6100300843201545
0,1.192983484889933,4.750599246646714,0.32403064097451745,0.1901601205148571,1.6150301777497198
0,1.2440896676421793,7.011643673371964,3.904517347522164,3.851702520237061,1.620030271179285
0,6.505196035247797,6.6026882357642,5.115003711920734,4.023240495955242,1.6250303646088504
0,-0.5836974095686407,-3.3962670607600622,-0.1645102646572213,3.184774049242789,1.6300304580384157
0,-2.982590664324782,-1.205222211135227,-0.10402458131881558,2.8163031813373878,1.635030551467981
0,-0.8414837266063698,1.3758227896459236,-0.13353923730972278,1.597827893160093,1.6400306448975464
0,-1.2403765938864324,-4.003132053331973,-6.90305423185382,-4.6906518145834015,1.6450307383271117
0,1.3007307364905667,3.777913265089895,-2.2425695639844867,-2.5691359412034895,1.650030831756677
0,2.9618382672140773,6.318958750060104,3.7879147675521696,-1.247624485825599,1.6550309251862423
0,1.7829460008797802,-0.5699955934723215,-4.801601235802779,2.9038825526363823,1.6600310186158076
0,7.304053939861594,2.171050239144012,5.308882427436255,8.205385175284102,1.665031112045373
0,5.135162086179995,1.8220962523403952,5.129365758689609,3.4568833829389756,1.6700312054749382
0,-1.6037295585882478,2.243142450386311,-2.0601512408342018,-2.301622824011303,1.6750312989045035
0,-1.8826209931921039,-4.725811162590675,-4.259668570137791,-4.230133445440478,1.6800313923340688
0,-2.1015122164333873,-0.41476458248484543,-1.3091862281941087,-5.098648481138872,1.6850314857636413
0,-8.090403226935988,-2.6837178050572383,-5.698704213735553,-5.737167930547882,1.6900315791932066
0,-9.499294022937313,-3.7326708258640835,-8.498222525139779,-4.795691792636298,1.6950316726227719
0,-3.6881846020625235,-3.0916236402151096,-4.777741160281582,-5.184220065865751,1.7000317660523372
0,-5.817074961254854,-5.460576243107209,-5.997260116426299,-8.012752748176666,1.7050318594819025
0,-4.775965096871142,-5.2295286291523215,1.1832206097159124,-2.931289836955276,1.7100319529114678
0,-3.544855004770784,-4.618480792509485,-0.756298978202766,2.6001686709156995,1.7150320463410331
0,-1.9137446803761242,-0.10743272688172381,0.6541811236174384,13.721622778740473,1.7200321397705984
0,-4.362634118755263,-9.046384425585032,-2.2753390809919027,-1.3969275104770533,1.7250322332001637
0,1.8484766853036503,-3.9453358815429462,-1.2248595881484459,5.024517805723648,1.730032326629729
0,-0.23041226280294383,-6.914287087179616,-5.394380393834564,-3.394041270597558,1.7350324200592944
0,-2.459300957608366,-4.333238034359254,-7.6639014937599965,-12.292604737456468,1.7400325134888597
0,-7.028189393552892,-3.5521887144153563,-7.613422883159539,-11.151172592491287,1.745032606918425
0,-13.297077564740455,-10.39113911818088,-13.872944556579867,-14.989744832476495,1.7500327003479903
0,-8.65596546458056,-11.240089235889865,-11.732466507660703,-14.638321453004995,1.7550327937775556
0,-9.324853085543294,-13.589039056927735,-10.221988728954644,-9.306902448362607,1.760032887207121
0,-13.373740419107488,-17.467988569556958,-11.52151121188307,-15.675487811545546,1.7650329806366862
0,-9.112627455738576,-8.19693776073172,-12.651033946766049,-7.774077534333053,1.7700330740662515
0,-4.791514184882141,0.05411338383080877,-2.420556922859257,-3.072671607408066,1.7750331674958169
0,-4.220400595126715,0.7351648792149834,-3.710080128532485,3.7187299793210062,1.7800332609253893
0,-1.2292866744717756,2.826216740774207,-1.76960355158687,-3.469872763726677,1.7850333543549546
0,-0.13817241055959306,2.327268983800516,3.070872820471455,0.5215201739358192,1.79003344778452
0,6.842942209105932,6.328321623369293,7.601349000185105,-0.2870911971609361,1.7950335412140852
0,4.724057196885949,8.869374674189517,1.2418249998581752,1.1342931335568134,1.8000336346436505
0,2.8051725647709906,10.590428150384742,5.132300831391356,0.05567317665371885,1.8050337280732158
0,0.5862883243407677,-0.7585179346672437,-3.2472234936696176,0.30704894265344396,1.8100338215027811
0,-1.3125955130901745,3.0025364317704257,0.043252036036413144,3.388420442023592,1.8150339149323464
0,0.028521063705751526,2.2135912620634746,-1.6962725681339232,3.5797876851084727,1.8200340083619118
0,3.309638065951719,5.824646568332951,4.274202705236556,6.841150681991322,1.825034101791477
0,2.750755504801549,2.7357023623917978,3.824677867519689,8.292509442323487,1.8300341952210424
0,4.931873391198522,5.866758655665923,0.23515292987626085,4.623863975168822,1.8350342886506077
0,3.962991735759881,5.907815459146882,-0.234372096769407,0.7252142889823037,1.840034382080173
0,-3.275889451241229,-1.3511272166256911,-1.4038972016070432,-1.8034396082002058,1.8450344755097383
0,1.9052298402557546,4.759930638516589,2.0865776261743214,1.0079022915057072,1.8500345689393036
0,-0.15365037974141285,2.200989034482172,3.6770523973685565,-3.2407600040006965,1.855034662368869
0,-4.502530101208054,-2.247952019037025,-3.4624728773396782,-4.789426486708985,1.8600347557984342
0,-4.511409314002423,-7.116892512439191,-3.9819981873334322,-6.778097148346333,1.8650348492279996
0,-4.500288007689588,-5.865832435913882,-4.21152352184998,-4.856771980197414,1.8700349426575649
0,-4.059166171424743,-0.4447717792038872,-4.60104886978736,1.3745490269470935,1.8750350360871373
0,-0.03804379396233565,1.5962894683504683,-2.8905742196431885,2.875865882616773,1.8800351295167026
0,3.4530791362085007,5.787351317536974,3.8099004404277412,3.1571785963617103,1.885035222946268
0,-1.5157973693486824,2.02841377897871,1.1803751224134515,-1.441512822445349,1.8900353163758332
0,5.175326700834623,4.839476862971991,4.890849838203108,4.3397916353834844,1.8950354098053985
0,9.326451358015625,8.860540579416742,6.35132459940981,7.921091978840172,1.9000355032349638
0,2.897576613033477,2.101604937723018,3.1417994172416654,6.792388216540154,1.9050355966645292
0,0.20870247619795856,8.002669946746833,2.802274302455518,4.163680356521639,1.9100356900940945
0,5.229828957417931,5.623735614793334,5.122749265409814,4.604968406226028,1.9150357835236598
0,3.840956066316135,7.224801949589177,4.6432243160914695,3.216252372597185,1.920035876953225
0,-0.9979161877861201,-3.2841310417080485,0.3836994640982543,-0.7924677378057696,1.9250359703827904
0,-5.43678779577808,-6.79306335226907,-3.1758252812736694,-4.671191918630135,1.9300360638123557
0,-6.6056587484662925,-6.361994975150451,-12.805349910731358,-4.1199201634623925,1.935036157241921
0,-11.294529036227814,-9.83092590291,-7.624874414544762,-12.728652465540744,1.9400362506714863
0,-16.043398648687507,-9.499856127390547,-12.404398782180081,-19.07738881740815,1.9450363441010516
0,-16.79226757437005,-13.068785639568423,-12.70392300211479,-12.306129210474323,1.950036437530617
0,-8.2811358004401,-5.007714429446286,-10.893447061733294,-12.47487363474171,1.9550365309601823
0,-5.760003312752678,-3.506642486114706,-5.112970947311278,-2.0836220789041953,1.9600366243897476
0,-8.008870096164332,-6.915569797977754,-4.722494644188554,-2.522374530718306,1.9650367178193129
0,-4.387736134795542,-2.264496352927851,-5.432018137026658,-5.091130977393494,1.9700368112488853
0,-2.766601412160754,-2.9234221384159276,-4.931541409962605,1.0601085941974842,1.9750369046784506
0,-1.915465911303608,-3.382347141528535,-0.4510644466656485,0.35134419741381895,1.980036998108016
0,0.03567038503404085,-1.8212713490548211,-0.510587230449284,4.752575845677768,1.9850370915375812
0,2.2168074942611655,1.8498052524576596,7.3198902555101615,-0.3261964477097673,1.9900371849671465
0,-0.5220545662026823,1.3308826765748991,-2.8496319720654197,-2.114972669615465,1.9950372783967119
0,0.8590842210001175,6.221960936790091,2.8708461033466084,4.236247193013431,2.000037371826277
0,9.46022387311228,8.98304004630747,7.341324498082686,8.727463153129754,2.0050374652558425
0,-1.0386355928783844,-4.4958799821308935,-0.18819677177875316,-1.8313247766161824,2.010037558685408
0,2.562505839661617,-0.8847991361559613,4.882282309495967,2.909883416043437,2.015037652114973
0,6.973648187062924,7.436282596485247,4.652761757302643,8.73108774308141,2.0200377455445384
0,-1.2652085346308666,-3.6326347720261283,0.4232415867032282,0.42228821614005874,2.0250378389741037
0,11.175935690275203,9.258448770300404,7.663721812415048,9.733484846413823,2.030037932403669
0,2.037080877052442,3.9895332351625403,1.2042024488030971,0.8146776446094304,2.0350380258332343
0,-3.8817729594733916,0.0006186338659018298,-1.535316490106641,-1.3341333789973817,2.0400381192627997
0,-4.30062580469592,-5.358295022600564,-3.844834990460062,-8.522948214315889,2.045038212692365
0,-5.649477643844013,-3.377207723250071,-4.884353038299602,-7.7717668510303115,2.0500383061219303
0,3.261671538209306,5.303880543125234,1.8461293806098849,2.2694107216889186,2.0550383995514956
0,5.392821756814795,5.5649697878241255,5.306612280708462,1.5205845151063841,2.060038492981068
0,13.143973027155388,13.406060021849337,11.7270956763106,4.721754540579605,2.0650385864106333
0,10.56512536378723,11.237151255496885,9.25757958117831,7.432920809242008,2.0700386798401986
0,8.386278780328094,13.138243498051658,12.688064008204126,8.67408333176981,2.075038773269764
0,0.3274332894495514,3.779336757684577,2.878548969296114,-1.7547578817569423,2.0800388666993292
0,7.298588903127598,10.390431041576424,8.949034475478484,4.826397178228877,2.0850389601288946
0,4.809745632851161,9.9315263560677,3.199520537067537,2.6175485209679707,2.09003905355846
0,12.380903489590413,6.462622706666415,9.680007163768169,13.498696155368917,2.095039146988025
0,9.802062483598382,4.563720098056405,8.930494364643245,5.909840089773209,2.1000392404175905
0,12.273222624202468,2.574818534253569,3.1209821480324718,4.880980331762574,2.105039333847156
0,6.554383919701049,2.5059180188113674,5.321470521586157,4.362116888212507,2.110039427276721
0,0.28554637746931755,-2.322981445008317,0.9919594924290147,3.4232497654674328,2.1150395207062864
0,-1.3332899957143813,3.2981201459111262,-2.017550932651784,0.004378969473661454,2.1200396141358517
0,-8.812125193230873,-5.920777205350065,-10.827060746938516,-6.374495494044052,2.125039707565417
0,-9.590959208185117,-11.669673495575548,-9.746569943373117,-10.53337361925243,2.1300398009949824
0,-2.6197920330807745,-1.9285687211027698,-2.896078514204053,-0.37225539984721423,2.1350398944245477
0,-2.5686236597686762,-2.9074628776543068,0.17441354902157835,-5.3611408289420295,2.140039987854113
0,-2.9274540796366257,-8.826355960437459,-2.1750937448249283,-5.090029899180774,2.1450400812836783
0,-1.9762832837728894,-6.655247964179791,1.1253996132972657,-4.728922602785202,2.1500401747132436
0,-1.3951112630234517,-2.4241388830272195,3.275893632473818,-3.5578189315215374,2.155040268142816
0,0.626061991954339,-3.843028710567383,0.3163883217205433,-2.2867188767261215,2.1600403615723813
0,-4.922763509364677,-5.871917439954263,-3.6231163100670716,0.08437757059600048,2.1650404550019466
0,4.1284122426123915,-2.340805063944512,1.7773797459856404,-4.964529580332957,2.170040548431512
0,2.849589257532891,-3.999691574890953,0.8478764988104728,-5.073440320064954,2.1750406418610773
0,2.7307675449239297,0.06142303520286696,3.008373957320641,1.5576453611553263,2.1800407352906426
0,1.1419471140644428,6.552538774530697,3.9288721302808174,-0.3512725266465146,2.185040828720208
0,6.113127973974031,5.8936556512002545,4.479371026190461,-2.6601939733238362,2.190040922149773
0,2.734310133380892,4.81477367293007,2.809870653201803,-2.5691189686434006,2.1950410155793385
0,5.835493600643938,1.5858928469363922,0.6903710191164987,1.3219524977789723,2.200041109008904
0,13.376678383642588,10.867013179971405,9.710872131424063,4.743020436426571,2.205041202438469
0,10.357864489550455,6.208134678273758,5.6113739972237475,7.844084857650672,2.2100412958680344
0,4.579051924613525,-0.400742652531282,1.011876623081558,-2.9748542285610218,2.2150413892975997
0,-0.14975930577204766,1.560381192680345,-2.347619984890522,-1.173796812550426,2.220041482727165
0,-10.318569196645033,-2.278493781193771,-8.167115820708101,-9.222742884686804,2.2250415761567304
0,-11.537377742891666,-7.747367569238684,-10.106610878097694,-9.291692434990148,2.2300416695862957
0,-8.556184938712317,-6.78624016626162,-8.41610515014127,-8.680645452817991,2.235041763015861
0,-6.714990777384473,-4.585111566547628,-2.2955986291174337,-6.52960192670533,2.2400418564454263
0,-4.96379525133557,-4.543981763792267,-5.315091306614539,-2.368561844414315,2.2450419498749916
0,-0.11259835234753321,1.5671492487903498,1.8654168262478397,0.7524748068525476,2.250042043304564
0,4.598599928168879,1.0882814782598371,2.925925778588344,-0.9664919598215286,2.2550421367341293
0,0.329799598855889,-3.7305850682463184,-2.4535644404559407,-0.4054621312571661,2.2600422301636947
0,-0.27899933178658326,-3.499450383528887,-1.9730538217950537,3.2155643057466454,2.26504232359326
0,0.2022031446235193,2.601685539781039,1.5674576437054508,-1.0334126356475095,2.2700424170228253
0,0.9434070364328491,2.7728227091841156,1.9679699652441713,-3.7823929423301514,2.2750425104523906
0,-10.29538764797629,-3.4860388678523697,-2.601516848006428,-6.091376601101309,2.280042603881956
0,0.9058190999873805,1.4251008160717729,-0.841002786903965,-3.7203635984454064,2.285042697311521
0,3.0070272892251557,5.506241768332464,6.56951215771234,-3.2593539204163635,2.2900427907410865
0,-1.4317630712132006,1.6573839961773247,-1.0099720050680094,-3.7083475526584957,2.295042884170652
0,0.6394480276833947,-3.3414724933805173,-1.6694552663255022,3.1726555195017374,2.300042977600217
0,3.880660594860548,3.0996723065310903,3.1710623827641227,8.503655310845991,2.3050430710297825
0,1.4218746391533845,0.34081840275507935,0.24158095099070553,0.384651835941094,2.3100431644593478
0,3.7030901691916385,0.7719658020793472,1.4621004470610346,-2.184354891007569,2.315043257888913
0,5.564307193331092,14.663114511116149,5.752620879535507,6.906635143975619,2.3200433513184784
0,-4.544474280374205,1.6442645360553083,-7.196857743201304,-2.392378045267905,2.3250434447480437
0,-8.113254244012532,1.555415882480559,-5.886335412799737,-9.991394444979873,2.330043538177609
0,-7.442032689420907,-9.153431444428398,-9.81581212059431,-11.950414041152838,2.3350436316071743
0,-2.740809607865325,-5.732277439419976,-1.9852878573121333,-1.8294368190962498,2.3400437250367396
0,-4.319584990021445,-2.401122096801968,-3.294762613066423,2.0115372366071953,2.345043818466312
0,-0.40835882612752167,-1.8099654103899327,1.9057636224453463,4.2225081417185315,2.3500439118958774
0,-1.6171311061308562,0.7911926263227854,1.8662908596961811,-0.42652408805702524,2.3550440053254427
0,-0.8659018197980366,5.162352019951887,2.0968191091241,0.8644405627981306,2.360044098755008
0,0.2853290432191128,-0.7364872229784937,2.297348381007313,2.275402109667687,2.3650441921845733
0,4.806561493306022,5.494674903843289,3.3078786854145257,0.8563605678278388,2.3700442856141386
0,6.317795540713072,1.3458384064835305,1.4684100321781501,3.3973159524110725,2.375044379043704
0,-2.790968804623474,-2.8629967092212727,0.6289424309017679,-0.6917317216200423,2.3800444724732692
0,1.1102684669445904,0.8981695624512789,5.329475890992997,4.699217560526281,2.3850445659028345
0,-2.0484926350298602,3.269337227220108,2.99001042163253,4.9801638134343875,2.3900446593324
0,2.5127478990280143,0.5305062907500852,2.2605460316956942,-1.7888929485971052,2.395044752761965
0,1.1039900786913694,6.221676758531354,3.6310827297374884,6.892047288439511,2.4000448461915305
0,2.785233913440723,1.7628486357874162,6.301620523998616,-5.157015461668456,2.405044939621096
0,-0.4135205873986479,4.1440219274133465,2.5321594223451087,-1.9260811852353048,2.410045033050661
0,-4.862273414604719,-4.914803361985744,-4.367300567724831,-7.72514986845017,2.4150451264802264
0,5.558975441069188,8.39637277203165,8.433240561073864,4.975778502810286,2.4200452199097917
0,-0.0797740110944744,1.7075503337598767,0.003782815881271273,1.0067039429019766,2.425045313339357
0,6.121478238069121,5.508729327206065,2.1243262036061914,3.60762646615275,2.4300454067689223
0,-2.607267802510597,-4.950090243963462,-1.7851292690617706,-2.3114539132944047,2.4350455001984876
0,0.9339878758977973,-1.558908376246571,-1.3945835955100425,-2.7005371814100805,2.44004559362806
0,-11.764754717979493,-12.717725065989264,-13.534036768996012,-15.429623324015118,2.4450456870576254
0,-9.69349557507789,-8.736540309030929,-8.113488782317358,-10.068712326359947,2.4500457804871907
0,-3.3322346856532277,-8.075354100415995,-7.0029396274917115,-9.967804172746007,2.455045873916756
0,3.6990279607310517,-5.23416643432242,-2.71238929571567,7.683101153481596,2.4600459673463213
0,-1.4097076251397658,-7.952977304166813,-6.891837777541685,-7.345996330461836,2.4650460607758866
0,3.3215585675389923,-3.9717867027070546,0.528714936961442,-1.465096607149212,2.470046154205452
0,7.432826549427382,5.019405377832235,2.659268858056255,0.3358003410213606,2.4750462476350172
0,2.594096330878031,5.600598945440873,0.3998239961023785,2.7866945318128145,2.4800463410645825
0,4.065367921813479,9.691794007874908,0.9403803613771098,2.12758598297528,2.485046434494148
0,5.966641331723867,7.172990572308231,3.680937964028977,1.0284747120996935,2.490046527923713
0,-0.7920834302975057,3.334188645198629,1.491496814048145,1.5493607365949367,2.4950466213532785
0,7.5891936444822985,8.625388232338292,5.452056921195488,3.280244073705881,2.500046714782844
0,10.970472564404552,6.646589338913101,12.132618294874886,7.21112474045903,2.505046808212409
0,12.591753337171266,15.537791969412801,10.55318094387258,3.9920027535169487,2.5100469016419744
0,-2.196964030388234,-2.661003872508475,-3.9862551238424935,-4.9171218708776525,2.5150469950715397
0,-4.105679532140775,-0.4697981839104892,-2.725689900902241,-4.706249116674655,2.520047088501105
0,-4.884393162115494,-8.948590962108979,-4.695123380028703,-4.545378967643751,2.5250471819306703
0,-14.393104914008969,-9.33738220415751,-13.094555553616766,-11.914511407104055,2.5300472753602428
0,-6.571814780835163,-4.936171906497696,-7.363986413437115,-6.243646417735453,2.535047368789808
0,-3.1805227547586763,-3.5649600648673845,-1.5334159504613178,-6.48278398145237,2.5400474622193734
0,-7.489228827201194,-16.643746674353956,-9.052844154952005,-1.8719240794536578,2.5450475556489387
0,-7.93793298898983,-14.202531729246001,-10.382271016573407,-9.171066692375463,2.550047649078504
0,-3.2766352303469652,-8.251315222710916,-3.3516965243031795,3.029788199615179,2.5550477425080693
0,1.8746644590643555,-0.3200971467674959,2.2388793335573083,0.7706406166929536,2.5600478359376346
0,7.445966089849731,3.971122507297517,5.849456569046872,6.381490579098999,2.5650479293672
0,-0.4927303275050138,3.5223437483787423,6.170035194088848,3.582338106850769,2.5700480227967653
0,-1.4014247827906896,-0.6964334147980971,-0.9193847797881355,-4.256816780365547,2.5750481162263306
0,-0.440117265935682,4.434791026259253,5.481196658554004,5.804025936913543,2.580048209655896
0,1.9311922331476943,1.23601707984313,1.7617795199563537,4.434866278012768,2.585048303085461
0,1.2125037245465353,6.367244754010657,2.6923638149850175,5.385704261985432,2.5900483965150265
0,6.123817218229477,4.7684740564854815,5.582949553913804,1.726539907466159,2.595048489944592
0,9.875132723867655,7.669704994539295,3.3835367466868327,3.4873732326859948,2.600048583374157
0,9.806450250566355,12.650937574842896,11.434125402814638,5.068204255539122,2.6050486768037224
0,9.417769806617805,9.982171803263336,9.954715531193097,9.459032993536526,2.6100487702332877
0,2.259091399435652,1.2434076847389148,-0.024692860057943605,8.889859463623957,2.615048863662853
0,5.290415035702606,4.4646452234313285,-3.754099763458248,4.41068368201383,2.6200489570924184
0,7.9817407215529155,9.425884422970288,7.436494828207999,9.121505664169415,2.625049050521991
0,9.673068462561295,4.547125286474373,7.537090922006161,3.5023254248756848,2.630049143951556
0,11.474398263564254,5.948367816454627,9.297688524581831,9.713142978278178,2.6350492373811214
0,8.525730128485671,9.639612014795677,8.098287641870707,10.173958337847182,2.6400493308106867
0,0.7370640603343341,4.840857882732431,0.45888827904109664,1.3047715163019133,2.645049424240252
0,-1.0715999385416024,2.9921054208390685,-1.3805095593111323,-0.6044174742964656,2.6500495176698173
0,1.0397381339208716,3.7733546291463353,1.840094131163269,-0.9036086222210791,2.6550496110993826
0,0.06107827972832059,0.10460550730629654,5.510699354723999,1.3571980841974667,2.660049704528948
0,-2.1575794991170545,-0.7041419452672649,-0.5986938845352933,1.4580026566259292,2.6650497979585133
0,-5.116235200550483,-6.342887729218598,-2.64808558272859,-3.391194893307391,2.6700498913880786
0,-5.344888822279453,-2.511631845022319,-4.617475736000603,-0.5703945539688492,2.675049984817644
0,-7.663540361594814,-5.78037429280819,-3.566864340283375,-8.409596313580234,2.680050078247209
0,-1.8221898152579634,0.25088492768356263,-2.696251391170611,-4.858800160033474,2.6850501716767745
0,8.36916282040588,16.872145816914955,11.764363115998457,4.861993919209079,2.69005026510634
0,5.0605175491218395,4.713408375055238,1.5049791858014154,-1.6372140630371588,2.695050358535905
0,10.71187437421138,3.4946726015503304,7.535596822392008,4.633575906046982,2.7000504519654704
0,6.733233298317651,3.7959384951534774,6.8762160293722445,5.1543638391067725,2.7050505453950358
0,6.204594323315275,4.837206054150925,0.4368368097919827,7.80514974845609,2.710050638824601
0,1.0959574503851712,-0.8915247235362029,-3.422540833734046,-1.9840663540604493,2.7150507322541664
0,-1.6426773197657534,-3.7702538402322205,-5.571916898702415,-0.793284456984252,2.720050825683739
0,-1.0413099866156585,1.681018701711736,-4.15129138237595,2.8874954509964077,2.725050919113304
0,-4.849940549592583,-4.447707099939471,-2.7406642816154947,-0.15172661884665062,2.7300510125428694
0,-2.548569007918976,-2.8964312472591556,-6.2700355928697045,2.4190493446735672,2.7350511059724347
0,-7.327195360498739,-11.075153742038044,-7.219405312154797,-4.370176647348414,2.740051199402
0,-4.43581960581267,-10.673874585528434,-5.6587734349554015,-5.299404583781558,2.7450512928315653
0,-6.044441741837517,-13.082593778140854,-9.398139956128649,-9.46863445320618,2.7500513862611307
0,-7.41306176600137,-5.401311319257176,-8.16750486983182,-4.46786624366004,2.755051479690696
0,-1.9116796751669458,-0.6800272073181532,-3.266868169478656,-3.5570999425486467,2.7600515731202613
0,-10.730295465640346,-9.25874144011083,-13.92622984775726,-8.316335536714245,2.7650516665498266
0,-2.148909133165982,0.4425459850364102,-0.6855898966366882,0.4944269874966931,2.770051759979392
0,2.112479327035278,3.1438350711531142,-1.2249483074232845,-3.694812355833922,2.775051853408957
0,-2.11613007994514,-5.474874178561047,-4.334305070983835,-1.1140535523216442,2.7800519468385225
0,-5.58473734888951,-8.623581760789845,-7.2636601778892445,-7.823296587333571,2.785052040268088
0,-2.033342474392845,-4.932287671856282,-3.0530136183214838,3.7874585540583388,2.790052133697653
0,-6.9919454507150975,-9.12099190747843,-8.532365381959467,0.2682118870236243,2.7950522271272185
0,-5.300546271691479,-8.189694462678837,-7.8217154579104,-5.1310365731845575,2.8000523205567838
0,-9.119144930632185,-10.758395331709561,-10.061063834600922,-3.6002868112202866,2.805052413986349
0,-7.987741420201802,-5.007094507978672,-4.160410499674482,-6.779538811451499,2.8100525074159144
0,-11.526335732294896,-10.06579198406321,-12.779755439984815,-1.8587925578139817,2.815052600845487
0,-6.594927857939225,-5.124487751768969,0.26090135836721196,0.37195196616494464,2.820052694275052
0,-5.413517787297245,-3.25318180220219,-5.1784400900637895,-5.097305222763923,2.8250527877046174
0,-6.892105509788491,-5.401874125894124,-4.797779770241214,-2.686564107637411,2.8300528811341827
0,-6.920691014193064,-9.910564712879264,-5.897117666715216,-4.795824671208699,2.835052974563748
0,-4.319274288673047,-4.149253552617727,-2.2064537635782404,-5.185086895862755,2.8400530679933134
0,-14.517855320743147,-13.907940633870467,-12.315788044431338,-7.314350763542116,2.8450531614228787
0,-8.866434097141987,-10.47662594457025,-9.165120492266418,-8.323616255637955,2.850053254852444
0,-2.605010603699424,2.8946905282570405,1.155548910680864,-5.932883352880012,2.8550533482820093
0,3.966415174497988,4.996008798231343,4.366220182768319,-1.2721520353319555,2.8600534417115746
0,6.757843252625609,4.337328879058495,4.1368933424776095,-3.9314222825387732,2.86505353514114
0,1.019273645660339,3.138650784130532,2.257568408045027,-2.3506940736935644,2.8700536285707052
0,7.750706368179754,8.499974526413475,11.108245397318296,2.390032612263635,2.8750537220002705
0,15.242141434253464,7.681300118368804,8.498924327614734,6.600757796484478,2.880053815429836
0,14.863578857141201,8.842627571804135,12.999605215478471,7.791481499905531,2.885053908859401
0,20.025018648865956,19.283956897687155,21.51028807641202,10.632203742924037,2.8900540022889665
0,19.086460819886312,15.155288105862352,16.190972924545488,10.532924545154751,2.895054095718532
0,24.557905378859804,20.426621204713918,18.09165977235054,11.5836439252666,2.900054189148097
0,28.299352332399085,30.64795620086513,27.882348630495184,15.004361900864216,2.9050542825776695
0,24.80080168479194,26.439293098799272,22.36303950764501,14.795078488352345,2.910054376007235
0,20.952253437846892,26.760631900483702,22.53373241022654,9.525793702823021,2.9150544694368
0,26.013707590960177,29.121972605220137,26.284427342351734,14.956507558069026,2.9200545628663654
0,26.66516414118904,30.87331520960543,29.855124305772563,14.687220066629934,2.9250546562959308
0,29.366623083152238,36.6946597073845,28.985823299693074,25.13793123966601,2.930054749725496
0,24.818084408866838,20.476006089284326,18.89652432062815,12.678641086689888,2.9350548431550614
0,18.499548107752165,20.857354343136652,18.617227362573722,19.329349615420284,2.9400549365846267
0,16.391014166894188,18.198704454324908,16.77793241739266,10.32005683187781,2.945055030014192
0,14.752482571429722,18.850056406190838,16.17863947512287,5.430762740630989,2.9500551234437573
0,9.83395330487704,11.651410180248654,11.55934852415717,3.2914673451710135,2.9550552168733226
0,18.21542634935255,17.64276575636275,17.240059551389706,12.982170648262445,2.960055310302888
0,8.10690168566253,7.884123112924657,9.75077254231611,8.442872651987233,2.9650554037324532
0,4.588379293392337,2.0354822270781705,3.641487481162439,7.243573357589805,2.9700554971620186
0,0.6798591512120798,-4.683156924842363,-4.297795648752996,0.01427276549391121,2.975055590591584
0,-6.438658762661278,-7.7417943667150375,-8.347076864433072,1.4949708755644349,2.980055684021149
0,-11.73717446996877,-12.880430122077671,-10.316356182604434,-7.814332312550767,2.9850557774507145
0,-8.565687991921894,-8.449064213718534,-6.04563361931934,0.8263632008820577,2.99005587088028
0,-7.594199348897028,-5.077696663501702,-6.584909189836267,-8.162942584124455,2.995055964309845
0,-10.272708560384668,-10.396327492434747,-6.834182908688251,-5.302249667175655,3.0000560577394175
0,-2.631215645051418,-2.2649567207887262,3.6565452101861435,5.058441952546871,3.005056151168983
0,-10.259720620825265,-12.913584368145948,-7.19272484675028,-6.670867723833479,3.010056244598548
0,-5.4982235049585615,-9.51221045334959,-2.521993092771057,-4.290178695010714,3.0150563380281135
0,-7.946724314019786,-7.8808349943730995,-5.371259540841131,-9.809490959361806,3.0200564314576788
0,-5.535223063883654,-11.15945800825423,-4.5705242035201845,-3.6288045147145,3.025056524887244
0,-4.673719769774394,-3.028079511142466,-2.1197870929432177,5.271880641663178,3.0300566183168094
0,6.757785553584741,6.573300481504038,9.700951779060173,7.31256451272807,3.0350567117463747
0,-0.5907071083356206,-1.2653180454952238,-4.358307599327989,-2.276752898772135,3.04005680517594
0,0.010802229848806744,-3.153935107368884,-2.3675652400790375,-6.546071590367474,3.0450568986055053
0,-2.937686446573081,-4.982550719333875,-3.256821155151585,-7.895391559507686,3.0500569920350706
0,1.313826847723021,-0.5511648963764624,0.26392464370671115,2.6552871967838647,3.055057085464636
0,-1.4046579018507228,-0.02977765320291803,-6.885327855012507,-6.424035318080155,3.0600571788942013
0,-8.713140709772746,-11.838389004285888,-8.864578662512375,-7.1333591003525205,3.0650572723237666
0,-6.571621590230138,-5.876998963729113,-1.7338277895042271,3.0773158540877183,3.070057365753332
0,-8.970100556852131,-6.945607545014639,-6.0230752461311505,-5.40201045028003,3.075057459182897
0,-2.4885776225734557,-7.874214760903929,-6.4023210420295715,-0.6513380087404406,3.0800575526124625
0,-13.457052799645362,-13.882820623413597,-14.58156518627389,-4.210666816370838,3.085057646042028
0,-8.425526099590694,-16.17142514363087,-6.8508076871515025,-6.5999968679690495,3.090057739471593
0,-10.503997533056875,-13.860028331423896,-13.180048551977643,-10.479328157906146,3.0950578329011655
0,-8.402467109732587,-13.6586301952631,-10.189287787039833,-4.218660679924472,3.100057926330731
0,-5.830934838397042,-6.147230742264611,-9.328525397583698,-8.617994427042253,3.105058019760296
0,-7.32940072702767,-7.66582997841295,-6.567761387852777,-11.267329391549543,3.1100581131898615
0,-10.97786478287553,-9.164427908808754,-11.716995761190223,-10.8166655649149,3.115058206619427
0,-11.72632701239221,-11.263024537748105,-8.04622852007613,-8.55600293764441,3.120058300048992
0,-12.43478742105241,-7.921619868645557,-4.5454596661216575,-8.295341499262918,3.1250583934785574
0,-7.613246013241825,-9.590213903983194,-12.374689200133167,-9.814681238389284,3.1300584869081227
0,-4.071702792329569,-2.6788066453738555,-3.1339171221627833,-2.514022142810774,3.135058580337688
0,6.389842239028027,0.012601906246705208,5.5068565683915836,5.576635800325298,3.1400586737672533
0,4.251389078403022,4.034011750297319,-1.4123681275502222,0.8272926041120594,3.1450587671968186
0,1.4329377231675653,-1.1045771137713365,1.7384087909065338,-1.2020517184530077,3.150058860626384
0,-2.315511829613183,-3.053164686594661,-4.020812675425395,-1.5613971544840044,3.1550589540559493
0,-2.4239595829984086,-1.51175096878214,-7.750032525650036,-0.650743691063727,3.1600590474855146
0,-7.4224055399183895,-7.190335960749183,-8.299250758519749,-10.320091315114803,3.16505914091508
0,-7.530849702940477,-2.4189196625848273,-7.578467372167487,-11.229440013170622,3.170059234344645
0,-3.7892920740824465,-5.877502073965458,-7.7276823639786425,-7.698789771042898,3.1750593277742105
0,-8.08773265474886,-10.566083194087252,-7.666895730578503,-11.678140573618085,3.180059421203776
0,-7.076171445737835,-6.084663021534744,-5.736107467851555,-14.187492404795535,3.185059514633341
0,-3.6246084472193187,0.06675844579906177,-1.7853175710187308,-1.896845247434305,3.1900596080629136
0,-7.853043658748832,-6.851818789423269,-8.864526034759749,-11.076199083430659,3.195059701492479
0,-11.0414770792688,-10.870394724096046,-11.903732853214041,-5.835553893889474,3.200059794922044
0,-7.009908706992878,-6.898969354521207,-1.2729380198213844,-11.70490965916536,3.2050598883516095
0,-9.67833853928802,1.8324573237195145,-4.082141527305023,-2.764266358816421,3.210059981781175
0,-11.496766572642448,-7.846114684393684,-8.061343367848025,-7.273623971652241,3.21506007521074
0,-4.815192802643852,-6.2446853734845575,-1.960543533173485,-2.8729824758662206,3.2200601686403054
0,-2.0436172240522934,2.486745262244267,1.9102579854334136,4.627658150794652,3.2250602620698707
0,-0.6220398310589225,-1.861822771051298,0.3410611969316285,-4.631702069202631,3.230060355499436
0,3.0595393824035,3.579610532917633,2.9718661102812938,1.1689368866599725,3.2350604489290014
0,0.8311204224238672,4.84104518036827,6.5626727342825095,-2.590424959038292,3.2400605423585667
0,-0.7872967050079159,1.6024811772901186,0.4534810774442416,5.010212416356477,3.245060635788132
0,2.974288005997962,2.4339185293656667,1.144291147943773,7.920849035422252,3.2500607292176973
0,4.9458745612180826,10.025357241959227,6.635102953695621,3.7314849203944327,3.2550608226472626
0,11.297462966146016,9.29679731997685,8.095916502310251,6.1121200929844655,3.260060916076828
0,6.979053225709132,-1.6617612323269215,4.456731800901445,0.6627545743914496,3.265061009506393
0,5.680645344078743,-1.3703184112473394,-0.9024511439849313,-2.7366116145472876,3.2700611029359585
0,6.692239324687121,0.9711257867211014,6.528367673778972,8.07402154682702,3.275061196365524
0,4.7038351703293415,1.5225713650850705,1.9191882600253547,0.864654079018137,3.280061289795089
0,-1.1345671167337092,-2.255981672664327,-1.8799893796920049,-1.644713997713554,3.2850613832246616
0,0.7170324654140048,0.8854666769426611,1.0508347599964991,7.805917336672927,3.290061476654227
0,-15.841366081347168,-13.16308358252602,-12.478339315507794,-10.233451897918876,3.295061570083792
0,-8.629762754726046,-11.201632447100637,-9.937511600442306,-3.2328216815670414,3.3000616635133575
0,-10.678157551586917,-11.460179911995697,-8.486682088310241,-2.3221919940631306,3.305061756942923
0,-8.686550467785604,-7.238725971378171,-4.555850771719222,-5.601562814788203,3.310061850372488
0,-2.344941498254815,2.762729381515663,3.3249823574416744,2.1690658772256715,3.3150619438020534
0,6.506669362719651,8.69418615394146,8.595817307583395,6.3996941031357215,3.3200620372316187
0,11.588282120984882,16.585644352986982,12.966654086870056,17.3603218839085,3.325062130661184
0,10.229896781916704,11.487103984925437,8.577492702730737,13.450949239753669,3.3300622240907494
0,-2.168486649912978,4.568565054888156,-2.0516668383056462,3.6315761897283694,3.3350623175203147
0,5.8531318293892,7.760027566971483,5.279175469626826,1.7022027518372531,3.34006241094988
0,13.964752223249672,15.771491524439105,11.890019631979664,9.82282894341823,3.3450625043794453
0,13.52637453444768,16.67295692960469,13.530865653637944,12.00345478126422,3.3500625978090106
0,10.047998764733372,10.264423783520371,7.611713538559773,5.554080281419601,3.355062691238576
0,3.6496249147198037,0.7258920859433559,1.2525632896948877,2.3847054590913386,3.3600627846681412
0,7.011252984107949,3.0073618357181027,-0.5765850907142481,-0.6346696711234917,3.3650628780977065
0,0.10288297196508339,-4.591166968734113,-1.6257316007140583,-0.3340450949051119,3.370062971527272
0,1.0745148769452588,-2.6096943290546952,1.885123761620501,4.326579201978959,3.3750630649568443
0,-6.003851302484789,-15.368220246637538,-7.844019001717377,-3.8127967663077262,3.3800631583864096
0,-6.912215567754551,-3.506744722292182,-7.873159888521497,1.9778270143332097,3.385063251815975
0,-1.5905779199224597,-4.015267756065664,-1.9222988961316707,0.9084505579824158,3.39006334524554
0,-13.798938359531984,-13.623789347305811,-12.751436021295959,-7.160926121263665,3.3950634386751055
0,-11.967296886455673,-8.082309494653884,-6.600571260102411,-7.1403030091491555,3.400063532104671
0,-4.785653499659392,-1.1308281959308484,0.7202953920783265,-0.38968009101429074,3.405063625534236
0,-2.6940081971943206,-5.469345448245062,-4.468836059551244,-0.40905735175767377,3.4100637189638014
0,1.487639023496009,4.16213875172374,1.4320343905226174,8.261565223913433,3.4150638123933668
0,-1.3107118347726634,-5.34637559249624,-1.0170932520285143,-1.7578123488308601,3.420063905822932
0,9.360939230830503,8.615111522688869,7.213781018500402,1.6228099449233087,3.4250639992524974
0,2.0625922229243323,6.086600100753416,0.4446572076641814,4.653432119886939,3.4300640926820627
0,4.434247143730682,6.658090144773207,5.975535320723925,0.2640541905898406,3.435064186111628
0,8.855903995014641,6.039581657225279,7.386415362564651,2.044676171343994,3.4400642795411933
0,10.54756277799251,4.871074639966225,9.517297337559935,2.245298076265029,3.4450643729707586
0,4.579223493150913,2.912569094296605,3.0681812494150096,3.4759199192833368,3.450064466400324
0,0.6108861402344027,1.8740650210687955,1.3490671011885618,4.186541714085376,3.4550645598298892
0,0.38255071849179034,-0.264437579170486,2.169954895504097,0.4271634740597863,3.4600646532594546
0,-0.575782773032342,1.9570612939510013,1.6408446347406844,7.087785212289451,3.46506474668902
0,-4.5141143353078395,-0.5814383592923054,-3.718263678870644,-0.9415930584474888,3.4700648401185923
0,-9.112443969131999,-7.909936538640276,-6.3573700430915885,3.3290286743342414,3.4750649335481576
0,-8.870771674849312,-12.248433243590163,-8.18647445539523,-5.760349577066181,3.480065026977723
0,-9.749097452082145,-11.066928472982655,-10.675576912678535,-9.999727800291009,3.485065120407288
0,-10.387421299579717,-5.76542222471003,-5.634677411066835,-1.739105982592704,3.4900652138368535
0,-11.365743215140153,-9.783914495713994,-13.143775945841075,-8.848484110642326,3.495065307266419
0,-13.124063195535424,-15.162405282050983,-10.58287251138135,-9.74786217049438,3.500065400695984
0,-12.232381236414996,-12.100894578769216,-14.071967101042032,-12.117240147465326,3.5050654941255495
0,-12.940697332233048,-9.839382379735435,-11.321059707025256,-13.106618025914933,3.5100655875551148
0,-11.369011476222582,-12.357868677630362,-11.950150320332948,-10.435995789085998,3.51506568098468
0,-3.58732366046847,-1.8263534640764916,-7.109238930812165,-0.9053734191286739,3.5200657744142454
0,-8.705633876109715,-7.5948367298408,-6.038325527301722,-9.00475089734205,3.5250658678438107
0,-4.653942113559067,-0.7133184650732807,-0.11741009787353673,-2.814128204422197,3.530065961273376
0,0.3777516373574501,0.05820134048995157,-3.356492630109359,-2.5535053205658063,3.5350660547029413
0,3.9794473871833285,2.8097226973165674,3.88442688866112,1.4671177744107204,3.5400661481325066
0,10.25114514645575,7.421245615822125,7.635348471130323,13.047741100792523,3.545066241562072
0,5.612844925301629,2.4227701061269338,-0.023727870255852324,8.228364678522682,3.5500663349916373
0,8.04454673318862,4.954296177922306,3.9571978765735327,5.518988526813653,3.5550664284212026
0,5.956250578873217,3.1058238404735277,2.298125723369409,5.049612664085164,3.560066521850768
0,5.977956470437721,2.197353102671972,3.879055681612046,5.530237108119188,3.5650666152803403
0,5.109664415340025,3.7188839730838334,8.039987762459429,5.56086187616004,3.5700667087099056
0,0.9613744204952122,2.890416459981229,6.940921976608318,3.7014869849357215,3.575066802139471
0,-0.1269135075727298,5.531950571323775,3.591858334164318,8.342112450664285,3.5800668955690362
0,0.72480063746299,6.673486314686214,0.2527968446689624,1.3627382890487665,3.5850669889986015
0,-3.0734831381192915,0.6750236971817676,-2.3662624826752334,-2.3066354846564874,3.590067082428167
0,-0.4217648279935972,-6.543437274449176,-6.465319638708701,-1.1160088554088667,3.595067175857732
0,-6.170044425690859,-6.981896593485288,-8.674374614003634,-5.405381808106049,3.6000672692872975
0,-1.1783219244983647,-1.300354252845136,2.37657260135773,-5.89475432738899,3.605067362716863
0,-0.1265973174194292,-0.25881024500393024,0.49752201772012095,-4.774126397487561,3.610067456146428
0,-3.294870597238796,-2.6472645621571766,1.488473645571644,-0.4234980021592462,3.6150675495759934
0,-0.7231417565850488,1.0342828036416822,0.4694274953376,-4.482869124772758,3.6200676430055587
0,0.5285892120576485,4.25583186039873,3.1003835773323787,-2.8422397484030077,3.625067736435124
0,0.6603223162954216,2.367382616030604,3.5613419017163164,3.8783901441239292,3.6300678298646893
0,6.172057563700163,5.708935078196587,4.712302478400762,9.34902057004625,3.6350679232942547
0,1.9937949616475126,6.060489254184061,1.4232653169658973,4.179651546303988,3.64006801672382
0,5.625534517186603,0.7520451508357983,3.23423042665863,0.6902830893123846,3.6450681101533853
0,3.867276236977889,1.9236027745898694,4.235197816433384,1.9009152150544564,3.6500682035829506
0,3.5690201272752753,4.465162131600477,1.9961674949481822,5.411547939249703,3.655068297012516
0,0.430766193951812,-0.09327677221184111,0.18713947056858699,5.822181277338956,3.6600683904420883
0,0.6925144426077017,0.008286068861218937,-2.951886248521709,1.4028152443647914,3.6650684838716536
0,-3.0657351212810475,3.9498506603865735,1.8990903458394772,4.313449854952971,3.670068577301219
0,8.556017507725748,10.911417007743436,7.040069261816844,7.054085123355278,3.6750686707307842
0,3.1477723349339906,5.802985115865938,3.8610505073817056,7.744721063377639,3.6800687641603496
0,-3.930470634645629,-2.1854450109346417,1.1420340901184687,3.7353576882434156,3.685068857589915
0,-7.588711396165387,-9.463873368737822,-6.436979982701233,-3.134004989377254,3.69006895101948
0,0.1630500554217108,-5.1522999534891785,0.9340082961671488,5.896633042858671,3.6950690444490455
0,-0.19518627448640166,1.6992752393443298,0.764998934124447,-3.5727282028518053,3.700069137878611
0,5.396579619682263,9.460852214628709,6.775991938627822,2.427911285599302,3.705069231308176
0,10.118347743356493,6.332430977082227,7.076987316913642,2.4685515202512858,3.7100693247377414
0,6.7601181014835925,-0.12598846908613623,6.0279850757377815,2.959192513028329,3.7150694181673067
0,12.491890698271463,7.595593879817467,7.368985221237402,2.219834275640932,3.720069511596872
0,8.853665537042806,9.837178027034982,11.389987758865644,7.830476819515306,3.7250696050264374
0,3.89544262019833,1.228763975248064,4.220992693314043,4.831120155688964,3.7300696984560027
0,11.0472219493085,8.140351726515721,11.122000028472044,10.881764294657753,3.735069791885568
0,10.649003525175765,9.881941282307494,11.113009767413118,6.282409246233395,3.7400698853151333
0,-1.6292126521994275,-2.956467356516645,-2.795978087620803,5.81305501947647,3.7450699787446986
0,2.6725734165253523,-4.074874189566681,-1.3449635350140419,6.263701622744113,3.750070072174271
0,9.804361730300617,3.7067207834418716,8.876053426592177,13.684349063725683,3.7550701656038363
0,1.1861522877079707,-1.3616824371279015,3.0870727983703623,7.144997349325649,3.7600702590334016
0,-0.6220549131091877,-7.280083850853469,-2.8119054188390518,0.9156464855806155,3.765070352462967
0,-3.2502598742712103,-6.198483457113054,-1.6308812244382493,-8.243703522076821,3.7700704458925323
0,-1.2984625978765358,-2.1268812548444025,0.9201453821783526,1.8469473316845115,3.7750705393220976
0,-3.6666630858439344,-4.255277242495616,-3.578825598274878,-3.1124009475949563,3.780070632751663
0,-2.0248613398595325,-2.813671418121195,-0.8477941649680407,-8.871748354117726,3.785070726181228
0,-6.83305736133347,-4.992063779431441,-9.456760316875245,-11.401094881681088,3.7900708196107935
0,-12.361251151263176,-17.03045432369228,-16.355724052527457,-13.660440523333548,3.795070913040359
0,-13.5794427099408,-12.998843047399015,-16.354685369570493,-11.399785271069675,3.800071006469924
0,-9.077632036642434,-9.147229945913828,-11.103644264351036,-7.849129115728145,3.8050710998994894
0,-10.815819129518742,-5.475615013422782,-9.8226007318326,-7.408472047093133,3.8100711933290548
0,-4.034003985694691,-6.38399824318559,-8.681554765782984,1.1621859458724233,3.81507128675862
0,-3.422186601477053,0.29762037219387494,-2.6105063590134145,4.022844874683759,3.8200713801881854
0,2.699633027359622,7.969240840478056,8.380544496300448,2.253504750929994,3.8250714736177507
0,3.5914549052425775,7.020863169370429,7.521597808099925,8.264165585965435,3.830071567047316
0,3.5232790364994355,8.40248736609304,3.4526535839327672,6.364827390716556,3.8350716604768813
0,14.505105425107951,17.91411343710187,17.113711830695376,11.225490175505314,3.8400717539064466
0,8.676934074406708,7.495741387844419,7.434772554461494,3.0161539499147128,3.845071847336019
0,9.348764986829003,10.17737122262219,7.0658357603261175,13.396818722757308,3.8500719407655843
0,7.980598163839358,8.159002944677695,7.6969014524560775,11.307484502027755,3.8550720341951497
0,6.6924336060271585,8.430636556340422,9.037969634231493,7.7681512947676135,3.860072127624715
0,7.584271313199887,12.322272059067547,11.249040308246773,11.688819107000345,3.8650722210542803
0,8.006111284436535,9.713909453388812,10.260113476198482,11.979487943750648,3.8700723144838456
0,2.827953518114787,1.1755487388850567,1.7711891388448329,2.3501578090525657,3.875072407913411
0,4.849798011996043,2.1071899143892745,2.7922672961803072,2.0308287061010506,3.880072501342976
0,3.951644763355604,-0.6111670216674758,3.973347947723803,1.671500637582426,3.8850725947725415
0,0.5434937690735355,3.040477928977305,7.704431092643459,1.552173605928728,3.890072688202107
0,-2.304654974247903,-6.957875235481386,-1.9944832702928705,-7.877152386542801,3.895072781631672
0,-7.532801470050637,-7.2762265167440985,-6.253395142624957,-12.066477337359135,3.9000728750612375
0,-11.310945721477292,-10.214575916088153,-10.992304525812425,-11.855801243441846,3.9050729684908028
0,-12.339087730992214,-10.312923434062386,-8.581211420765024,-9.835124100740215,3.910073061920368
0,-10.557227500083968,-18.01126907026246,-12.64011582754098,-15.3444459040965,3.9150731553499334
0,-8.265365029161856,-5.739612823140511,-6.009017745234571,-3.2237666472377557,3.9200732487794987
0,-2.6035003176629354,-2.1879546900244558,-2.447917172041211,-5.17308632290839,3.925073342209064
0,0.8883666356674951,-1.2462946674701176,-4.136814105491938,-2.042404923163901,3.9300734356386293
0,2.820235832406286,6.805367248284692,3.9142914572714043,6.918277560309132,3.9350735290681946
0,7.602107274096782,6.277031060932362,5.5453995192261605,8.278961135825238,3.940073622497767
0,-4.976019037981658,-0.41130322619037185,-0.21348991681223806,-1.5603541886642716,3.9450737159273324
0,-2.084143102766803,0.06036438987563412,-3.4223768482749186,-4.139668405603792,3.9500738093568977
0,0.18773508083130638,3.612033911886767,0.11873872733918309,-1.158981507516244,3.955073902786463
0,0.5696155140463849,1.0737053424745053,3.4298568126025413,3.3317065132221386,3.9600739962160283
0,0.04149819817231834,1.7353786841026586,-0.31902258991233157,-1.4776043356846769,3.9650740896455936
0,3.4033831344683394,0.35705393906315275,0.09210052226594934,-2.396914046549942,3.970074183075159
0,0.9552703240886627,2.538731109512151,-0.8967738484597458,3.223777388331399,3.9750742765047242
0,-7.312840231920101,-7.899589802469698,-12.605645699604867,-7.745530023263613,3.9800743699342895
0,-5.710948532417005,-8.167908794671728,-7.7745150282987785,-6.7948362733782055,3.985074463363855
0,-1.9690545758859885,-4.826225864430371,-3.703381830976223,-4.994141353640999,3.99007455679342
0,-2.657158360366967,-11.224541008420804,-4.84224610335623,-5.843445255106042,3.9950746502229855
0,-7.305259883533864,-4.802854222592616,-10.03110784057746,-7.902747968241674,4.000074743652551
0,-0.8733591426995604,5.138834497767883,-0.06996703721921228,-0.7020494829436372,4.005074837082116
0,4.1285438651649855,1.6705251577171274,0.39117631264518343,6.358650211332493,4.010074930511681
0,0.4204491432100956,-3.427782237710817,-0.4276777847884168,3.289351125209963,4.015075023941247
0,-1.6676433054987647,-5.376087683522411,-1.7165293232544188,0.88005326905949,4.020075117370812
0,-0.7557334779607751,-7.744391174493029,-1.715378296428882,-4.899243347010843,4.025075210800377
0,3.0261786288495944,-6.112692704902253,-1.384224697866679,-1.538538712914849,4.030075304229943
0,0.6580930179464252,-4.3509922684198425,-2.2130685209681125,-7.707832818344949,4.035075397659515
0,1.800009692234298,3.7507101418122852,4.388090240996012,-3.5471256526134836,4.04007549108908
0,3.15192865446188,5.282414532883463,5.979251594736608,4.643582795373568,4.045075584518646
0,0.09384990720055861,1.9741209117487912,4.120415546695977,9.134292536868555,4.050075677948211
0,9.095773452800502,6.085829285020223,10.331582102841917,5.545003582831308,4.055075771377776
0,9.027699293245012,7.467539658892556,10.382751268503904,6.7157159436204035,4.060075864807342
0,5.429627429909791,3.1892520390568047,5.85392304820846,8.076429628928647,4.065075958236907
0,-1.5884421365033627,-1.0090335693005879,-1.3549025543067243,-3.3328553521638042,4.070076051666472
0,-1.0265094057204116,-2.057317161291606,-0.3437255357997342,1.217861009005116,4.0750761450960375
0,-0.5145743775699642,4.204401267910297,1.837454106812543,1.7085787209411385,4.080076238525603
0,0.5573629481730729,1.7561217230987143,2.2286363765653547,1.7492977920852526,4.085076331955168
0,5.9693025717367165,9.627844208868456,8.519821276336668,6.230018230726398,4.0900764253847335
0,3.251244493181956,3.5995687294040155,3.21100880865363,3.570740044867179,4.095076518814299
0,3.773188712239554,6.06129528834539,5.702198975553523,4.651463242113858,4.100076612243864
0,2.855135228263242,4.733023888779378,6.603391778556384,7.552187829621135,4.105076705673429
0,2.7970840402670616,0.8647545333045862,0.08458721868313918,4.132913814039852,4.110076799102995
0,1.5990351469710056,-0.23351277584237828,1.7857852965415515,7.133641201465462,4.11507689253256
0,8.130988546812302,6.298221963358525,6.806986012455875,8.374369997405932,4.120076985962125
0,5.652944237851467,1.6499587527229058,3.1581893664579574,5.475100206724413,4.125077079391698
0,8.304902217608273,7.291697593751782,7.749395358163016,13.955831833561305,4.130077172821263
0,7.806862482937734,4.42343848752969,6.570603986665262,5.406564881236591,4.135077266250828
0,11.948825029942167,7.195181434644707,11.24181525042978,3.297299352224796,4.140077359680394
0,13.170789853830799,12.256926435085832,11.653029147127869,12.008035248275998,4.145077453109959
0,8.882756948760544,7.918673488080455,7.904245673481411,6.338772570472386,4.150077546539524
0,2.6847263078359953,9.50042259195533,6.5454648252409715,4.049511319164946,4.15507763996909
0,-0.1633020766197416,1.0221737441683363,-1.4733134026340207,4.670251494034186,4.160077733398655
0,-3.461328212654279,-1.9160730584508192,-1.922089015640091,-1.3590069057209868,4.16507782682822
0,-6.199352108305953,-3.64431781932002,0.3591379806177455,-4.618263881147634,4.170077920257786
0,3.8126262286290644,2.5374394582031905,1.4603675805829361,0.7224805667263647,4.175078013687351
0,8.954606790517731,10.709198770807658,5.361599778673389,4.913226436998579,4.180078107116916
