labels,F4,F3,Fz,Cz,timestamps
0,-12.456154567020414,-8.992724169207925,-6.593267198842654,-5.662206128177953,-2.0000363479406786
0,-18.396719299279905,-15.752699017085613,-16.913381770832654,-12.861962271352388,-1.9950362570708293
0,-24.53728481922248,-19.512673550162248,-19.593496169125242,-15.12171979769927,-1.9900361662009765
0,-6.997851106895449,-7.422647758153965,-6.853610380440756,-1.19147869681618,-1.9850360753311236
0,-11.728418140684443,-12.612621629368299,-11.53372439009468,-6.171238957334243,-1.9800359844612743
0,-13.96898589763905,-14.102595150877455,-10.973838182224327,-11.58100056717347,-1.9750358935914214
0,-9.759554353661011,-12.772568308572266,-12.543951739915919,-9.860763513565702,-1.9700358027215685
0,-15.520123483481692,-17.81254108705653,-16.314065045127418,-11.630527782850805,-1.9650357118517192
0,-15.290693260593065,-15.342513469520094,-12.824178078545755,-8.06029336035682,-1.9600356209818663
0,-14.76126365713534,-14.86248543764115,-17.284290819472126,-15.790060230383972,-1.9550355301120135
0,-19.331834643775622,-20.322456971540216,-19.24440324572754,-14.709828376120342,-1.9500354392421606
0,4.43759381026877,4.28757195015592,5.4754846663452925,8.240402220397568,-1.9450353483723113
0,-12.902978263090272,-15.972398649988978,-14.644627058438592,-13.849368422012084,-1.9400352575024584
0,-6.1535508311905325,-6.792368748552071,-7.114738394490295,-4.9091402840105065,-1.9350351666326056
0,-8.384123860688192,-12.922338321263679,-13.274849315448115,-9.858913345684691,-1.9300350757627562
0,-9.87469731746279,-10.41230734286507,-9.194959793987888,-8.09868758636577,-1.9250349848929034
0,-3.635271166596933,-7.802275787061757,-7.335069801769555,-6.388462984584797,-1.9200348940230505
0,-7.995845372433515,-2.822243626615668,-6.745179309530895,-5.968239518115151,-1.9150348031532012
0,-1.4764198986874137,-1.4822108335937492,-0.30528828727088486,-2.118017164081302,-1.9100347122833483
0,0.3330052914011521,2.0978226203168617,0.3046032954980591,-2.357795899118801,-1.9050346214134954
0,2.722430234838102,7.1978567635045145,6.044495469439395,4.262424300429645,-1.9000345305436461
0,6.8518549685935195,12.68789162408163,11.524388265036578,9.922643458231363,-1.8950344396737933
0,-7.9987204705789035,-4.662072770424915,-2.505718287718682,-3.287138402353475,-1.8900343488039404
0,-11.029296045982253,-12.79203639294839,-9.29582415928707,-3.5969212583145254,-1.885034257934091
0,3.9601282794335475,0.16800078370599003,-0.4659293201259821,0.9632949132926503,-1.8800341670642382
0,-9.900447456761546,-7.791961212720186,-8.69603374029812,-3.9564898644356883,-1.8750340761943853
0,-1.4410232165751582,-5.261922353929673,-4.916137389365806,-3.0162755682163684,-1.870033985324536
0,5.228401038320758,4.918117388831311,2.3537597635996015,6.08393782541322,-1.8650338944546831
0,7.84782534634876,8.368158044526805,5.403657749830713,6.164150339930749,-1.8600338035848303
0,8.057249745595636,8.728199641859863,7.413556600470102,7.66436199849244,-1.855033712714981
0,5.746674273511714,8.168242208877833,12.423456346179375,7.054572823669945,-1.850033621845128
0,6.976098966847722,6.088285772839528,5.333357016868422,7.3247828373511705,-1.8450335309752752
0,-5.584476138235599,-3.0316696396879177,-8.696741358297064,-8.865007939181867,-1.840033440105426
0,-9.175051005829216,-7.801624002490476,-13.236838750401493,-15.574799484822748,-1.835033349235573
0,6.934374400156154,12.038422710675322,8.333064869854494,-0.6145917779793699,-1.8300332583657202
0,-5.8661998838947875,-2.9915294739003153,-10.617030467705206,-9.584384796246201,-1.8250331674958709
0,2.5632261785341575,5.718519469879638,5.262875267040737,-0.49417851652549494,-1.820033076626018
0,-0.057347376001667616,2.318569567822374,3.6127821043289465,-4.413972915220915,-1.8150329857561651
0,-8.727920510885333,-4.591379154502718,-6.487309925636852,-10.343767968310143,-1.8100328948863158
0,-1.0684931893056424,4.988673328349453,0.7425992073050407,1.27643634870455,-1.805032804016463
0,-5.049065374089686,-0.4412729582184173,0.8425095334100505,-1.6633599392114768,-1.80003271314661
0,-5.65963702765562,1.27878201111483,6.212421082984119,-1.2631568068125503,-1.7950326222767607
0,-5.690208111985232,-5.711161738403435,-1.8076661138164454,-3.072954228711108,-1.7900325314069079
0,-2.850778588568228,1.9588958185349505,5.312247972924379,2.067247820621815,-1.785032440537055
0,-3.641348418426465,-0.3510452926272315,0.8521633728976532,0.25744936681633623,-1.7800323496672057
0,-0.3919175622134785,-1.3209850463708752,0.9720801155799492,-2.232349564483207,-1.7750322587973528
0,-8.662485980283407,-11.230923417076433,-11.21800176965706,-7.592148947572825,-1.7700321679275
0,-2.2930536326451834,-6.220860378768113,-7.938082253208759,-0.8519487564957345,-1.7650320770576506
0,8.03637952104727,3.00920409510759,4.101838695078705,5.348251035023054,-1.7600319861877978
0,9.365813521184508,8.299270031489172,5.761761105781453,8.728450453304815,-1.755031895317945
0,0.2352484077425343,-1.6706625427668738,-4.728314990524153,-1.7013504756597004,-1.7500318044480956
0,4.544684220140158,7.699406398851207,3.161610436572138,1.628848273707554,-1.7450317135782427
0,0.244120997398247,1.579476882498617,-3.858462582565522,-3.790953273214506,-1.7400316227083898
0,-11.166441221628792,-8.900451065944761,-13.76853401743059,-4.760755090997136,-1.7350315318385405
0,-7.507002397890147,-9.380377420560238,-7.088603837045338,-9.190557153930534,-1.7300314409686877
0,-0.6175624917740035,-4.520302154933384,-5.918672009645736,-4.740359435795758,-1.7250313500988348
0,-1.7281214630984656,-3.7602252419670443,-4.048738502681233,-5.980161909747363,-1.7200312592289855
0,0.5213207286308119,-4.890146653994912,-3.6288032830079544,-5.989964548331888,-1.7150311683591326
0,-4.159235875955642,-5.970066362890759,-5.098866317027419,-5.739767323525179,-1.7100310774892797
0,-7.689791236052052,-7.049984340042346,-11.058927570682467,-7.299570206725634,-1.7050309866194304
0,-6.350345310477165,-9.539900556247565,-6.108987009310158,-4.109373168736818,-1.7000308957495776
0,-11.810898057444057,-8.419814981588047,-12.769044597470826,-8.669176179766698,-1.6950308048797247
0,-3.111449434414773,1.8802724146046397,0.4208997011071083,1.2010207905435437,-1.6900307140098754
0,-4.42199939811578,-5.519638336430455,-6.059154076595621,-1.558782227006006,-1.6850306231400225
0,-3.232547904706149,-4.689547203096819,-5.119205893086777,0.1914147986138952,-1.6800305322701696
0,-4.1430949099318415,-7.859454153428842,-4.679255710432155,0.8816118985029138,-1.6750304414003203
0,9.316359630750169,6.900640844982769,6.620696509708093,11.07180910369543,-1.6700303505304674
0,-2.2941842380732558,-2.6892621751694827,2.9706508058269683,5.452006444895704,-1.6650302596606146
0,-0.8047264719740126,-4.149163181134488,1.1106072162416392,-0.007796047751762458,-1.6600301687907653
0,-1.7852670266115547,-2.499062140066788,0.4005657789985504,-0.6975983445722159,-1.6550300779209124
0,2.8941941424092548,6.561040981074978,1.710526531970749,0.7125995839217465,-1.6500299870510595
0,-1.6263429204783753,-1.9788537846068408,-2.5395104870546774,-3.597202232785274,-1.6450298961812102
0,-5.966878170822611,-5.6087464040811055,-6.769545240266584,-5.357003765097511,-1.6400298053113573
0,-3.3374115640061897,-5.458636844219105,-1.2295776896328057,-9.966804983109803,-1.6350297144415045
0,-2.3679430550762044,-1.658525071536036,-3.5396077967709925,-6.236605856357319,-1.6300296235716552
0,-5.158472598713714,-3.0984110521397703,-1.4596355229784626,-6.306406353668593,-1.6250295327018023
0,-6.539000149229917,-8.748294751781817,-10.039660829255425,-8.146206443165905,-1.6200294418319494
0,-4.159525660485322,-5.53817613578012,-6.909683676168518,-6.076006092293049,-1.6150293509621
0,-9.380049085802941,-10.338055168849706,-5.279704023660152,-7.695805267809917,-1.6100292600922472
0,-17.87057037782626,-10.737931814954253,-13.799721830954379,-16.705603935728814,-1.6050291692223944
0,-8.301089488228937,-4.707806037201557,-5.029737056486299,-6.8754020611343325,-1.600029078352545
0,-3.3616063675557477,-2.747677797890325,-4.529749657866257,-2.5451996080938124,-1.5950289874826922
0,-2.6421209654579645,-2.4475470587409975,-2.479759592027239,-2.6549965398914375,-1.5900288966128393
0,-2.23263323107495,-5.947413781097846,-3.3997668154491913,-3.3847928193640744,-1.58502880574299
0,-2.773143113246348,-1.3772779259669445,-3.1297712842786956,-1.8645884090540035,-1.5800287148731371
0,4.486349439395319,0.4328605459701227,-0.7097729543696414,0.5056167287426407,-1.5750286240032842
0,-0.4841555217173197,-2.266998325754939,-3.0797717813276786,-4.3841773680893645,-1.570028533133435
0,-5.364657945190057,-6.096854501464132,-8.269767720510256,-7.113970661467184,-1.565028442263582
0,7.814842220380061,7.453292058704278,6.1702392730378515,4.166236886998609,-1.5600283513937292
0,10.864345026319613,7.973441394657231,10.40024924443966,7.4364453159145825,-1.5550282605238763
0,8.453850523487436,7.7935935459501025,8.740262238506475,7.016654663711025,-1.550028169654027
0,10.783358761916352,8.113748551463408,10.310278299294172,6.526864968277959,-1.5450280787841741
0,5.592869790721469,4.983906449325512,6.530297469957663,5.967076266847294,-1.5400279879143213
0,5.422383658182978,0.5040672770056069,6.250319792802028,6.947288596008802,-1.535027897044472
0,5.911900411894281,1.0342310715272411,7.390345309392282,7.12750199171999,-1.530027806174619
0,7.671420098858732,5.104397869668492,5.360374060630729,7.997716489277352,-1.5250277153047662
0,4.4109427654834255,3.044567707984228,1.9904060868151032,4.16793212329128,-1.520027624434917
0,3.4004684575904633,1.204740622733115,1.3504414277726045,3.518148927741457,-1.515027533565064
0,0.8099972205302342,-2.6850833500809803,3.0204801230309286,4.158366936105856,-1.5100274426952112
0,13.639529099271847,7.925095825413712,12.010522211840645,9.788586181423149,-1.5050273518253618
0,-3.0909358616680462,-4.414721815026935,-2.4494322669805824,-4.181193303743974,-1.500027260955509
0,-9.00139761818128,-16.054536235673233,-7.44938327503058,-11.450971487141537,-1.495027170085656
0,0.9581438738292745,-1.424347400411241,3.0706692260341377,-0.5607483363442134,-1.4900270792158068
0,7.527688658712831,6.805844727511907,6.860725274699137,2.0094761815352675,-1.485026988345954
0,4.987236780807845,-3.1539598148275525,3.600784909345154,4.839702099630491,-1.480026897476101
0,1.2767882840798337,-6.583760990352698,-3.4691518319936687,-3.920070549008832,-1.4750268066062517
0,-1.7836567878967444,-4.1335587618429095,-3.209084911496489,-4.239841731434192,-1.4700267157363989
0,3.065901608263113,3.6366469082767434,4.480985708705684,-0.09961141458005707,-1.465026624866546
0,2.705463515856854,-0.29314394217501727,-0.42893993344490533,-4.479379565130236,-1.4600265339966967
0,0.9450289780342147,-2.462931275349443,-1.2988618000520475,-2.1291461495158526,-1.4550264431268438
0,1.1845980377519387,6.157284946572033,4.551220146710456,-0.7889111339194838,-1.450026352256991
0,3.5541707377972545,7.407504761287867,3.0813059445698157,2.1713255156697056,-1.4450262613871416
0,3.6037471207660623,3.4777282061318413,4.021395631021737,-2.908436166664503,-1.4400261705172888
0,8.713327228949051,7.427955317902269,10.931489243181943,2.951803853167151,-1.435026079647436
0,0.9729111041935674,1.878186132860201,1.831586817639156,-1.737954390749032,-1.4300259887775866
0,4.312498787869234,8.958420686765358,7.5416883903756045,3.4622891356442027,-1.4250258979077337
0,13.652090320887652,15.348659014795114,13.361793996750889,13.652534466245962,-1.4200258070378808
0,5.681685743559495,11.698901151263682,9.411903671355288,9.152781634465061,-1.4150257161680315
0,10.251285095384604,6.969147129367697,6.872017447825142,9.633030672856309,-1.4100256252981787
0,10.660888414982377,9.429396981221025,6.332135358875782,9.623281612993484,-1.4050255344283258
0,16.090495740018333,17.789650737966653,13.982257436421646,11.553534485487969,-1.4000254435584765
0,7.480107107047399,9.429908429671567,8.732383711527536,4.563789319999912,-1.3950253526886236
0,11.129722551464324,11.490170085181274,17.67251421423124,8.044046145314258,-1.3900252618187707
0,20.729342107537093,20.010435732104582,23.54264897329878,17.034304989410035,-1.3850251709489214
0,17.12896580823751,20.120705396682794,23.8127880158346,14.654565879286565,-1.3800250800790685
0,17.6485936849393,21.760979103466614,21.292931366890063,16.774828840638563,-1.3750249892092157
0,21.28822576725851,24.531256875035186,23.77307904930255,10.705093897687725,-1.3700248983393664
0,21.53786208297339,20.351538731839675,23.52323108368624,15.895361073224954,-1.3650248074695135
0,18.907502657911177,23.64182469214319,23.573387488407075,20.145630388642807,-1.3600247165996606
0,26.807147515862717,27.272114771993767,23.28354827954733,24.42590186375098,-1.3550246257298113
0,28.916796678445294,28.112408985095612,21.43371347091307,23.67617551643208,-1.3500245348599584
0,22.486450164864205,22.532707342635277,20.75388307409429,17.596451362405418,-1.3450244439901056
0,27.966107991782657,28.543009853241852,21.65405709855029,19.786729415258904,-1.3400243531202563
0,35.685770173276964,32.98331652297481,30.34423555160645,18.857009686615736,-1.3350242622504034
0,36.37543672058746,40.413627355081836,36.46441843820031,25.397292186190043,-1.3300241713805505
0,30.935107641759114,34.26394234958077,29.36460576044057,17.407576921693476,-1.3250240805107012
0,42.29478294145784,45.37426150292558,40.53479751727125,28.607863898732333,-1.3200239896408483
0,43.46446262082193,46.30458480774668,46.39499370422141,33.298153120644216,-1.3150238987709955
0,44.814146677138595,44.44491225253844,45.755194312993986,31.968444588137817,-1.3100238079011461
0,49.043835103499205,51.245243821395896,48.395399331022354,38.6787382988888,-1.3050237170312933
0,34.483527888637695,34.37557949392947,31.52560874132146,23.189034247336892,-1.3000236261614404
0,39.243225017062116,37.245919245449564,39.23582252273515,27.52933242479548,-1.295023535291591
0,31.782926469404423,33.84626304737922,31.996040650348274,26.129632819764748,-1.2900234444217382
0,27.872632222781096,27.97661086763734,23.626263095827095,23.079935418162446,-1.2850233535518854
0,27.072342251138387,28.776962670933624,28.166489827774875,22.230240203442566,-1.280023262682036
0,18.442056525620032,13.567318419121468,16.216720812129118,11.070547156803764,-1.2750231718121832
0,14.101775014973711,12.547678071708953,8.996956012578627,8.230856257591483,-1.2700230809423303
0,7.331497686056162,12.578041586455297,7.577195391124832,5.5711674838307434,-1.265022990072481
0,5.101224504385774,12.928408919770765,10.65743890862472,8.911480812650858,-1.260022899202628
0,6.560955434593079,8.688780026850264,7.877686525033174,5.781796220457756,-1.2550228083327752
0,11.73069044062678,14.519154861733776,9.607938199426162,12.852113682926841,-1.250022717462926
0,4.750429485712392,10.039533377337781,12.558193889975765,7.112433174915305,-1.245022626593073
0,7.4501725322950625,9.3599155254566,11.078453553873137,7.672754670395761,-1.2400225357232202
0,3.339919542119163,7.840301256835715,9.838717147239052,7.823078142498471,-1.2350224448533709
0,4.069670476363534,7.910690521306725,6.358984625147003,4.5234035636037255,-1.230022353983518
0,1.0794252957690345,-0.0289167320667012,1.8692559417985968,3.7937309054428865,-1.2250222631136651
0,5.209183960743215,4.001479445218565,4.19953105078503,11.964060139179457,-1.2200221722438158
0,0.44894643140527113,7.6418790012823905,3.9798099052879685,5.624391235355039,-1.215022081373963
0,3.578712667600001,5.982281883828463,7.970092458105993,7.064724163774348,-1.21002199050411
0,-1.211517371057019,-1.2673119599538962,-0.22962133841402954,0.7950588935452348,-1.2050218996342608
0,0.8582562749003595,6.6830974166858255,-1.1193315323264437,4.7253953932596175,-1.200021808764408
0,-0.7219664351236013,2.4135099601747894,-8.799038171814717,3.7557336311361067,-1.195021717894555
0,1.5878144582596352,4.933925616601646,3.6012586951280277,3.5760735750452155,-1.1900216270247057
0,6.907598914370564,3.9543443316676417,4.79155902074183,6.686415192472237,-1.1850215361548528
0,4.107386892290821,-1.435233949293246,3.1518627572204303,4.816758450459883,-1.180021445285
0,-15.092821649192448,-4.864809281161741,-14.19783014344194,-6.302896684382461,-1.1750213544151507
0,-3.7630267512298445,-2.024381718761696,-7.027519729116211,-2.3825502456380843,-1.1700212635452978
0,-3.913228454446971,-1.8039513166681171,-2.927206047071702,-1.502202266750766,-1.165021172675445
0,4.296573201079347,0.9364818707833944,0.31311085607493183,5.858147219047879,-1.160021081805592
0,0.6063781754906321,-0.24308221061926094,-1.1365690659291694,5.8084981784993674,-1.1550209909357427
0,3.6961864288524753,0.24735638493822965,0.15375414079250982,6.978850577998528,-1.1500209000658899
0,15.14599792094523,17.1577976031568,14.204080430077978,17.639204383316887,-1.145020809196037
0,3.215812610984641,6.928241389268522,8.094409755390206,7.019559559322028,-1.1400207183261877
0,0.29563045745966887,-1.4413123122857554,4.594742069451403,1.9899160698484109,-1.1350206274563348
0,3.615451418321291,5.129136442266285,5.9550773241931205,4.900273877924159,-1.130020536586482
0,7.635275451204397,4.7995875963222865,5.975415470914072,6.390632946067686,-1.1250204457166326
0,7.035102513356526,1.9100410929569516,5.275756460356627,7.860993236324245,-1.1200203548467798
0,8.434932561433424,3.960496874882886,5.896100242707524,7.201354710138431,-1.1150202639769269
0,10.214765551358724,4.130954884473247,6.6564467675949075,5.93171732827104,-1.1100201731070776
0,5.21460143824925,-0.8185849362148483,4.406795984077751,4.082081050820085,-1.1050200822372247
0,7.704440176426816,3.131877354617619,3.437147840667944,11.18244583727609,-1.1000199913673718
0,-3.5157182804434868,-9.007658301346583,-8.332497714514568,-9.477188353422182,-1.0950199004975225
0,-1.625873979071904,-11.287191962256196,-7.032140733377503,-8.526821562597599,-1.0900198096276696
0,-8.486026966168346,-16.056723685629656,-8.481781267411865,-11.106453831248455,-1.0850197187578168
0,-0.07617728813718827,-3.8062535279585115,-2.3514193674489148,-2.936085199610674,-1.0800196278879675
0,1.7536750089788409,-6.135781544688115,-3.69105508370838,-1.5157157071683325,-1.0750195370181146
0,3.6635298792917714,-3.805307790492403,0.6493115340112099,0.5846546070574239,-1.0700194461482617
0,-0.016612723186180567,-9.964832319477424,-2.4003195638461596,-3.524974295752873,-1.0650193552784124
0,1.793247155370557,-11.314355185126074,-5.7699484266624195,-1.8046024542884316,-1.0600192644085595
0,8.903109468590577,-4.373876440125059,0.8504248964101635,-0.18422990706944975,-1.0550191735387067
0,-1.5670258301924966,-15.443396136281466,-7.609199643489795,-9.013856692408787,-1.0500190826688574
0,1.112841212017925,-6.942914324487966,-4.268822094888323,-3.7834828483045486,-1.0450189917990045
0,5.512710547986931,-3.002431054710444,2.4715574940698306,0.5468915876787268,-1.0400189009291516
0,9.872582130228954,4.528053623787144,6.631939075475404,0.4372665783192633,-1.0350188100593023
0,-1.5775440891917611,-10.831460337930753,-6.277677398644155,-6.152357913450714,-1.0300187191894494
0,6.832331841284568,-0.0009729885858784648,1.2127080236076673,5.228018075412587,-1.0250186283195966
0,-4.697790127136649,-6.430484376557182,-5.246904705817471,-3.1416054919443592,-1.0200185374497472
0,3.4520899565721743,1.6800054501590256,4.21348436520244,-5.111228652311288,-1.0150184465798944
0,3.1019720433506563,2.6704964438101255,0.62387518888333,3.929148557647651,-1.0100183557100415
0,2.911856083991516,5.630988556639398,3.904267717368662,3.109526101384735,-1.0050182648401922
0,-4.078257970927046,-3.278518259326341,-0.10533809738601052,-8.330096057672357,-1.0000181739703393
0,0.11162982906878005,3.1919759477191825,3.15505769637478,1.7202820439181299,-0.9950180831004865
0,0.9615194345033633,5.592471129436817,4.235455050208836,1.1406603697536843,-0.9900179922306371
0,9.001410795900345,10.41296723721681,8.115853915384976,12.141038883451458,-0.9850179013607843
0,4.281303863525153,5.983464221897315,5.356254242710836,4.691417548271196,-0.9800178104909314
0,-0.2288014128126128,2.623962033618829,-1.763344017544446,1.0617963268703732,-0.9750177196210821
0,3.0610949163021592,5.634460621917457,4.107059084487124,3.862175181383093,-0.9700176287512292
0,2.0909928000466764,5.084959935856157,3.8874634984344163,5.862554073586817,-0.9650175378813763
0,-3.2591078125654818,0.7354599240634425,-0.8121308263031164,2.9029329649028934,-0.960017447011527
0,3.9007930273856197,9.385960534753846,6.458276059423162,13.583311816284814,-0.9550173561416742
0,-0.2393047312242964,1.266461715720596,0.1686841045135541,1.94369058807107,-0.9500172652718213
0,1.6005988604009147,7.34696341428966,1.2290932576170004,4.06406923992536,-0.945017174401972
0,-3.5594962490265916,0.8174655773238082,1.4995034671848733,3.554447730971627,-0.9400170835321191
0,0.41040988921340293,0.07796815130902068,-2.0300853184439354,1.544826019958987,-0.9350169926622662
0,0.16031722392239445,4.798471082483725,0.9403268490274586,7.305204065314129,-0.9300169017924169
0,-6.469774296000454,-6.451025683058743,-6.559260082056895,-6.214418174844186,-0.925016810922564
0,-2.4398647214779685,-3.9605221992259763,-3.658846163164946,-6.814040742530454,-0.9200167200527112
0,0.030045896856407683,4.349981480262725,-0.578431445442976,-2.58366367953784,-0.9150166291828619
0,1.6699575086037797,3.320485301834437,1.5419840202550865,3.6367129727370173,-0.910016538313009
0,1.6598700634124115,1.0009892118061285,2.632400183171907,4.17708917308177,-0.9050164474431561
0,-9.180216489100951,-12.608506843655986,-9.727183007474709,-5.29253511981403,-0.9000163565733068
0,-9.030302199142445,-11.24800291815404,-11.636765602289401,-5.342159947324806,-0.8950162657034539
0,3.0996128835676027,-0.7974990645954207,1.9836523486763182,0.6182146493709655,-0.8900161748336011
0,-5.240471290191576,-4.066995335131553,-6.965929203989054,-6.491411370582439,-0.8850160839637518
0,-6.450554769311038,-5.966491781398627,-6.075510309220213,-5.381038047709825,-0.8800159930938989
0,-20.470637602229385,-20.85598845452414,-21.2950910153973,-20.22066542202754,-0.875015902224046
0,-18.45071983643004,-20.76548540467944,-17.93467136989316,-16.61029353260719,-0.8700158113541967
0,-10.960801517943395,-10.564982680533925,-12.864251418597345,-7.909922417158826,-0.8650157204843438
0,-10.610882691256755,-8.464480329145465,-6.313831205837003,-1.8295521120567493,-0.860015629614491
0,-18.400963399512708,-12.103978396273519,-14.913410774658406,-12.799182652736194,-0.8550155387446416
0,-15.311043684545496,-12.693476926612618,-15.112990166999541,-17.28881407385484,-0.8500154478747888
0,-17.161123586714773,-16.06297596373776,-18.612569423540208,-13.188446409008812,-0.8450153570049359
0,-24.541203144741058,-21.902475549889466,-20.772148583426805,-18.0680796904087,-0.8400152661350866
0,-19.811282395514606,-16.65197572570399,-18.02172768405146,-17.86771394873574,-0.8350151752652337
0,-16.57136137393486,-15.611476530048453,-17.87130676095455,-16.277349213050375,-0.8300150843953809
0,-14.751440112982074,-9.250978000114031,-12.540885847887445,-11.056985510776228,-0.8250149935255315
0,-14.891518643949567,-12.42048017168195,-12.51046497700181,-11.826622867856354,-0.8200149026556787
0,-20.60159699657945,-13.309983079330365,-9.780044179082058,-14.556261308947875,-0.8150148117858258
0,-21.75167519897563,-21.679486756407353,-16.789623483701057,-19.425900857434772,-0.8100147209159765
0,-21.241753277378006,-21.89899123475471,-19.119202919168117,-20.85554153521396,-0.8050146300461236
0,-15.531831256027658,-17.108496544385133,-14.318782512312172,-11.735183362466962,-0.8000145391762707
0,-15.551909157261935,-13.638002713402736,-12.118362288372866,-13.34482635768483,-0.7950144483064214
0,-20.711987001695963,-18.167509768178654,-15.677942271108424,-20.084470537856543,-0.7900143574365686
0,-16.902064808262146,-14.307017733506397,-9.49752248292969,-9.974115918520873,-0.7850142665667157
0,-18.8921425941363,-15.526526632636639,-14.337102944973962,-13.823762513759679,-0.7800141756968664
0,-14.672220374728317,-10.82603648732794,-10.616683677162257,-11.563410336313002,-0.7750140848270135
0,-13.462298163781282,-15.195547317956553,-15.006264698215253,-11.123059397701361,-0.7700139939571606
0,-9.652375973552488,-7.215059143624079,-5.775846025658228,-4.542709708327111,-0.7650139030873078
0,-8.262453815049966,-3.3545719823227573,-5.425427675948813,-4.742361277680895,-0.7600138122174585
0,-22.62253169817295,-23.274085851121963,-17.11500966466725,-19.252014114513557,-0.7550137213476056
0,-6.232609631612853,-3.903600766109685,-5.614592006512613,-0.8416682267505078,-0.7500136304777527
0,-7.602687622777143,-3.8531167422797257,-5.744174715219808,-7.591323621403749,-0.7450135396079034
0,-9.34276567800188,-8.882633793748088,-10.573757803664567,-5.2409803047403365,-0.7400134487380505
0,-1.8328438028174259,-3.0921519340181574,-3.8333412839910244,-2.1006382824719143,-0.7350133578681977
0,-3.6429220021230524,-2.2916711760620156,-5.072925167658791,2.4497024401077487,-0.7300132669983483
0,-2.183000280375087,-2.791191532426208,-4.162509465546092,1.0700418578892594,-0.7250131761284955
0,0.026921358257573247,-8.760713015322885,-5.872094188051001,-4.709620034240792,-0.7200130852586426
0,-11.983157090142097,-12.570235636497737,-15.011679345038285,-9.099283241311454,-0.7150129943887933
0,-8.123235629075314,-9.179759406932488,-14.201264945573914,-7.578947767953126,-0.7100129035189404
0,-7.603314261348864,-5.859284336660157,-10.710850997596145,-8.648613618118285,-0.7050128126490876
0,-12.303392988921273,-10.958810434809564,-15.950437507765209,-15.898280794925093,-0.7000127217792382
0,-10.103471812841091,-6.968337709686177,-10.370024481461284,-14.037949300462962,-0.6950126309093854
0,-10.943550733160535,-13.597866168744034,-17.549611922775256,-17.377619135536325,-0.6900125400395325
0,-14.883629748859475,-13.097395818469225,-19.219199834421165,-11.417290299504284,-0.6850124491696832
0,-11.693708857763559,-5.9369266642596505,-11.418788217584801,-6.586962790334361,-0.6800123582998303
0,-13.433788056460148,-12.566458710440097,-12.778377071903538,-9.536636604849885,-0.6750122674299774
0,1.4061326596381702,-0.845991960405574,-2.1479663956984845,-2.2963117390035235,-0.6700121765601281
0,-1.573946704039725,-1.185526416839954,-0.6175561863728428,-6.475988188074427,-0.6650120856902753
0,-2.0340261416671885,-1.6450620820151314,-4.217146440829925,-3.235665946807971,-0.6600119948204224
0,-11.5941056471925,-10.794598957956818,-12.87673715563929,-11.09534500945268,-0.6550119039505731
0,-5.744185214142695,-6.474137046294303,-8.43632832682339,-6.995025369654419,-0.6500118130807202
0,-4.124264835396878,-7.133676348014225,-4.635919949594192,-3.8947070203416883,-0.6450117222108673
0,-3.3243445032090873,-8.393216863369013,-5.575512018369404,-5.144389953770984,-0.640011631341018
0,-3.4044242093705503,-3.61275859190071,-5.095104526946746,-3.0040741616754234,-0.6350115404711651
0,-0.8545039453276002,-0.7323015325392457,-6.764697468590764,-7.383759635344555,-0.6300114496013123
0,-3.324583702255122,-4.941845683786784,-6.604290836010939,-5.9534463655931935,-0.625011358731463
0,3.3153365288673258,-1.1013910438526757,-2.9238846213329897,-0.9031343427112776,-0.6200112678616101
0,-12.724743242780152,-14.240937610612335,-13.713478816090953,-12.222823556477017,-0.6150111769917572
0,-19.244823007625573,-22.240485381293986,-16.85307341107347,-16.122513996049683,-0.6100110861219079
0,-0.9749027552177585,-5.020034351976535,-2.472668396031378,-1.3322056496833556,-0.605010995252055
0,-6.764982474048187,-5.429584517417709,-9.422263759630589,-3.9418985046832606,-0.6000109043822022
0,-7.135062151818239,-3.1191358714123005,-2.6818594897069685,-0.9815925477373096,-0.5950108135123529
0,-2.3051417756534365,-4.998688407192743,-2.7214555735075314,4.55871223473763,-0.5900107226425
0,-0.17522133219092445,6.001757882370448,1.5589480021199749,7.379015856308502,-0.5850106317726471
0,-10.355300807701347,-8.15779699539813,-7.620648749441692,-3.770681669733045,-0.5800105409027978
0,-9.145380188041557,-7.157353033010185,-10.070245814537214,-6.8803803303360755,-0.5750104500329449
0,0.7345405415464892,-3.3569102226003666,-2.4098431789944015,-2.5600801123365295,-0.5700103591630921
0,-1.4155386036011757,-4.926468555768054,-4.649440828010137,-2.7397810021928386,-0.5650102682932427
0,-5.865617607819503,-4.066028023621301,-7.989038746239776,-4.529482985985288,-0.5600101774233899
0,-2.885696455193377,-1.545588616854438,-6.138636917816917,-1.9991860494671156,-0.555010086553537
0,-4.275775129467163,-9.985150325774457,-4.258235326280027,-2.7188901780788575,-0.5500099956836877
0,1.7741463859648623,-1.6947131402493834,-1.0678339546102755,-1.3085953569866557,-0.5450099048138348
0,3.7540681079045664,-3.734277049656118,0.6725672145867492,-2.3383015711352013,-0.540009813943982
0,-9.746009946821081,-8.583842042913917,-7.447031801085499,-10.338008805222819,-0.5350097230741326
0,-0.05608776130222626,-1.103408108487724,2.9133690161674095,-0.4277170435597413,-0.5300096322042798
0,7.8438346815787545,4.897024765569296,6.253769684293034,11.492573729926537,-0.5250095413344269
0,-3.0562426010166277,-8.752543408589872,-3.945829778818512,-3.077136468670609,-0.5200094504645776
0,1.3036804079139892,-3.202112618679315,3.4245706445441075,3.613152376448415,-0.5150093595947247
0,3.3736037252415167,-1.7216828521175682,1.224970971975438,-2.2165597191560567,-0.5100092687248718
0,-0.47647263226325165,-4.711254095952192,-1.2646287790191555,-2.416272739982043,-0.5050091778550225
0,8.573451351993397,8.289173663027642,6.145771408954949,8.904013329488752,-0.5000090869851697
0,8.42337569427254,8.639600438011815,7.146171553094703,4.114298504652932,-0.4950089961153168
0,-1.6066995896822536,4.070026241777496,1.6365716702119224,1.2045828005469712,-0.4900089052454675
0,-6.646774484561404,-5.599548913451972,-7.373028223279551,-4.0151337681503545,-0.4850088143756146
0,-4.026848975067468,0.1908749842724593,-2.3826281110430316,5.605148813105226,-0.48000872350576174
0,1.9730769544134459,-3.21870205303245,0.2577720235005718,1.035430558807332,-0.4750086326359124
0,-8.566996680181736,-4.558280013139148,-6.561827802779362,-7.134288516646382,-0.47000854176605955
0,-0.5570698626375962,0.48214111643502,-2.2414275727465,4.70599160113694,-0.4650084508962067
0,-11.467142576365978,-15.317438651502101,-10.791027268896325,-15.363729073269814,-0.46000836002635737
0,-9.457214804225089,-9.847019303596692,-5.800626873186094,-14.943450524832974,-0.4550082691565045
0,-12.637286528281084,-18.026600825569854,-14.790226366853073,-9.913172737604382,-0.45000817828665163
0,-13.527357729581942,-19.696183201854005,-16.70982573018428,-13.69289569442007,-0.4450080874168023
0,-10.84742838801851,-13.29576641532941,-11.689424942241434,-7.662619376916276,-0.44000799654694944
0,-3.197498482338564,-5.715350447299392,-3.6690239807733622,0.06765623428947021,-0.4350079056770966
0,-6.767567990368075,-9.114935277797485,-4.688622822487044,-1.7120688407377846,-0.43000781480724726
0,-9.237636889248803,0.28547911401544535,-7.19822144341103,-5.9517945815876825,-0.4250077239373944
0,-6.067705155469473,-5.854107250439666,-3.817819819043545,-0.8415209675920169,-0.4200076330675415
0,-3.827772764825902,4.156305650621695,-1.73741792437982,2.29875202218223,-0.4150075421976922
0,-4.737839692504243,1.2367178391376812,-1.2570157340218184,-1.8109755911905112,-0.41000745132783933
0,3.1620940867494607,-0.7928706629898423,0.6033867776556965,6.05929621334423,-0.40500736045798647
0,-4.317971401558414,-1.0024598339443498,-3.1962103636058043,-0.08043254329113247,-0.40000726958813715
0,-10.04803613173182,-4.48204965188407,-2.5258071319524884,-2.3601618403489604,-0.3950071787182843
0,-2.878100077703314,-2.1516400947966137,-5.225403501327487,0.26010834284084416,-0.3900070878484314
0,-9.108163212826454,-3.7012311404016516,-7.474999445334757,-4.36962197298041,-0.3850069969785821
0,-17.78822550974896,-12.660822766057843,-12.844594937046166,-15.70935276682062,-0.3800069061087292
0,-18.188286940110565,-17.970414948491182,-18.134189948694708,-17.889084017028562,-0.37500681523887636
0,-7.948347474170521,-12.880007663345989,-10.403784451325379,-12.518815700762591,-0.3700067243690235
0,-9.708407080782425,-12.18960088489134,-12.673378414631964,-13.298547793732608,-0.36500663349917417
0,-3.6884657276994344,-4.559194586086552,-4.602971807071727,-4.408280270309236,-0.3600065426293213
0,-6.418523381886871,-9.458788738854045,-7.91256459611499,-11.69801310378498,-0.35500645175946843
0,1.751419990255038,-1.4883833143349583,-2.232156748485675,-2.8177462665892,-0.3500063608896191
0,0.021364422666902527,-1.327978283095393,-1.061748230368609,-5.647479730432645,-0.34500627001976625
0,-0.7586900505920781,-11.16757361528864,-6.501339007580928,-5.717213466439159,-0.3400061791499134
0,5.2112566045199475,3.7828307193232824,9.849070954299927,4.773052554723869,-0.33500608828006406
0,6.8212044218927765,7.513234751289811,10.82948168966762,6.523318362596489,-0.3300059974102112
0,5.141153435046835,1.5636385111097864,2.5498932324416343,0.6535839865552826,-0.3250059065403583
0,2.621103676989799,-0.6459579710507035,2.2103056158700163,-6.406150544319922,-0.320005815670509
0,11.281055180211505,8.494445334675357,9.730718872670932,6.664114798954498,-0.31500572480065614
0,5.991007976627784,10.264848457825375,7.6711330350700955,3.564380045356355,-0.31000563393080327
0,17.200962097396957,18.26525142727156,19.741548134561437,12.604645223608763,-0.30500554306095395
0,20.03091757262666,25.445654270708467,19.5619642015084,14.744910361784367,-0.3000054521911011
0,22.450874430957455,26.68605701407964,23.052381264690514,15.605175486914163,-0.2950053613212482
0,29.460832699116487,23.47645968109904,25.152799350930778,10.64544062471696,-0.2900052704513989
0,26.080792401542254,33.1468622930015,31.703218484808005,20.79570579951969,-0.28500517958154603
0,29.77075356011206,30.837264868364496,26.083638688370904,18.515971034171837,-0.28000508871169316
0,31.360716193980235,31.167667422879855,29.624059980941674,21.55623634982654,-0.27500499784184385
0,36.160680319415505,30.80806996921625,27.324482379076773,20.97650176573691,-0.270004906971991
0,32.1906459495806,26.36847251704031,25.364905896602483,18.206767299169375,-0.2650048161021381
0,22.930613094448866,23.13887507316355,19.69533054472915,14.857032965452435,-0.2600047252322888
0,16.490581761087533,15.539277641836149,17.06575633231127,17.007298778142506,-0.2550046343624359
0,19.06055195420447,17.019680225151376,19.896183266163145,15.11756474917574,-0.25000454349258305
0,16.93052367658343,10.690082823431267,14.986611351265868,10.137830888964583,-0.24500445262273374
0,7.780496929311225,15.960485435499379,15.667040590877926,7.138097206574263,-0.24000436175288087
0,11.740471712030471,12.340888058815885,13.187470986660111,11.098363709986625,-0.235004270883028
0,2.3504480232713894,-3.118709310387507,1.787902538882819,2.9286304062957416,-0.23000418001317868
0,-6.789574139173452,-5.958306676671456,-4.42166475315466,-2.771102698099571,-0.22500408914332581
0,-4.799594777736033,-7.617904044688925,-6.171230890489632,-2.4008355971393196,-0.22000399827347294
0,-8.089613894562829,-6.51750141864918,-8.390795873920343,-4.250568284716785,-0.21500390740362363
0,-14.009631491191543,-12.777098802082694,-13.920359703633732,-8.38030075443326,-0.21000381653377076
0,-9.399647568307882,-16.326696197649426,-15.669922378898642,-10.04003299939432,-0.2050037256639179
0,-10.309662125567959,-10.626293606875304,-12.36948389777661,-7.849765011989001,-0.20000363479406857
0,-8.409675161591691,-1.0658910300737685,-8.60904425701306,-1.2194967838110382,-0.1950035439242157
0,-13.969686674018654,-21.50548846653781,-20.3986034521014,-11.549228305771866,-0.19000345305436284
0,-17.18969665942779,-12.585085914562924,-13.678161477243895,-9.298959568148225,-0.18500336218451352
0,-12.229705113127238,-10.39468337119875,-11.777718325207921,-9.418690560433635,-0.18000327131466065
0,-14.339712029020687,-15.13428083215966,-14.097273987339412,-12.648421271187026,-0.17500318044480778
0,-10.999717399645403,-11.623878291903617,-13.616828453670589,-9.638151687959803,-0.17000308957495847
0,-13.91972121625943,-19.36347574360504,-16.11638171291891,-13.497881797238398,-0.1650029987051056
0,-20.2497234688335,-16.633073179009063,-21.075933752368638,-15.397611584369322,-0.16000290783525273
0,-14.939724145890322,-11.14267058830549,-12.265484557709994,-8.107341033470174,-0.1550028169654034
0,-11.229723234374855,-11.922267960190215,-10.015034113028275,-4.477070127483856,-0.15000272609555054
0,-5.97972071979862,-8.741865282085616,-11.834582401033433,-5.426798848458062,-0.14500263522569767
0,-12.29971658655531,-12.741462540315544,-17.534129403247636,-13.176527177773313,-0.14000254435584836
0,-12.249710818081741,-9.811059720156306,-11.903675099942713,-12.806255096054555,-0.1350024534859955
0,-2.63970339683691,-3.2106568058748293,-3.6732194700885907,1.8140174170146324,-0.13000236261614262
0,-10.68969430436723,-7.4502537808926474,-10.5727624915675,-10.765709617406133,-0.1250022717462933
0,-8.329683521438199,-5.469850627982759,-8.5223041414215,-6.605436177529047,-0.12000218087644043
0,-14.739671027993726,-16.989447329271457,-19.941844395815586,-15.035162240886914,-0.11500209000658757
0,-10.959656802971232,-8.349043866019697,-9.91138322977762,-5.05488778412321,-0.11000199913673825
0,-9.969640824174178,-12.30864021841101,-11.900920617021317,-4.704612782953975,-0.10500190826688538
0,-3.7896230683302283,-5.288236365544978,-3.380456530050414,1.9756627875981625,-0.10000181739703251
0,-7.309603511309384,-12.18783228556186,-11.389990940419507,-2.164061047137734,-0.0950017265271832
0,3.780417871621217,6.492572044199154,4.060476181043134,7.646215738246623,-0.09000163565733033
0,4.54044110549481,6.4629766468503105,6.3109448639427335,10.526493168968877,-0.08500154478747746
0,4.090466215272066,6.253381545400204,6.161415137842977,7.686771269704791,-0.08000145391762814
0,-2.9295067743816006,-4.326213237588471,-2.6081129680867043,3.6870500643630457,-0.07500136304777527
0,2.800522160970615,0.8041923201221008,-0.4976394250137878,6.6173295761386415,-0.0700012721779224
0,-1.119446954316024,-3.915401759259652,2.0128357958008953,-0.6023901723170975,-0.06500118130807309
0,-3.319414095894965,3.0550045465893945,-0.7766872769035829,1.5478908412742214,-0.06000109043822022
0,0.8006207606471949,-5.484588739898904,-5.26620861438271,0.2181726389904517,-0.05500099956836735
0,4.340657639809212,4.27581840379375,6.914271812176571,5.878455242786043,-0.05000090869851803
0,-4.79930343392823,-7.813773999721163,-7.235245968338012,-5.381261325536827,-0.04500081782866516
0,-3.949262436101442,-8.043365927634122,-7.824761926934459,-2.8509770442570983,-0.040000726958812294
0,-1.3292193420774914,-1.7629573567142751,-1.4942760342931636,-0.950691891526448,-0.03500063608896298
0,2.470825873028362,1.6074517367603849,0.8362117393567061,1.7295941547155276,-0.03000054521911011
0,-1.639126765775282,5.407861376747669,4.546701424027117,0.959881116618204,-0.02500045434925724
0,-2.259077233460075,-4.401728412866339,-0.382806950324868,0.7901690162801716,-0.020000363479407923
0,-6.099025504897574,-7.841317608266539,-8.52231335385833,-8.149542124241258,-0.015000272609555054
0,-0.628971554699849,-1.9909061854154928,-3.051817756608054,-0.5892522827494093,-0.010000181739702185
0,0.9510846428186575,-1.9504941198546795,0.2386798717569747,-0.588961436756898,-0.005000090869852869
0,-1.2688568864870433,2.849918613195036,0.8991795618778373,2.761330436436225,0.0
0,4.721203883258356,0.4103320386083704,1.4796813444821915,-0.8483766404465767,0.005000090869852869
0,6.021266977805136,0.750746181200991,1.0901852502349576,5.291917355223502,0.010000181739702185
0,-12.32866757731517,-17.688838934194543,-11.91930869023035,-12.617787554009379,0.015000272609555054
0,-3.458599756576758,-4.798423282340485,-4.978800446040941,-5.157491345451657,0.020000363479407923
0,-2.6485295340787447,-6.308006837218411,-4.418289985776075,-2.147193995934235,0.025000454349260792
0,1.4315431165254977,3.372410427924601,2.392222722543531,0.7031045182235645,0.03000054521911011
0,-7.038381778153372,-10.42717145972218,-10.24726228874351,-13.816595778949617,0.03500063608896298
0,5.3216958086675685,9.233247527287912,3.2232550129818724,1.5637051369597321,0.040000726958815847
0,-3.1782240961006627,-9.976332583425508,-6.206225339359031,-7.555992709126387,0.04500081782866516
0,-3.7381414654785714,-6.535911764063877,-2.3157033125624267,-12.20568929175234,0.05000090869851803
0,-2.058056272353725,-5.235489986434571,-6.075178873120558,-5.6653845848090745,0.0550009995683709
0,-1.1779684893747893,2.434932778193175,1.1653480128312934,3.9749214385469513,0.06000109043822022
0,0.43212191102091935,0.8353565588969083,-0.9141226205488839,-1.9547711943758044,0.06500118130807309
0,9.822214956442068,4.635781384783935,11.696409260967433,6.085537543808976,0.07000127217792596
0,2.3623106742687665,3.436207284769835,4.9869436913355525,3.815847680325203,0.07500136304777527
0,-1.657590908528112,-4.743365712489127,-0.33251929602069885,-4.943840757864838,0.08000145391762814
0,-1.7174897652552459,1.0370624215289865,0.01802033186904972,-4.473527743927031,0.08500154478748101
0,3.7726141307429586,8.947491715327809,4.568562607766407,1.916786749120778,0.09000163565733033
0,-4.0372791938565555,-8.492077802698574,-5.810892435665823,-1.9628972515136822,0.0950017265271832
0,9.972830287574812,10.108353895666003,9.13965523415575,11.007420281427411,0.10000181739703606
0,-2.727057398494509,-4.27121316149643,-5.71979435027236,-5.542260624980363,0.10500190826688538
0,-13.556942225736064,-6.520778946177103,-12.339241156459366,-12.141939943818334,0.11000199913673825
0,4.133175832364996,1.5896565697434855,0.4013148484053015,1.9583823520620727,0.11500209000659112
0,-9.146703197220768,-7.87990658532527,-6.388126302304309,-4.921293709696589,0.12000218087644043
0,-4.526579287076397,-1.2394683826478028,-0.5375645747346272,-0.7809681010694882,0.1250022717462933
0,-1.0564524093526153,-1.039028793163166,-5.176999934688797,-2.7406407937898463,0.13000236261614617
0,1.6036774641790208,3.911412212418532,1.7835676523180206,1.8696882406006958,0.1350024534859955
0,-5.476189638054376,-3.67814533656956,-5.315861778999326,-4.609980969307863,0.14000254435584836
0,-3.7360536874749695,-6.627701410774396,-6.875288193690464,-6.149648394772412,0.14500263522570123
0,-1.175914655239128,3.5527440193422697,1.985288443532578,0.7906859932344026,0.15000272609555054
0,-5.355772512182119,-6.186809016422301,-7.184131831677118,-1.768977775942901,0.1550028169654034
0,4.444372771131456,4.383639511907122,5.286451016603604,3.3913603272115598,0.16000290783525628
0,7.374521224231076,9.204089634322838,10.477037024361287,10.45170033215029,0.1650029987051056
0,-6.055327123521475,-1.8354586194269413,-2.112373772690045,-1.1779577320072858,0.17000308957495847
0,2.7748277570212125,6.964994780003012,7.248218660703255,5.652386163399022,0.17500318044481133
0,-7.3750141050015925,-9.124550138339941,-9.131185640536282,-5.8572679533047864,0.18000327131466065
0,-5.134852680238466,-5.074093345421062,-4.1605866415155,1.2130799461011903,0.18500336218451352
0,9.515312060967732,9.756365188033389,6.260015692891839,11.413429889821352,0.1900034530543664
0,-8.114519851557915,-5.933174508539181,-4.6393786019820205,1.1337819058388865,0.1950035439242157
0,-5.604348387936198,-0.2127124057328268,-5.348769490731018,-6.405863978262135,0.20000363479406857
0,-5.634173518021176,-0.4922484741233797,-1.4181569377678742,-6.165507735030898,0.20500372566392144
0,5.13600478878355,5.798217315782846,5.60245909276538,3.454850663249265,0.21000381653377076
0,5.596186563306656,1.0186849933914242,4.093078636775658,2.485211244570229,0.21500390740362363
0,-11.493628163705583,-2.7808454120984516,-4.986298270036992,-4.714425963045219,0.2200039982734765
0,-6.383439361483279,-6.05037387155847,-4.115671592103351,-2.084060931583699,0.22500408914332581
0,4.426753001124086,7.0400996442856485,8.46495870624285,6.386306367070182,0.23000418001317868
0,-2.5830510443459027,2.3505751648049626,-0.7644073392867684,-1.3733240389392507,0.23500427088303155
0,1.8371485337596911,-2.9389472807617336,-1.4637696931316735,0.09704787841110885,0.24000436175288087
0,-0.5226482329223255,-4.238467663298707,-3.553128319827225,-5.052577852919556,0.24500445262273374
0,5.097558687195417,3.682014046397793,-0.902483183796212,3.5077987951203617,0.2500045434925866
0,-7.422230674388506,-11.817502122274107,-10.611834249204753,-10.281822149249749,0.2550046343624359
0,1.7979837138093353,-0.7470161396373117,-1.4911814798230512,-0.8614406575604557,0.2600047252322888
0,0.3482018833771199,2.583472024355507,2.6994751610298,3.03894329898102,0.26500481610214166
0,-7.83157613397427,-6.016037599981917,-4.809864289683348,-6.290670250607793,0.270004906971991
0,-0.571350306350668,-1.3955449821850994,1.5008002051106661,-2.3702812771690835,0.27500499784184385
0,7.588879398376258,9.364949908348809,5.241468682535562,5.520110248639996,0.2800050887116967
0,2.299113012345518,-2.094552897810919,1.7321411796227668,2.6505043562330575,0.28500517958154603
0,1.8093505674135462,-0.3240533703134568,2.912817733145058,0.6609010748495558,0.2900052704513989
0,1.4395920951186927,4.346448521030352,4.143498379578997,2.5713004334803973,0.29500536132125177
0,4.449837626768643,-0.8230471936853092,3.8141831550965275,2.6017024609155146,0.3000054521911011
0,7.550087193406476,4.087459515490748,5.19487209551226,8.202107185705598,0.30500554306095395
0,12.570340825605912,12.457968678260542,13.415565236174638,11.052514635972699,0.3100056339308068
0,10.350598553178788,8.468480323815431,11.046262611730297,12.232924839116354,0.31500572480065614
0,5.380860404981976,-3.2110055193895413,3.396964255896397,3.3733378215985725,0.320005815670509
0,10.561126408946734,7.04951117649839,11.747670201474037,13.393753608951624,0.3250059065403619
0,7.7013965921752625,3.4400304389745457,9.488380480445702,6.334172225854639,0.3300059974102112
0,1.051670980995977,-5.519447704746774,0.5290951239804687,0.16459369618574216,0.33500608828006406
0,9.051949601085123,7.891076772357339,8.299814162530673,6.665018043200158,0.34000617914991693
0,10.552232477544136,6.751603897151412,11.640537625953721,10.405445289685943,0.34500627001976625
0,3.592519634792496,1.3121336961527987,1.2612655434420383,3.1858754578721284,0.3500063608896191
0,8.972811096495127,1.9326661954299666,8.631997943474255,6.606308569326468,0.355006451759472
0,-7.496893114299186,-11.126798579188376,-8.457265146009835,-9.333255354897473,0.3600065426293213
0,5.253407025129634,6.033739398217137,6.903476302676636,4.557183706071014,0.36500663349917417
0,1.883711537395457,0.4642801537673966,2.1342223171304258,3.4676257731311164,0.37000672436902704
0,3.164020444983182,2.4848237135957163,4.29497292477143,2.9980708671002048,0.37500681523887636
0,-6.185666229812843,-7.464629896275826,-10.314271847216869,-5.651480991424045,0.3800069061087292
0,-2.525348464725435,-0.6040806497785001,-7.413511971605536,-7.841029781880119,0.3850069969785821
0,-5.285026237256675,3.086471479361703,-0.7327474207214839,-2.4605754833883475,0.3900070878484314
0,-6.90469952451407,-8.412973482416493,-8.45197816632649,-6.320118074564837,0.3950071787182843
0,0.13563169685432097,-5.6024155084879075,-6.231204179668463,-2.1496575335435475,0.40000726958813715
0,7.435967450548253,6.058145428108014,9.06957456847293,4.180806161907181,0.40500736045798647
0,-4.3836922396916105,-3.8912906454013405,-1.4096418924563698,3.0312730341459173,0.41000745132783933
0,3.2266526497295684,-4.480723701700136,1.7811464668849855,2.8817431053781477,0.4150075421976922
0,-0.8929978576882003,-0.3601537133324726,0.47193967566064354,-3.0477836024418257,0.42000763306754507
0,-2.112643738466771,-0.6995806526079522,1.5027377629276688,-0.1173070674892106,0.4250077239373944
0,19.777715030783945,20.77099550820042,20.043540757532462,15.673172731990864,0.43000781480724726
0,-8.071921526899443,-5.348425203592055,-5.445651312210763,-9.85634418250743,0.4350079056771001
0,0.06844661105041538,2.3721572387062824,2.3351615813590016,-1.0058577897948706,0.44000799654694944
0,4.638819466997212,9.99274286136224,7.135979465504094,1.3246319313132353,0.4450080874168023
0,7.019197063222205,8.85333169026255,5.636802367204043,1.395125002142216,0.4500081782866552
0,-2.6804205782696324,-2.6460762492958008,-0.852369686978071,-1.5143785559713483,0.4550082691565045
0,8.919966564167847,4.004519067443087,6.188463329110022,7.126121278225784,0.46000836002635737
0,4.490358511834829,8.735117664904594,4.939301441290215,5.286624525794102,0.46500845089621023
0,1.780755285608072,10.225719567103404,7.44014467497923,1.6171312074237885,0.47000854176605955
0,14.901156905865262,16.75632479730266,10.300993055023934,5.3276413433757215,0.4750086326359124
0,1.2015633923852242,5.056933377716053,2.311846605576529,2.7981549535326904,0.4800087235057653
0,1.2419747642951346,9.01754532946494,3.582705350123585,-0.14132794255569908,0.4850088143756146
0,1.1023910402672963,-2.161839327190828,2.03356931167144,-2.940807325560577,0.4900089052454675
0,3.4828122387607863,2.298779427492749,2.0544385129145133,-0.46028317617377607,0.49500899611532034
0,8.873238378018018,8.469401612980672,7.695312976274746,4.8302445249881325,0.5000090869851697
0,20.043669475781616,12.390027248370044,14.816192723750088,13.560775797197985,0.5050091778550225
0,1.5041055488812154,2.0806563520913643,3.9270777766102647,-0.27868934074740365,0.5100092687248754
0,15.944546613043535,14.651288941762473,15.757968155192334,6.741849129304433,0.5150093595947247
0,14.414992682921925,17.461925034108766,19.72886387877835,7.332391224947567,0.5200094504645776
0,15.805443771981455,13.572564644686507,19.83976496528771,9.332936963218737,0.5250095413344305
0,19.3258998922606,20.673207787588264,18.350671430916645,10.373486360433839,0.5300096322042798
0,29.616361054121715,25.52385447523752,29.001583289936804,18.334039431984095,0.5350097230741326
0,27.55682726585907,24.92450471809247,26.022500554481574,16.68459619206177,0.5400098139439855
0,16.367298533347885,8.665158524433163,16.373423234323948,3.865156653450233,0.5450099048138348
0,22.917774860079714,16.175815900572303,15.47435133697538,14.545720827631007,0.5500099956836877
0,28.608256247364388,25.59647685119388,27.8152848679928,24.96628872492014,0.5550100865535406
0,17.388742694306025,12.477141379329002,15.966223831036157,13.176860354218654,0.5600101774233899
0,21.86923419774909,14.627809486234186,19.44716822776561,17.027435722713264,0.5650102682932427
0,12.529730752457981,8.278481171581756,8.278118057962528,4.768014835968956,0.5700103591630956
0,9.820232351435589,7.439156433803099,6.83907331989653,10.228597698277563,0.5750104500329449
0,7.580738986303535,2.1198352704009826,4.640034010769254,3.699184312990364,0.5800105409027978
0,6.101250647664508,-0.479482321732947,5.081000127068611,5.829774682739409,0.5850106317726507
0,4.841767325350855,2.941203653977744,3.5119716647509405,1.2503688095941086,0.5900107226425
0,-2.76771099137327,-1.3581068060332762,-4.017051380628704,-0.34903330476970906,0.5950108135123529
0,-0.8371843135429144,-0.647413705403989,2.2539309862885593,-1.2784316588703968,0.6000109043822057
0,0.9633473477673066,-1.5967170477659631,-1.8850812391515326,0.6821737487477635,0.605010995252055
0,0.01388398152807191,-2.446016836658219,0.09591193843621415,-4.027217080404073,0.6100110861219079
0,-1.9155744232768979,4.49468692449482,-1.9430894855151095,1.7433958552809696,0.6150111769917608
0,-10.395027877572627,-8.974605767653923,-10.372085515433259,-7.995987442445734,0.6200112678616101
0,-2.794476391950278,-5.223894916296065,-0.9110761554077247,1.3146330283842937,0.625011358731463
0,-6.903919976464657,-5.613180524228591,-4.650061409051918,-0.17474273001747892,0.6300114496013158
0,-6.6033586405952915,-6.172462593692184,-5.159041279536881,-1.2541147152914043,0.6350115404711651
0,-7.362792393232633,-7.341741126345606,-5.888015769616999,-5.00348292499398,0.640011631341018
0,-3.7022212426388563,0.16898387672408433,-1.9969848815838613,-3.3628473564972183,0.6450117222108709
0,-7.991645196465725,-8.910287585067376,-9.56594861725317,-5.122208006845612,0.6500118130807202
0,-3.031064261796888,0.30044448812114494,-3.484906977938704,-0.4815648727037781,0.6550119039505731
0,-8.330478445164703,-11.078819903443092,-7.353859964390712,-7.090917950381969,0.6600119948204259
0,11.630112247358342,6.77191924094078,10.687192423127005,12.839732764066921,0.6650120856902753
0,-8.59929219010433,-8.247338077689493,-6.891749815455962,-0.21961272541940063,0.6700121765601281
0,-9.448691763365847,-8.006591858025919,-6.850686680190524,-0.8389544151863462,0.675012267429981
0,-1.768086477916797,-5.975842098325424,-6.239618170886541,-0.8882923018146929,0.6800123582998303
0,-4.96747633869068,-2.625088796231254,-0.30854428684703494,-3.3276263818856737,0.6850124491696832
0,-8.826861350099405,-9.38433194880221,-7.387465026885824,-4.446956651818189,0.690012540039536
0,-5.446241516024751,-8.53357155252638,-8.796380389378339,-1.806283107763438,0.6950126309093854
0,-1.8756168397501165,-3.8528076032175314,-4.055290372145756,2.734394254403485,0.7000127217792382
0,-2.7949873240520953,-0.9720400960334166,-1.6041949723976292,0.8450754389302573,0.7050128126490911
0,10.205647028553457,9.008730974242711,8.186905813053029,14.055760449929657,0.7100129035189404
0,-4.563713784489042,-7.03049438716771,-0.4819880125923288,0.21644929108447952,0.7150129943887933
0,4.256930234056545,-3.239716175134247,2.549123553628689,5.6471419654869415,0.7200130852586462
0,-5.43242091870882,-9.168934384348386,-5.6997594855209215,-5.4221615242303365,0.7250131761284955
0,-5.8617672456228975,-8.708149008990645,-9.348637127213655,-2.7314611755832727,0.7300132669983483
0,-5.301108749225648,-5.567360042538919,-6.0975093682081605,-6.81075698592066,0.7350133578682012
0,-7.060445431564643,-7.106567477731196,-4.096376204624901,-1.4400489522190967,0.7400134487380505
0,-10.95977729407933,-15.185771306568688,-11.535237631929249,-9.629337071013278,0.745013539607907
0,-7.839104337471589,-8.264971520184236,-8.964093644896044,-6.398621338329298,0.7500136304777563
0,-4.948426561618131,-6.244168108709797,-6.542944237483764,-3.767901749586194,0.7550137213476056
0,-3.4277439656575135,-5.433361061377234,-0.34178940285616943,1.0028217003595907,0.760013812217462
0,-3.9370565481830617,-2.352550366749827,-4.020629133616704,2.2835490169652926,0.7650139030873113
0,-20.536364307273388,-13.491736012850703,-21.51946342191348,-14.195719794186703,0.7700139939571606
0,-10.955667240183,-5.010917987087578,-11.568292259105085,-12.694984727176092,0.7750140848270171
0,-3.684965343010116,-0.5200962761598238,-4.367115635355779,-2.50424577530143,0.7800141756968664
0,-9.294258610782704,-10.38927086616495,-9.015933539697466,-6.313502930966178,0.7850142665667157
0,-0.4235470377729833,0.23155825727429225,-3.234745960350537,1.5472438140576885,0.7900143574365721
0,-3.7428306177243718,-5.077608891016915,-2.99355288493228,2.297994468315076,0.7950144483064214
0,-2.3221093440107183,-2.066772295829446,-1.622354300612884,-0.5312509595891132,0.8000145391762707
0,-7.901383209697521,-6.025931941624036,-3.641150194257861,-1.7104924611097996,0.8050146300461272
0,1.4293477925118632,3.494912187461752,5.2800594474756695,5.710269972259052,0.8100147209159765
0,-7.699916329705782,-12.504239892417264,-7.238725361963207,-1.5689636510448297,0.8150148117858258
0,0.7008244316637771,1.1066118352232073,-1.3075046090354605,-2.7381933226923643,0.8200149026556822
0,-3.488429915066396,-0.3825326127488691,1.2637217199800757,-0.06741903435876467,0.8250149935255315
0,8.822320638601285,10.948326780719967,9.984953638904894,8.443359222334543,0.8300150843953809
0,10.343076101043604,9.889190032419487,9.826191161287268,5.55414145560527,0.8350151752652373
0,4.033836480119568,14.310057158414196,7.317434300004083,4.744927673216994,0.8400152661350866
0,8.514601782966748,10.210928173732382,6.698683067103444,4.185717882384029,0.8450153570049359
0,15.595372015967069,19.431803092205207,18.68993747378918,14.946512089767838,0.8500154478747923
0,2.9461471846328937,8.152681926359268,5.101197530296192,4.927310301333832,0.8550155387446416
0,8.896927293548925,14.613564687388115,9.302463245788147,8.358112522199388,0.860015629614491
0,7.517712346498244,7.794451385248726,9.47373462846222,2.5589187566936684,0.8650157204843474
0,8.948502346534644,16.565342028756824,15.03501168561552,8.869729008512905,0.8700158113541967
0,-0.940702704009521,1.6162366256246055,2.1862944235620647,0.4405432808078641,0.875015902224046
0,9.960097196596521,11.897135182568622,9.677582847667159,11.85136157620913,0.8800159930939024
0,7.250902049567219,14.988037705414548,7.658876962510128,6.642183896770651,0.8850160839637518
0,12.551711855468831,14.678944198958893,12.710176771908133,10.793010243821143,0.8900161748336011
0,8.002526614011312,12.299854666718778,9.511482278782141,7.523840617846885,0.8950162657034575
0,12.933346323935616,15.960769110840966,15.182793485019353,12.774675018444917,0.9000163565733068
0,19.84417098290457,17.001687532082062,16.364110391334016,17.905513444214165,0.9050164474431561
0,-0.6949994126418051,1.3626099298043937,3.1454329971591046,2.056355892589306,0.9100165383130125
0,6.685835132624321,10.893536302186195,10.786761300759933,5.997202359907611,0.9150166291828619
0,-8.343325386617789,-6.205533353382814,-8.241904700416553,-5.201947158197199,0.9200167200527112
0,-3.21248097581456,-2.1245990398834134,-1.9805650092808422,-5.201092666310998,0.9250168109225676
0,-0.23163164018625204,-1.6736607602814253,1.0307803713177288,-4.960234168831389,0.9300169017924169
0,-3.9807773846435266,2.647281482644433,-0.6178685612841284,-3.2593716697351973,0.9350169926622662
0,-15.309918213769489,-19.56177231367934,-18.396511809561897,-20.45850517245581,0.9400170835321227
0,0.8409458683912368,-2.9708221513747053,-1.6751493755233153,-0.17763467965575952,0.945017174401972
0,-11.608185141498517,-6.569868031791065,-11.303781260385783,-9.096760193081128,0.9500172652718213
0,-10.227311246064215,-5.858909955513371,-8.042407464529479,-8.6258817136792,0.9550173561416777
0,-7.366432447140773,-3.3479479225320588,-6.291027987534743,-9.014999241671276,0.960017447011527
0,-7.745548745685558,-8.596981932311591,-8.409642828198258,-9.614112776462786,0.9650175378813763
0,-3.434660141857388,0.4839880161948855,0.1917480153813973,-2.013222316618356,0.9700176287512328
0,-5.173766635175539,-3.2150380755266736,-1.9368554543778962,-1.5223278600205254,0.9750177196210821
0,0.46713177532286826,-3.844060205676624,-4.73545323474615,-5.851429404117036,0.9800178104909314
0,-4.691964909062303,-7.793078372156225,-8.944045322706332,-3.8705269460263683,0.9850179013607878
0,-0.9210566867814294,-0.5920925724576115,-3.3626317147841482,2.670379517474473,0.9900179922306371
0,5.6098564438948335,-5.141102803629319,2.398787593015795,7.801289989788577,0.9950180831004865
0,4.930774484674345,-1.34010906235172,1.5502126049905078,8.522204474109852,1.0000181739703429
0,4.151697436965451,-0.509111345019824,3.071643325429279,2.423122973083383,1.0050182648401922
0,1.312625301756626,-2.5681096478228156,1.1430797584450505,0.37404548877538246,1.0100183557100415
0,3.5135580796767885,0.33289603319313066,4.934521907928342,1.894972022887948,1.015018446579898
0,5.724495771055666,5.743905702053153,8.365969777472564,8.765902576898997,1.0200185374497472
0,-0.5945616240986751,0.10491936269536606,3.6674233702182777,1.5168371519707495,1.0250186283195966
0,2.7463858939172248,3.625937018830916,2.5888826887682757,0.7477757488553429,1.030018719189453
0,-0.4526616753967274,4.156958673911668,1.4703477352855878,5.138718367974959,1.0350188100593023
0,2.218295667336429,6.42798433107909,3.8218185116393717,0.5296650095058272,1.0400189009291516
0,2.9892579213748496,4.799013993048155,4.29329501944049,-1.16938432659693,1.045018991799008
0,1.3702250858084715,4.490047662031497,2.584777259988348,1.7415703594908767,1.0500190826688574
0,-0.8088028404614851,3.8610853397517504,0.2962652342587487,-1.3274709324425003,1.0550191735387067
0,0.3721741413472993,5.412127027484557,2.2277589429844777,1.323491797377162,1.060019264408563
0,-2.1368439700008794,-1.1768272738986514,-3.0907416132370154,-2.3255414512808654,1.0650193552784124
0,-1.265857175684355,-0.805777563811948,-6.139236433799968,-4.434570678590214,1.0700194461482617
0,-0.2548654767750904,1.3552761582296327,-4.997725517861836,-4.493595884528472,1.0750195370181181
0,-0.50386887423986,-0.5536661072934113,-0.40620886416993707,-3.8526170687296384,1.0800196278879675
0,-1.6828673689696516,2.7173956400736117,-0.17468647110975843,-4.041634230422982,1.0850197187578168
0,-5.061860961751414,-3.8215385992653665,-4.3431583368621665,-1.060647368455837,1.0900198096276732
0,-1.1008496531668326,-0.3004688249055548,1.1183755405376408,-1.8396564813697918,1.0950199004975225
0,-1.2398334435342435,-2.1793950363447943,-1.5000848367982802,-2.0586615674883575,1.1000199913673718
0,2.751187667015236,8.391682767008545,6.3714605333058545,4.052337375008149,1.1050200822372283
0,7.41221367834107,7.022764585609198,8.803011652871083,3.713340347944432,1.1100201731070776
0,-11.956755409868359,-13.876149580426295,-9.545431476440864,-8.055652646982763,1.1150202639769269
0,-10.135719597902153,-10.985059731024213,-11.243868853134895,-8.554641608050394,1.1200203548467833
0,-5.944678885526747,-4.443965865531503,-3.9923004753223,-6.70362653310686,1.1250204457166326
0,-5.733633271712634,-3.402867982469718,-4.960726340397374,-3.642607419329473,1.130020536586482
0,-1.5025827547448187,-2.571766079747621,1.1508535548371688,0.2684157366940449,1.1350206274563384
0,3.4284726675231547,1.4593398450792194,3.8824392138738086,-0.20055706128092343,1.1400207183261877
0,12.489532997309444,4.450449794596447,9.804030640153893,8.720474190572375,1.145020809196037
0,12.14059823639986,7.041563771268514,12.145627836666403,9.761509495831929,1.1500209000658934
0,19.611668385634786,17.832681777097342,16.837230805542372,15.83254885742641,1.1550209909357427
0,27.81274344443931,24.443803813127317,25.208839547643276,22.893592277191658,1.160021081805592
0,29.633823410292592,22.684929878819467,27.140454062080973,19.774639755416608,1.1650211726754485
0,36.6449082781616,30.666059971525655,32.89207434570133,25.40569129047255,1.1700212635452978
0,29.145998040064324,21.167194086189607,25.55370039268582,21.50674687860516,1.175021354415147
0,29.39709268490044,26.158332215258916,32.80533219437801,25.08780651383432,1.1800214452850035
0,28.74819219854114,25.80947434872889,27.086969739257984,24.49887018789554,1.1850215361548528
0,28.81929656397551,22.250620474173164,25.7786130129684,19.269937890215132,1.1900216270247022
0,31.450405761355874,29.681770576734163,31.69026199838731,24.24100960796623,1.1950217178945586
0,19.601519768017507,17.942924639121678,20.331916675696203,15.532085326183454,1.200021808764408
0,15.072638558700778,16.20408264172668,16.50357702253073,12.923165027940703,1.2050218996342572
0,19.703762106002042,16.6752445629303,20.705243014327202,12.664248694645247,1.2100219905041136
0,22.684890380679835,19.046410379382056,18.48691462461421,17.955336306288466,1.215022081373963
0,24.806023351583455,27.64758006598639,28.128591825016937,23.236427841411373,1.2200221722438123
0,25.407160985403145,23.548753595630572,23.670274585051434,20.587523276820708,1.2250222631136687
0,21.15830324650285,23.34993093891099,21.35196287192358,19.808622587338164,1.230022353983518
0,22.35945009692511,25.851112064048625,24.123656650510217,21.879725745742398,1.2350224448533673
0,8.190601496575365,12.032296936966867,13.795355883489155,7.580832722866956,1.2400225357232237
0,16.011757403575544,18.643485521526372,15.407060531563111,13.081943487874241,1.245022626593073
0,19.382917774567,16.94467777981936,17.80877055372983,13.193058008597234,1.2500227174629224
0,16.574082564697772,16.36587367229434,19.210485907390808,14.464176251663893,1.2550228083327788
0,19.135251727447866,13.88707315777055,20.82220654824322,15.875298182406812,1.260022899202628
0,6.9264252146143575,7.218276193561085,6.513932430208306,0.5964237648388091,1.2650229900724774
0,9.457602976547221,12.589482735717656,8.03566350566291,10.957552961879271,1.2700230809423338
0,20.318784962422715,22.94069273914422,22.327399725790293,17.798685735575596,1.2750231718121832
0,15.119971120199578,17.111906157361698,17.889141040542135,12.849822046952507,1.2800232626820325
0,4.021161396429021,7.493122942240155,5.370887398350873,4.3809618557742205,1.285023353551889
0,7.662355736413269,10.11434304414523,10.9426387462054,3.7521051207058678,1.2900234444217382
0,13.303554084547779,13.475566412284108,13.784395029976439,9.983251799679323,1.2950235352915875
0,18.07475638432432,17.446792994773496,17.376156194453834,8.424401850009964,1.300023626161444
0,19.735962577977403,19.598022738401745,20.31792218307787,9.985555228264367,1.3050237170312933
0,19.50717260611107,18.98925558833725,20.58969293763168,16.35671189009293,1.3100238079011426
0,23.228386407471064,24.62049148791337,24.851468397996403,15.327871790023542,1.315023898770999
0,18.039603918824163,22.61173037844903,19.48324850197671,17.13903488121437,1.3200239896408483
0,22.060825074920068,23.11297219909074,24.46503318522098,22.770201115249055,1.3250240805106976
0,12.822049808549577,10.574216886816618,10.636822381274788,6.54137044201741,1.330024171380554
0,18.79327805069051,17.195464376697757,15.408616021811472,12.372542809832646,1.3350242622504034
0,16.514509730646672,12.336714602224626,11.84041403695406,2.123718165795687,1.3400243531202527
0,13.24574477610648,9.337967495504056,11.702216355495185,5.424896456172959,1.3450244439901091
0,9.776983113236902,7.089222987438572,7.244022905025899,5.556077626646182,1.3500245348599584
0,3.1682246669472836,-1.5295189919788799,1.7558336121405205,-1.8027383775525498,1.3550246257298078
0,-8.620530638657854,-9.538258513221493,-5.612351597196872,-8.661551611442261,1.3600247165996642
0,-3.269282879678899,-5.896995646667863,-0.40053279719489066,0.9096378700607131,1.3650248074695135
0,-5.828032131922619,-9.995730462149684,-2.958710061916242,-5.539169987621895,1.3700248983393628
0,-8.71677847069102,-8.284463028747716,-10.406883465147587,-11.967975238671572,1.3750249892092192
0,-9.535521970670604,-9.823193414714453,-10.175053080208219,-11.596777936675446,1.3800250800790685
0,-5.384262705802676,-3.4219216874603005,-6.113218979677789,-11.665578134300276,1.3850251709489179
0,-15.803000749205136,-17.010647913587437,-15.521381235249464,-18.094375883069855,1.3900252618187743
0,-18.391736173017257,-21.849372158736063,-19.989539917582263,-19.103171233169682,1.3950253526886236
0,-17.34046904805807,-19.538094487130838,-19.077695095954486,-13.601964233221544,1.40002544355848
0,-13.989199443550113,-14.906814961196662,-13.365846837953079,-13.340754930225373,1.4050255344283293
0,-23.53792742705424,-25.415533641491358,-22.713995209423054,-16.929543369680836,1.4100256252981787
0,-39.88665306426997,-39.084250586562526,-39.712140274339994,-31.058329595551527,1.415025716168035
0,-48.79537641832246,-49.07296585229687,-46.24028209415952,-37.77711364978851,1.4200258070378844
0,-45.10409754875868,-41.9216794909934,-46.00842072684597,-35.00589557158157,1.4250258979077337
0,-42.44281651087157,-46.26039155074955,-42.666556226189044,-35.20467539681463,1.4300259887775901
0,-32.32153335564508,-33.27910207536928,-31.034688641702004,-21.66345315799464,1.4350260796474394
0,-32.850248130130275,-34.657811104625644,-31.492818018990185,-24.722228884581817,1.4400261705172888
0,-28.358960877916758,-28.30651867467795,-28.810944400263757,-23.63100260342881,1.4450262613871452
0,-44.58767163938661,-43.26522481837469,-42.1490678246088,-33.519774338963884,1.4500263522569945
0,-27.886380451633528,-22.62392956529242,-23.34718832793449,-20.928544113074224,1.4550264431268438
0,-24.9250873484011,-28.48263294180265,-28.205305942976782,-21.277311945057715,1.4600265339967002
0,-11.33379236047992,-16.941334971427704,-16.063420699632275,-5.73607785193419,1.4650266248665496
0,-25.732495516366733,-27.08003567525773,-28.071532625380044,-21.22484184896387,1.4700267157363989
0,-12.59119684266439,-18.928735072157934,-14.579641745510969,-7.753603949987664,1.4750268066062553
0,-36.65989636407805,-34.37743317874823,-33.25774808317015,-27.09236416744826,1.4800268974761046
0,-20.858594103137502,-18.546130009244248,-20.555851659253616,-10.361122512230436,1.485026988345954
0,-35.08729007984865,-30.044825575345584,-28.833952492240492,-25.379878993504505,1.4900270792158103
0,-3.7459843116088285,-1.7435198863796395,-2.2420505982445103,1.9813663812507274,1.4950271700856597
0,-18.044676813601477,-10.512212949808989,-16.300145991469282,-8.267386394097107,1.500027260955509
0,-28.01336759928153,-24.380904771783424,-26.63823868465004,-21.506137324739495,1.5050273518253654
0,-18.252056680347053,-17.399595357143756,-18.846328688933024,-9.904886414875428,1.5100274426952147
0,-7.440744066520248,-2.0482847091373904,-8.024416013573022,-10.383633667424807,1.515027533565064
0,-1.859429765872532,-6.826972829627005,-0.7725006661883311,0.2976209158795364,1.5200276244349205
0,-35.74811378532536,-35.95565971944314,-33.000582653263294,-31.13112266576158,1.5250277153047698
0,4.823203869401325,3.7156546218419564,5.101338019828747,7.090135587869829,1.530027806174619
0,-6.885476806091754,-1.9330298039307445,-0.5567386511333277,-0.11860432198683504,1.5350278970444755
0,-31.77415581513693,-26.591712993929747,-29.094812669557896,-23.687342393447985,1.5400279879143248
0,-9.052833159885989,-7.180394944433202,-5.402884038014892,-3.0760786240131184,1.5450280787841741
0,-1.2015088409638373,-3.4390756505277826,-0.40095275789498674,-0.054813010281491145,1.5500281696540306
0,-23.570182857676603,-23.197755106153494,-25.91901882951201,-21.05354554803307,1.5550282605238799
0,15.521144791607265,13.103566695697257,9.072917747719567,11.507723767616046,1.5600283513937292
0,-34.43752589070385,-25.225110237158773,-30.685143024659517,-30.091005057758206,1.5650284422635856
0,13.653805098568409,13.906214103732152,15.316798855847818,12.470267982169716,1.570028533133435
0,-43.00486223644489,-40.83246027252286,-45.23125660730138,-39.5784571053903,1.5750286240032842
0,-15.41352789022629,-16.751133355693675,-16.079309409318054,-12.377180311982034,1.5800287148731407
0,-0.3221918554327566,4.440194866137123,-1.5973595435458559,3.06409837245895,1.58502880574299
0,-17.020854123082824,-18.93847559358431,-17.155407001589506,-12.644621040660684,1.5900288966128393
0,-22.349514682995164,-20.77714472032971,-22.153451773775764,-15.253338539103119,1.5950289874826957
0,-4.928173523691131,-8.315812498328576,-2.611493849112555,-1.7920541097853568,1.600029078352545
0,-14.946830632248052,-15.944478910317782,-14.299533215220453,-14.730767738644703,1.6050291692223944
0,-15.405485994457546,-11.4531439376511,-9.597569858574001,-9.379479410688704,1.6100292600922508
0,-7.054139594891095,-10.241807560429613,-8.335603764642485,-6.368189109983114,1.6150293509621
0,-9.192791416935668,-12.120469757573924,-10.253634917915068,-10.756896819660966,1.6200294418319494
0,-18.161441442920026,-10.599130506894817,-18.301663301894507,-12.405602521967015,1.6250295327018058
0,-7.360089654084406,-12.127789785109295,-9.379688898944801,-6.714306198197984,1.6300296235716552
0,-0.9187360305540455,1.473552432096731,-2.0677116902199684,-3.8630078287095917,1.6350297144415045
0,-4.097380551639766,-3.0951038302048044,-3.155731655953712,-3.7017073931280713,1.6400298053113609
0,4.193976803745388,-1.9037585465489415,0.7162512241081247,0.19959512938931012,1.6450298961812102
0,20.36533605667873,18.577588308613556,17.20823697032021,14.390899759863034,1.6500299870510595
0,-2.93330277228788,1.3989367605069036,0.010225602681370849,-0.49779348092739784,1.655030077920916
0,-7.741939663305523,-10.24971316622971,-9.647782859377891,-8.016484572649663,1.6600301687907653
0,4.269425403223141,6.601638552760395,4.844211603354586,1.4748265048812348,1.6650302596606146
0,19.89079244690069,16.40299194180047,16.84620901011782,14.126139771946042,1.670030350530471
0,8.71216148684251,17.164347024709787,14.248209379711772,10.817455248559742,1.6750304414003203
0,9.71353254110941,11.365703824122853,9.950212729854268,5.558772953936928,1.6800305322701696
0,4.0349056266724554,7.077062361287735,5.9222190770245575,1.0300929064024713,1.685030623140026
0,8.876280759662318,8.328422656296375,10.774228436679069,9.71141512364468,1.6900307140098754
0,5.60765795552242,3.259784728378269,5.79624082343118,2.482739622861192,1.6950308048797247
0,18.239037228966808,16.701148596036123,15.768256251058764,14.164066420689412,1.700030895749581
0,12.910418593741504,8.822514276947189,10.350274732382493,9.515395533030498,1.7050309866194304
0,18.07180206231087,13.493881787751603,14.642296279099144,10.876726974850472,1.7100310774892797
0,20.883187645622442,21.905251143878672,19.434320901633214,12.088060760069414,1.7150311683591362
0,23.2845753528878,17.176622359310272,22.196348608917894,14.509396901509419,1.7200312592289855
0,23.655965191325834,26.817995446264206,21.268379408086858,20.110735410752323,1.7250313500988348
0,6.7273571660693845,8.019370415013336,7.970413304334099,1.6420762979898835,1.7300314409686912
0,13.488751280447,16.020747274006467,10.842450301157768,5.93341957217587,1.7350315318385405
0,20.63014753636964,22.482126030114767,20.554490400722603,12.454765241405934,1.7400316227083898
0,25.271545934291318,24.363506688569803,23.236533603831685,16.456113312992894,1.7450317135782463
0,23.472946472784948,19.434889252631308,23.328579909516822,16.52746379313896,1.7500318044480956
0,13.034349148264429,19.746273723430548,19.34062931470861,9.888816686642883,1.755031895317945
0,15.365753955134567,19.027660100061937,13.712681814240034,9.430171996925084,1.7600319861878013
0,20.84716088609732,19.90904837969243,19.13473740107757,14.58152972622363,1.7650320770576506
0,23.28856993218355,27.010438557545434,21.80679606647502,19.88288987561435,1.7700321679275
0,13.369981082560585,11.78183062680403,11.538857799934252,11.574252444796123,1.7750322587973564
0,0.811394324613396,6.483224578737619,5.9109225892941435,-0.7643825679482457,1.7800323496672057
0,2.552809644509056,5.714620403213548,4.642990421152304,1.2569848346792667,1.785032440537055
0,-3.2057729721249464,0.4960180892688064,-0.5349387186331502,-2.861645350411379,1.7900325314069114
0,-2.7543535397608334,-5.502582374476536,-5.9328648445387415,-2.7902731263216465,1.7950326222767607
0,-4.472932072726404,-3.1511809994459945,-8.160787970976351,-4.598898495978124,1.80003271314661
0,-2.6415085850611644,-4.559777796804461,-1.1987081119503373,-3.157521462012384,1.8050328040164665
0,-2.7900830904735403,-4.4683727773324975,-3.966625280965898,-6.99614202668313,1.8100328948863158
0,-6.9086556023397385,-8.186965951375178,-10.814539491087142,-5.094760191803281,1.8150329857561651
0,-5.457226133641035,-5.405557328751859,-6.692450754850301,-3.6733759586790757,1.8200330766260215
0,-7.885794696841156,-8.134146918665095,-6.420359084090616,-6.06198932811444,1.8250331674958709
0,-0.04436130382734538,-4.842734729665876,-5.058264489924202,-0.1906003004638298,1.8300332583657202
0,7.47707403393191,4.188679230265888,8.08383301707013,7.340791124220173,1.8350333492355766
0,-1.3014886949790263,0.5500949534528226,-1.954066573489535,-0.8078150541119342,1.840033440105426
0,-2.7700495021514726,-6.228487567743491,2.2180367279159645,3.4335811642627467,1.8450335309752752
0,-0.4186083992409282,4.012931659073185,1.0201429106508688,7.964979778786597,1.8500336218451316
0,3.6328346021725513,4.774352626360881,6.262251963933808,6.826380788516241,1.855033712714981
0,8.884279490456993,5.965775326426808,4.294363876725367,8.377784191921249,1.8600338035848303
0,6.295726253620132,4.417199751171777,5.406478637581559,7.239189986759116,1.8650338944546867
0,-4.102825120869032,2.46862589201542,2.2085962345977004,-0.739401829905572,1.870033985324536
0,3.2286253540701506,1.810053739970487,7.460716655429713,8.102008738450717,1.8750340761943853
0,2.0000776653701244,4.921483285741662,3.962839887289225,5.393421687920978,1.8800341670642418
0,10.241531799795954,9.962914519699986,14.514965916843764,17.544837014038137,1.885034257934091
0,4.802987743707247,8.764347431681626,8.387094730016422,10.746254711452481,1.8900343488039404
0,4.8944454828743895,10.425782010751037,8.43922631180255,11.15767477366323,1.8950344396737968
0,11.775905002439877,10.417218245062642,10.361360646244922,9.629097192986633,1.9000345305436461
0,11.797366286829593,10.858656121796141,15.003497716441775,12.390521960652753,1.9050346214134954
0,7.238829319559356,5.770095627143907,4.565637504463091,6.02194906686455,1.9100347122833519
0,5.570294083187276,6.081536746406954,5.90777999137997,5.143378500891938,1.9150348031532012
0,1.991760559500403,6.462979464160225,7.779925157477037,11.864810251227068,1.9200348940230505
0,1.5632287297760699,7.174423764348818,5.872072982395372,5.136244305631733,1.925034984892907
0,0.0746985750006186,-1.5841303696665485,-1.955776554810877,-3.752319348829584,1.9300350757627562
0,0.8761700760137895,-0.1626829549420563,3.236376524500443,-2.760880725492214,1.9350351666326056
0,0.5676432135775198,0.8687659913085497,3.6185321987517014,-1.6894398376742052,1.940035257502462
0,-6.950882031561101,-5.269783548116673,-5.829309553793703,-1.7479966984809705,1.9450353483723113
0,-3.3794056785074993,-3.0183315902911056,1.162851245063441,-1.2065513208160117,1.9500354392421606
0,5.792072253914461,4.853121847928185,6.705014573558296,6.664896282527732,1.955035530112017
0,5.273551746997123,7.104576749755961,8.667180409787433,1.8363460986806905,1.9600356209818663
0,3.8050327817942686,2.426033098147515,3.779348731375599,1.587798114515525,1.9650357118517157
0,2.6265153389379323,1.0274908756334864,3.4115195153477686,2.329252316629891,1.970035802721572
0,5.437999398660366,2.8889500644107313,5.653692738221485,9.610708691363051,1.9750358935914214
0,-2.140515059146246,-0.8195893535291416,0.5358683761039091,-1.0478327753083256,1.9800359844612707
0,-3.0590280548047155,-3.1181273963008875,-1.7619535952127077,0.333627902198381,1.9850360753311271
0,-1.5675396086241842,-0.6366640819861078,-0.1797732000701484,3.185090709228326,1.9900361662009765
0,-0.31604974074271186,-2.3051994285206416,-5.2775904627568,2.2265556309905,1.9950362570708258
0,-0.14455847114524012,0.9062665463145122,-2.96540540736825,1.4180226525127169,2.000036347940682
0,-3.3030658197246074,2.6677338248187263,0.2567819422784472,-1.0605082413660119,2.0050364388105315
0,-0.6815718062665235,3.2692023892334077,2.2989715625839233,3.2109629340741512,2.010036529680381
0,-1.280076450406237,0.9506722216090906,0.371163429985538,1.512436163456234,2.0150366205502372
0,-3.6685797716193624,-0.3278566962147682,-3.7166424791379504,-4.936088568703646,2.0200367114200866
0,5.342918210758928,3.1336156174596366,-0.28444618838663693,4.695388722075436,2.025036802289936
0,1.2344174774250984,-1.9049108557656922,0.4977522787559976,1.946868020271967,2.0300368931597923
0,4.645918008919125,5.476563865612024,4.669952898864569,5.748349310221559,2.0350369840296416
0,8.147419785465551,4.748039762928568,6.862155648369555,5.049832575933696,2.040037074899491
0,3.7889227868350055,-0.6304831827648145,2.4443605033384657,1.4513178010000853,2.0450371657693474
0,0.8204269922827883,-4.519004990669221,3.82656743938859,2.0128049686284983,2.0500372566391967
0,-2.808067619304137,-3.4775256799804612,0.3887764317567932,0.9242940617611356,2.055037347509046
0,7.2034389308141415,4.173954730316467,2.900987455411771,4.395785063151173,2.0600374383789024
0,1.934946621249872,-3.924563778600323,-1.2067995148633681,-2.642722044630492,2.0650375292487517
0,3.456455430347263,5.656918774468195,4.315415495578871,3.9587727208315004,2.070037620118601
0,-1.1720346638555066,-0.05159762935354828,-2.272367538734213,-6.539730658119688,2.0750377109884575
0,0.6294763164873096,-0.7101130090719852,2.3698513566197024,-4.398232199062155,2.080037801858307
0,2.3809883491385255,0.2613726162101446,0.7920721559856416,1.4032680806829305,2.085037892728156
0,-0.48749858820963854,-5.237140772591609,0.924294833626234,-2.785229835926579,2.0900379835980125
0,-3.095984517929523,0.7743468055691684,-0.09348063629065528,-0.7837259657647704,2.095038074467862
0,0.825530537633239,6.005835331872767,-1.271254279654619,-3.052220325573752,2.100038165337711
0,-4.192953443751562,1.4773247874418411,-4.20902612232259,-8.310712931882787,2.1050382562075676
0,-1.031436484156977,0.7688151531520616,3.513203809972712,-2.2392038008575974,2.110038347077417
0,2.5500813945047986,0.4503064096526963,2.9454354915803433,-2.917692948208804,2.115038437947266
0,2.1316001703816907,-3.2782014624986138,2.9676688967414657,3.2038196107071726,2.1200385288171226
0,-3.606880178450903,-2.9667084826905232,-2.210096000529085,0.6453338606637153,2.125038619686972
0,1.884640326025015,-0.435214670132658,0.9121407736302813,4.906849786356157,2.1300387105568213
0,4.626161661817802,3.7362799561386426,1.1943791930421817,6.128367372239336,2.1350388014266777
0,-1.4323161931622195,-1.812224622884818,-1.1733807684902622,-0.2601133975941343,2.140038892296527
0,1.0792067388307434,0.2492715737235951,0.8188608628072706,2.691407460591151,2.1450389831663763
0,-1.8492695645443455,0.880768526856913,-0.7088959392983014,-0.7170700697003494,2.1500390740362327
0,-1.4377451256076808,0.6622662173949663,-2.6466512010152945,-4.655546005047441,2.155039164906082
0,-3.5562199665724084,2.243764626160595,-1.6844049484642158,-4.174020361928082,2.1600392557759314
0,-5.384694109441576,-2.194736266111792,-3.552157207593977,-3.8524931565240115,2.165039346645788
0,-5.663167575876473,-3.773236478714841,-2.3099080041226214,-4.620964404624679,2.170039437515637
0,-5.631640387073835,-2.2217360308142426,-1.7976573635141144,-7.019434121593721,2.1750395283854864
0,-0.04011256373370786,4.3097650586297505,-0.5054053110044263,-1.1179023223287938,2.180039619255343
0,-0.8785841261732226,2.311266770724277,0.15684812832536643,-1.286369021300227,2.185039710125192
0,7.042944905442134,9.532769086381816,8.49910292941493,8.175165767243065,2.1900398009950486
0,4.094474510817545,-0.345728013891069,1.21135906700709,-0.7332979710252603,2.195039891864898
0,6.29600466928488,5.615775449955713,4.833616515474578,5.678239749290844,2.200039982734747
0,5.707535359671832,8.07727945755268,2.7658752488033618,8.859778913231139,2.2050400736046036
0,0.129066560294113,5.3687839880462525,0.22813524065287316,2.30131950536601,2.210040164474453
0,1.460598249068386,4.460289019995236,4.330396464424513,4.532861509724933,2.2150402553443023
0,5.822130403658341,3.411794531402037,1.7626588932983576,5.144404909861126,2.2200403462141587
0,3.683663001472285,3.033300499824685,2.6149225002150853,9.165949688871265,2.225040437084008
0,2.0151960195673455,1.7448069024707458,-2.722812742102978,4.337495829290159,2.2300405279538573
0,1.1367294346596315,5.336313716251814,1.3194531389599717,3.629043313037064,2.2350406188237137
0,-1.0317367767550465,1.5178209177818747,-2.2282798839737845,1.550592121520535,2.240040709693563
0,9.669797361672387,7.2493284833379645,8.27398816172412,8.112142235767934,2.2450408005634124
0,6.57133182601336,4.910836388794652,8.456257248494905,8.62369363638511,2.250040891433269
0,1.6828665918337609,-4.447655390400269,-1.381472651673722,-1.124753696581307,2.255040982303118
0,6.414401634150438,1.6738531209339587,1.5007984327336348,5.716800216385895,2.2600410731729674
0,4.635936927515399,-1.624638102054048,2.5530704729744356,1.5583553544367095,2.265041164042824
0,-2.7725275539307908,-1.9031290841472308,-1.4446565598199068,0.30991169644755734,2.270041254912673
0,1.629008163674431,0.8683801499581547,-0.7023826945999105,3.6414692210758073,2.2750413457825225
0,1.0305440540967408,-0.10011042435577244,1.6498920396724288,6.433027906766914,2.280041436652379
0,1.7320800910463106,-0.11860083167919733,0.3021676140383831,0.9445877316538828,2.285041527522228
0,10.553616248066147,9.782908903335077,8.18444399944768,9.906148673460752,2.2900416183920775
0,3.4351524983232404,3.2244187557778883,3.8667211665802372,2.8377107094398024,2.295041709261934
0,5.146688814435585,6.595928700267558,10.058999085644224,7.529273816304359,2.3000418001317833
0,2.0082251684904033,5.697438710871754,7.231277726216418,7.020837970190963,2.3050418910016326
0,1.6797615321801134,0.22894876113900442,-4.326442942787608,2.952403146642688,2.310041981871489
0,7.641297876890146,7.610458824177567,3.0158370471020968,9.193969320617763,2.3150420727413383
0,9.912834173617533,5.36196887269043,8.198117664152807,8.805536466472256,2.3200421636111876
0,10.304370392723357,5.583478878897762,11.100398876315744,16.177104557798703,2.325042254481044
0,5.265906503727054,6.9149888144590745,6.4026806508862695,7.078673567189295,2.3300423453508934
0,5.767442475320333,9.09649865042923,5.934962954344204,3.650243466179966,2.3350424362207427
0,0.4289782755483871,-1.5319916427703033,1.5672457524611938,-2.638185774472043,2.340042527090599
0,7.160513872000644,11.139517904716755,9.369529010473364,8.303385815599869,2.3450426179604484
0,10.122049231842288,12.781027262189927,11.501812693077902,6.174958206486917,2.3500427088302978
0,12.693584321607673,13.292536398131617,13.764096764191525,12.756531367791048,2.355042799700154
0,3.085119106956485,2.6440452799555514,7.226381186693934,1.3981052683831852,2.3600428905700035
0,3.276653552699493,5.125553874115296,4.368665922422325,0.9896798764273326,2.365042981439853
0,10.758187623018891,12.627062146364603,13.220950932357841,11.491255159594232,2.3700430723097092
0,2.9097212815449827,6.608570061776929,3.603236176718341,4.312831085100585,2.3750431631795585
0,1.8212544913345639,8.310077584612078,5.46552161496738,0.0944076196050545,2.380043254049408
0,3.1027872149931524,3.1915846783279034,2.8478072059378703,1.805984729309657,2.3850433449192643
0,6.924319414805301,11.243091305694758,10.610092907960912,10.367562380130956,2.3900434357891136
0,10.095851052650339,10.784597428784323,12.49237867877408,13.129140537558529,2.395043526658963
0,4.997382089791584,3.1861030088472804,5.024664475289969,2.0707191663262687,2.4000436175288193
0,7.778912486767219,5.417608006336554,9.026950253511803,5.582298230340715,2.4050437083986687
0,6.590442203415093,9.659112381066858,6.2892359686323225,2.8538776928964795,2.410043799268518
0,9.041971198890296,10.78061609221091,10.021521575101946,11.255457516816135,2.4150438901383744
0,11.55349943159679,6.992119098132176,11.743807026575396,10.137037664333375,2.4200439810082237
0,7.4750268590733695,8.0036213563131,8.326092275796523,7.618618096874025,2.425044071878073
0,7.386553437949781,11.935122823391822,12.038377274521812,11.540198774946612,2.4300441627479294
0,5.168079124034655,2.4866234551724027,4.870661973533774,4.83177965815527,2.4350442536177788
0,7.0096038724462115,7.198123206681099,4.8629463227527285,5.563360705283953,2.440044344487628
0,-1.4188723622738535,4.909622032308777,1.5152302714495538,5.984941874440754,2.4450444353574845
0,2.7526503740072013,5.281119885898428,3.3275137684684393,0.6565231231928315,2.450044526227334
0,1.7641720351939758,6.242616720756642,2.8597967623517078,0.7381044087032804,2.455044617097183
0,-0.9443074249547063,0.1841124896805999,6.202079201346217,1.3096856879058545,2.4600447079670396
0,10.39721194715666,9.985607145015674,10.46436103328936,11.24126691755447,2.465044798836889
0,2.8087301048283364,7.027100638630358,0.9766422054413018,0.09284805405896113,2.470044889706738
0,1.600247000914504,6.658592921774263,5.308922664455416,2.514429053364453,2.4750449805765946
0,-2.5282374121039632,0.9800839450278684,0.1012023565268998,-0.413990128927622,2.480045071446444
0,-3.4367231818538153,0.5715736584691675,-3.1765187724135857,-5.602409537334195,2.4850451623162932
0,-0.3952103558397808,2.303062011907492,-1.724240776486461,-4.750829216253665,2.4900452531861497
0,4.2763010185947685,4.574548954982934,4.868036290281461,1.240750790223212,2.495045344055999
0,1.7378108941049737,2.526034437104813,-2.509687626100197,0.7623304382834619,2.5000454349258483
0,4.269319223152248,8.307518407343672,6.352587420284164,0.4839096841968735,2.5050455257957047
0,3.7408259579057725,3.15900081433081,3.734861375156309,-1.2845115157997218,2.510045616665554
0,2.4023310502049595,0.8304816062227376,-2.2928658160395603,-4.692933205453507,2.5150457075354034
0,3.9038344515556433,6.811960730781202,5.489405791887345,4.338644571606583,2.5200457984052598
0,-0.40466388683388477,1.6634381354340535,0.2616761439466311,-3.8997782281302666,2.525045889275109
0,5.096835985999794,2.504913767265112,1.4539451849652902,-1.098201648109701,2.5300459801449584
0,-1.7816659791882432,-6.433612426895317,-1.4337871403856526,-4.656625731657131,2.535046071014815
0,5.549830168166627,0.917859499760652,4.168479112481458,5.78494947808923,2.540046161884664
0,6.5513243783975215,3.109329494163503,5.950743888031914,3.126523938051597,2.5450462527545135
0,2.3028166014735025,0.8907975032704849,1.1830071304526804,-5.14190239498379,2.55004634362437
0,0.8943067869386587,-4.1777365260541925,-0.054731216407896355,1.4896704356587345,2.555046434494219
0,0.36579488403540794,-4.916272646928465,-3.9924712088893504,-2.928757613287021,2.5600465253640685
0,-3.172719158111903,-6.844810912196934,-6.050212903260183,-5.67718658492997,2.565046616233925
0,-8.781235390297256,-12.813351374183577,-9.957956355440974,-10.045616522077275,2.5700467071037743
0,-8.879753862945613,-11.491894084435177,-11.115701620723549,-9.414047466964588,2.5750467979736236
0,-4.368274625842876,-10.070439093492702,-7.633448753547189,-8.22247946102522,2.58004688884348
0,-1.6467977281010828,-7.938986450830047,-0.0511978074795878,-6.330912544830641,2.5850469797133293
0,-2.64532321834707,-3.1975362049826166,-3.4089488354562976,-6.48934675816791,2.5900470705831786
0,-1.333851144914248,1.4139115961886954,-4.766701890045377,-2.7477821401604996,2.595047161453035
0,0.8276184440546073,2.4653569051449815,1.2855429764656066,-0.9462187294177999,2.6000472523228844
0,0.5290855005166681,-0.15320032563724695,-2.142214287971743,2.4053434357559214,2.6050473431927337
0,3.7705499764114374,4.088239856192397,-0.18997373526260697,-1.813095682850013,2.61004743406259
0,-8.50798817639288,-4.580322597150483,-7.267735417187335,-9.641536123391553,2.6150475249324394
0,1.923470994011745,5.501112266467206,2.264500614688214,3.730022076200937,2.6200476158022887
0,1.1449274396951474,2.152544399100128,5.446734308993006,0.871578878282455,2.625047706672145
0,8.896381112759311,7.123973752592884,7.508965614273083,6.413134245257592,2.6300477975419945
0,11.12783196498482,20.735400278305637,11.061194478614432,5.464688139277228,2.635047888411844
0,11.059279947449388,15.676823926652013,10.453420849349303,6.556240522041209,2.6400479792817
0,13.580725010248608,10.288244646657224,13.555644672852788,8.58779135467645,2.6450480701515495
0,15.58216710232341,14.76966238588503,13.997865894387724,13.149340597608752,2.650048161021399
0,18.513606171289478,19.39107709053764,18.660084457945366,9.340888210380506,2.6550482518912553
0,25.025042163191806,27.01248870529508,22.852300306018382,17.792434151468747,2.6600483427611046
0,14.246475022241084,18.40389717293688,14.884513379347228,11.073978378136173,2.665048433630954
0,18.567904690727907,22.63530243410775,19.076723616819415,10.625520846353714,2.6700485245008103
0,16.809331109146076,12.5967044273763,14.798930955553935,12.557061510862365,2.6750486153706596
0,15.17075421630993,13.768103089481121,12.451135331035157,11.75860032525941,2.680048706240509
0,14.212173949425127,18.769498355587853,14.553336677259844,16.880137241968498,2.6850487971103654
0,10.653590244209619,13.270890159376737,9.895534926878778,7.531672212156104,2.6900488879802147
0,3.225003035111472,4.4922784330799095,3.37773001135627,1.3432051858176985,2.695048978850064
0,4.306412255646302,5.393663107761605,4.409921861255848,4.444736112131457,2.7000490697199204
0,-3.782182161215778,-6.634955886206477,-7.947889593370945,-10.343735060105336,2.7050491605897697
0,-5.330780282680941,-6.503578618638597,-11.185704422514485,-5.142208382052706,2.710049251459619
0,-4.129382175786691,-11.072205159039648,-11.03352269566322,-9.290683904427809,2.7150493423294755
0,-1.4979879072001836,-13.760835576194783,-5.9513444814253695,-5.079161677277661,2.720049433199325
0,-7.926597543200236,-17.979469937841355,-12.779169847462608,-13.657641749915218,2.725049524069174
0,-13.025211149605543,-19.598108310347648,-18.276998860459937,-12.996124170798224,2.7300496149390305
0,-21.44382879143592,-27.27675075837938,-25.44483158582346,-24.204608987241798,2.73504970580888
0,-21.012450532383088,-20.125397344577923,-23.702668087180268,-23.213096244991945,2.740049796678729
0,-14.821076434388107,-15.724048129415792,-12.350508426052672,-13.181585987865086,2.7450498875485856
0,-26.449706557500885,-26.212703171304266,-26.05835266190688,-24.890078257689012,2.750049978418435
0,-19.658340959824113,-18.73136252667163,-22.92620085225164,-17.13857309438655,2.755050069288284
0,-22.176979697391634,-23.62002624988335,-23.564053052496998,-13.857070536007413,2.7600501601581406
0,-21.705622824112517,-23.778694393166585,-18.821909315817337,-12.245570618876966,2.76505025102799
0,-20.9142703917902,-22.28736700655518,-20.669769693225135,-11.644073377876229,2.7700503418978393
0,-12.872922450187845,-8.606044137930011,-11.737634233757078,-2.1325788467006466,2.7750504327676957
0,-20.741579047201274,-19.604725833306055,-18.87550298469227,-15.011087058094375,2.780050523637545
0,-17.120240229005034,-14.313412137131797,-11.593375991732852,-8.53959804394808,2.7850506145073943
0,-18.438906040046387,-13.952103092360845,-15.321253299104189,-8.538111835221377,2.7900507053772508
0,-14.287576523027449,-10.66079874048948,-11.759134949632328,-5.846628461939793,2.7950507962471
0,-11.486251719016106,-10.579499121712361,-8.337020984849318,-4.145147953350022,2.8000508871169494
0,-14.424931667637084,-11.258204275081667,-12.34491144513577,-2.9436703381063594,2.805050977986806
0,-18.20361640717351,-15.546914238549707,-13.962806369802479,-10.992195644378882,2.810051068856655
0,-11.852305974499396,-11.65562904888551,-10.970705797027879,-3.5207238998043984,2.8150511597265044
0,-19.921000404992526,-15.484348741573468,-16.70860976376008,-6.479255131396018,2.820051250596361
0,-7.9196997325334895,-7.613073350801654,-5.126518305693166,1.7322106343945243,2.82505134146621
0,-10.24840398962025,-8.111802909579199,-11.604431457363223,-3.166326628517978,2.8300514323360595
0,-14.397113207567227,-15.190537449899152,-11.452349252293061,-14.984866945934574,2.835051523205916
0,-2.915827416631861,-7.579277002762442,-3.4102717230553807,-4.083410343153594,2.8400516140757652
0,-3.584546646154945,-9.90802159812639,-10.078198901346342,-3.7619568447369307,2.8450517049456145
0,-13.993270924785566,-7.896771264962728,-11.52613081807238,-8.950506474567131,2.850051795815471
0,-22.322000280406243,-21.89552603127867,-20.97406750321064,-15.479059255886554,2.8550518866853203
0,-13.010734739660641,-13.314285923891202,-11.072008985472877,-10.487615211053246,2.8600519775551696
0,-15.81947432760133,-17.543050968133894,-12.98995529211393,-8.606174361311146,2.865052068425026
0,-23.158219067650595,-17.31182118774004,-23.697906448942643,-15.33473672678654,2.8700521592948753
0,-21.956968981502342,-21.560596604791737,-20.495862480194145,-16.37330232646902,2.8750522501647247
0,-10.315724088942703,-13.599377239622582,-9.443823408297561,-11.19187117804733,2.880052341034581
0,-13.90448440795965,-10.4881631108552,-16.141789253948915,-11.81044329784202,2.8850524319044304
0,-3.6932499551273668,-2.9469542357116194,-3.1997600364432635,-3.559018700963462,2.8900525227742797
0,-12.932020745958887,-8.505750630444801,-8.567735774001207,-7.337597401586848,2.895052613644136
0,-11.970796795042764,-8.324552310603991,-9.385716484010084,-9.70617941316414,2.9000527045139854
0,-10.099578115967839,-10.673359291024461,-14.163702183053275,-10.784764748418565,2.9050527953838348
0,-20.2683647211789,-22.762171585613782,-21.061692886670045,-19.263353419138227,2.910052886253691
0,-10.297156621825016,-8.200989207030913,-7.649688609042081,-4.281945435941526,2.9150529771235405
0,-22.28595382760992,-20.07981216647078,-19.407689362875225,-20.790540808190254,2.92005306799339
0,-12.514756346687168,-12.01864047364729,-12.4356951594484,-10.729139543983646,2.9250531588632462
0,-14.493564185628992,-13.26747413682909,-14.583706008625482,-11.957741650105653,2.9300532497330956
0,-9.982377349531458,-12.92631316290515,-11.54172191887146,-8.236347132074876,2.935053340602945
0,-21.601195842146126,-21.08515755742166,-19.379742897298566,-18.05495599427445,2.9400534314728013
0,-14.98001966581343,-14.07400732445723,-12.207768949620288,-13.653568239907514,2.9450535223426506
0,-7.118848821345346,-3.7728624665589905,-3.165800080155808,-11.692183870840562,2.9500536132125
0,-6.317683308208098,-2.0617229850633816,-4.393836292132317,-0.6808028876627903,2.9550537040823563
0,-9.656523124898698,-10.380588880584499,-9.371877588082027,-7.999425290028383,2.9600537949522057
0,-15.19536826909145,-12.699460153153485,-12.269923969922305,-10.99805107693711,2.965053885822062
0,-6.4242187375012145,-4.248336802013955,-7.557975438757087,-2.1866802467277315,2.9700539766919114
0,-8.743074525804815,-6.437218825537667,-5.436031994769991,-6.5753127970449565,2.9750540675617607
0,-19.27193562868517,-20.02610622129005,-21.994093637246404,-14.063948724891207,2.980054158431617
0,-14.560802039699114,-16.064998985835096,-16.7821603643766,-12.332588026491269,2.9850542493014665
0,-10.629673751027706,-9.42389711437411,-14.66023217287113,-10.531230697018039,2.9900543401713158
0,1.281449246453,-0.6828006007609951,-0.1583090579008265,5.700123269410318,2.995054431041172
0,4.75256696266712,6.68829056198361,2.6436089864293377,6.431473879268133,3.0000545219110215
0,2.1436794077109256,-1.5706236189620095,-2.21447803357154,-3.317178860983109,3.005054612780871
0,-5.37521340847923,-10.269543136489089,-3.1325701115248155,-2.6858349450944536,3.0100547036507272
0,12.325888523887297,10.001532016598983,10.00933275898098,13.12550563309802,3.0150547945205766
0,5.116985214384996,2.6426018476117994,5.631230584231527,11.936842879506244,3.020054885390426
0,-3.771923327845895,-9.256333636254698,-0.7668766298958045,-2.481823200627643,3.0250549762602823
0,-20.770837093901008,-14.995274427765422,-17.344988877829756,-16.810492602638096,3.0300550671301316
0,-21.9297560742985,-24.824220518956157,-20.36310615362276,-17.799165321621444,3.035055157999981
0,9.081319741741579,1.2868280994911245,4.288771549760525,4.972158648330581,3.0400552488698374
0,-16.44760963379195,-13.782128561724686,-17.47935575947174,-12.686520685842696,3.0450553397396867
0,-26.896544188017174,-20.311090490796595,-27.74748807207193,-23.61520331639501,3.050055430609536
0,5.95451609307965,4.719942325171564,6.074374622504342,7.276110765401347,3.0550555214793924
0,-10.454428775241277,-14.269030099882487,-10.903767663867008,-5.472578430728701,3.0600556123492417
0,-14.953378776836631,-5.868007751231603,-13.101914918404454,-15.161270894447847,3.065055703219091
0,-7.812333894750618,-8.726990613422739,-8.25006712753791,-6.539966614843381,3.0700557940889475
0,5.868705888891606,4.544021329715159,0.43177572320813673,0.6413344197955194,3.075055884958797
0,2.299740592521121,-0.164971905207979,-0.34638635101239834,-0.2873677781925188,3.080055975828646
0,-7.609229765373844,-6.3839703014570945,-5.24455333474033,0.31392680376385884,3.0850560666985025
0,-4.048205166274189,-2.9929738421749215,-0.41272521233387105,0.27521817826195716,3.090056157568352
0,0.822814408618576,-2.351982510207411,-2.0509019679313294,-2.533493642101032,3.095056248438201
0,-7.076171021554504,-5.700996288042773,-6.779083585434887,-6.252208644644,3.1000563393080576
0,13.50483856255234,2.1999848421538912,7.922729951487028,5.2790731835185305,3.105056430177907
0,6.355843180180554,8.330960898396958,10.294538659210454,10.14035185536969,3.110056521047756
0,12.386842850015213,7.011931898528008,10.696342553683781,9.581627383562463,3.1150566119176126
0,13.01783758984278,4.4428978598676165,5.918141650031186,9.452899779997992,3.120056702787462
0,14.288827416356089,14.403858799068113,12.529935962466784,19.1041690556019,3.1250567936573113
0,-7.490187654870338,-7.405185267907709,-6.3582744956010835,-6.974564779763642,3.1300568845271677
0,-1.4292076089850139,-4.424234325566725,0.0035102887238345204,-5.033301717021975,3.135056975397017
0,6.321767568706053,-0.5832883584118901,2.9452903282108376,5.327958252725587,3.1400570662668663
0,3.842737892867227,-3.302347350657608,-1.462934364355157,0.8592151384800231,3.1450571571367227
0,10.463703377854953,5.03858871370562,10.228836223715172,7.550468949145822,3.150057248006572
0,26.90466403732159,21.019519850598385,23.950602104697904,21.301719693183472,3.1550573388764214
0,11.365619883680742,2.2904460753153506,3.7923632899068256,4.072967378180787,3.160057429746278
0,12.646570927731144,8.84136740217123,7.384119789403385,11.63421201058846,3.165057520616127
0,5.8275171787943005,7.742283844592008,4.175871612259686,4.895453595830347,3.1700576114859764
0,8.838458645093105,2.273195415294628,4.037618766913683,3.376692138536798,3.175057702355833
0,-13.160604665874429,-9.735897873512139,-10.790638738584754,-3.7720723572081454,3.180057793225682
0,-17.27967274672647,-16.404996009607988,-16.768900896115014,-16.520839887441237,3.1850578840955315
0,1.2412544105621246,2.3559010198657653,2.9728323031041946,2.0103895522165725,3.190057974965388
0,-0.5178231851129487,-3.7532067714443134,0.034560868632267816,-4.438384033203009,3.195058065835237
0,5.143094475581279,5.507680630539033,0.5562848103898665,3.1028393617728574,3.2000581567050865
0,4.214007401920517,8.148563239888826,3.9780041382883073,4.634059742727176,3.205058247574943
0,0.10491560289455881,-0.580558929640896,-4.200281137871646,0.9952771151064059,3.2100583384447923
0,-0.9041809127800307,-2.709685864674375,-1.0385710083396933,-3.93350851586127,3.2150584293146416
0,3.546717863476113,3.721182447996699,3.233134536693238,1.0777028549737548,3.220058520184498
0,3.63761194013853,-3.3679539784259753,-0.575164492923,-0.9310887671684115,3.2250586110543473
0,0.15850132548495233,0.07290486927446937,1.0865319126015944,0.5801166230018788,3.2300587019241966
0,5.649386027541445,1.3737590043536834,1.5282237629698594,-1.2586809692004737,3.235058792794053
0,9.750266054020924,4.874608440060857,4.029911067777519,0.09251846156448429,3.2400588836639024
0,2.9411414121485224,1.9854531894829526,1.79159383643246,3.0537149206532064,3.2450589745337517
0,7.552012108537272,7.136293265403161,5.753272078072893,4.084908413346865,3.250059065403608
0,-2.437121850748144,-1.9228713197569935,-1.4250541984673042,-2.603901055263138,3.2550591562734574
0,-2.1562604599775943,0.2279594461307679,-2.443384984582985,-6.27271348020819,3.2600592471433067
0,-8.155403713431491,-7.661214424879881,-12.051720271635098,-13.001528856310376,3.265059338013163
0,2.0954483948878795,4.659607079418091,1.6599399493877374,-1.2203471778002544,3.2700594288830125
0,-5.373704128675166,-0.949576028590105,-5.348404312002569,-4.869168438205521,3.275059519752862
0,-4.662861277481449,-9.21876373642493,-9.216753045860017,-8.397992630484744,3.2800596106227182
0,-8.95202304452926,-9.547956031356401,-10.545106241721632,-7.4968197470595594,3.2850597014925675
0,-6.631189422269742,-4.867152900060857,-6.493463888371293,-7.995649779687601,3.290059792362417
0,-1.7103604025090364,-6.136354328479743,-6.211825973754733,-3.34448271940347,3.2950598832322733
0,-6.629535976482628,-6.6155603018983635,-5.630192485082015,-2.463318556619486,3.3000599741021226
0,-7.488716134940424,-5.7647708050049555,-5.7485634089418625,-4.732157281296749,3.305060064971972
0,-0.09790086812528132,-3.5639858219049874,-1.6969387313762088,3.059001116920356,3.3100601558418283
0,13.802909834083671,12.376794663716533,12.244681561924711,10.720156648501092,3.3150602467116776
0,0.21371598169635675,-0.13242933181513994,-0.03370251479108677,-0.8886906763226418,3.320060337581527
0,-2.235482415725241,-1.0716577924951716,-0.5320909476424551,-0.37754084773223334,3.3250604284513834
0,2.8453146510746214,6.749109297391361,5.719516276943251,3.103606143834135,3.3300605193212327
0,11.566107191204358,8.619871953309566,9.571119172286826,11.484750307762702,3.335060610191082
0,4.536895213412579,3.7906301902719566,4.472717751253015,7.365891653016661,3.3400607010609384
0,17.56767872575185,16.731384022624148,16.034312026014334,17.227030187782002,3.3450607919307878
0,4.658457735354212,5.182133463883298,6.4659020078821925,8.788165919204049,3.350060882800637
0,0.8592322484102022,-2.467121473300583,1.2474877072500439,0.18929885333439533,3.3550609736704935
0,12.290002270389204,6.313619223124362,10.349069133764067,12.740428995357272,3.360061064540343
0,7.4707678061638205,-0.10564443508111077,4.3406462964913235,7.861556349772666,3.365061155410192
0,6.161528859889103,4.90508756361442,1.4822192039363897,1.4626809203569349,3.3700612462800486
0,2.562285434977042,2.7758152304711112,5.433787864116481,7.343802710207511,3.375061337149898
0,-2.506962465689356,-9.433461423476032,-5.584647715272377,-7.175078278036012,3.380061428019747
0,2.153785160531774,-0.5027423871794678,2.5169124733255233,2.4460379580743803,3.3850615188896036
0,-1.6754716837683572,-0.44202764932957017,1.9584684374553043,0.007151421001245439,3.390061609759453
0,-1.084732995984228,2.748682801608515,-0.20997981537332877,-0.09173788675170275,3.3950617006293022
0,10.346001226476925,7.269388977144233,4.381567722228928,5.409370037272296,3.4000617914991587
0,3.7167309860006954,4.320090888497173,5.9531110574530715,4.28047519536049,3.405061882369008
0,-3.422543715438298,1.510788546442683,-0.4653498028188777,-3.6484224104770275,3.4100619732388573
0,-4.831822876133684,-1.8985180386206502,1.2961851479756503,-3.267322778409287,3.4150620641087137
0,3.8688935056863762,7.44217114350204,4.757715916184045,6.543774093430604,3.420062154978563
0,-11.410394567993714,-1.8771438971579688,-7.9807574919858455,-1.8151317930565143,3.4250622458484123
0,-7.869687094866574,-5.176463150726941,-8.929235070279962,-6.204040436025228,3.4300623367182688
0,-17.298984071975937,-10.625786607241546,-15.01771681196762,-15.262951833459217,3.435062427588118
0,-7.91828549535422,-9.13511425623454,-9.566202709402601,-11.11186598267188,3.4400625184579674
0,-1.337591359939954,-1.3744460864822121,-1.2046927538837988,0.6492171200098134,3.445062609327824
0,-10.686901659815424,-7.433782086058204,-9.863186935851202,-7.449702520896258,3.450062700197673
0,-6.996216388413188,-4.603122242489694,-4.231685245110441,-1.808624900340041,3.4550627910675225
0,-3.945535538500237,-5.422466542798141,-2.2001876709028387,-2.4075500128887803,3.460062881937379
0,16.35514089767701,7.178185026440877,12.111305797912228,12.49352214711649,3.465062972807228
0,-10.684187072081754,-5.951167521131354,-7.247204827531975,-4.1954084147668915,3.4700630636770775
0,5.966480559788497,5.969475828132916,4.92428046368129,4.2756583067081175,3.475063154546934
0,7.987143800674737,4.670115087783199,7.7757616822846485,9.196722316491936,3.4800632454167832
0,2.4478026576972223,3.5807502711166794,3.64723883872207,2.417783619166214,3.4850633362866326
0,9.048457137489534,6.21138139102575,8.338711942938092,6.258842218801261,3.490063427156489
0,14.779107246054556,8.68200845991787,9.40018100426439,12.859898118898169,3.4950635180263383
0,-15.860247011306628,-16.53736851025283,-17.288353968531787,-19.249048677581328,3.5000636088961876
0,-1.6996056296717414,3.593250492358483,4.043107033144585,2.3620018321419285,3.505063699766044
0,-0.6089686039090906,-2.146134520123014,-0.3954359818557325,1.563049651132066,3.5100637906358934
0,-10.288335928450978,-8.075523535252037,-9.173983004400363,-15.765905217184951,3.5150638815057427
0,0.7622924026763729,1.0550834596984453,2.6974659748712884,-0.2948627689944672,3.520063972375599
0,-4.887083604141232,-5.654313522210419,-5.801089034390451,-6.793822999910281,3.5250640632454484
0,0.7435360578229571,-1.2937144676006593,-1.2996480222587616,-2.2227859049816336,3.5300641541152977
0,-10.965848604433067,-2.513119362817591,-9.92821097851268,-9.721751478793369,3.535064244985154
0,-6.385237583518004,-3.842528193943342,-6.996777892474545,-3.5407197154233145,3.5400643358550035
0,-5.354630871440537,-3.711940946786129,-7.4253487528214706,-0.6396906084089146,3.545064426724853
0,6.105971540380058,-1.031357606848144,1.1860764524483036,3.3813358490872787,3.550064517594709
0,-17.773430339098717,-16.230778159263068,-14.402502264102603,-8.297640335960544,3.5550646084645585
0,-3.502836500518489,-8.220202588567858,-8.091084889331452,-2.106619156449466,3.560064699334408
0,6.40775306605829,-2.7596308784419143,-0.7596714093514466,6.48439939495961,3.5650647902042643
0,-9.571661629004828,-10.909063011729202,-11.208261809549988,-8.064584674244252,3.5700648810741136
0,-4.6710805751235185,-7.128498970564801,-4.866856074699401,-8.933571356456483,3.575064971943963
0,9.139496238559774,3.722061263582849,8.844545810969823,10.657439356229776,3.5800650628138193
0,8.260068822994333,3.282617709677594,6.455943863427853,14.098447471859158,3.5850651536836686
0,-7.369362811188632,-7.8068296132451405,-6.05266190161183,-5.030547001959086,3.590065244553518
0,8.601201346273308,7.6637193138264355,8.77872853123664,9.090455941731527,3.5950653354233744
0,10.571761305381209,8.174264509850216,9.320115177098607,7.591456309395236,3.6000654262932237
0,2.0323170756811817,0.15480599347432578,0.8314980506548271,0.17245410701502129,3.605065517163073
0,20.282868665995707,9.305343782848784,15.192877165955931,17.483449339995246,3.6100656080329294
0,7.133416084225874,3.5258778956241477,3.4242525363508953,5.614442013033663,3.6150656989027787
0,-12.046040662682547,-5.923591650992294,-11.374375825457362,-8.90456786994335,3.620065789772628
0,7.4544984316975205,4.766935159965632,4.106992092985929,7.596419694529065,3.6250658806424845
0,-1.654966626235605,-0.032541654577873835,-1.9916436957127635,2.377404709798559,3.630065971512334
0,-1.484435830056682,-4.162022077723877,0.869716821202368,-3.331612820919667,3.635066062382183
0,-16.373909173252244,-12.631506092473963,-12.408926343416521,-12.73063289446949,3.6400661532520395
0,-6.913386648818924,-4.430993681371383,-5.487573176389931,-2.4096555073523143,3.645066244121889
0,1.3971317510508072,3.459515173690435,1.153776336032442,2.3413193445061813,3.650066334991738
0,1.5076460347816472,-2.859979508753984,1.4951222080610687,3.1022916655231527,3.6550664258615946
0,-14.841843788931158,-10.829477709976059,-10.393535545899695,-9.006738539854512,3.660066516731444
0,-3.951337711053675,-1.0889794109296809,-0.4721969112387848,-0.1357712671153825,3.665066607601293
0,-0.10083572195838131,-1.5984845920883204,-2.2208618729839227,-1.444806511496815,3.6700666984711496
0,-4.300337811492395,-3.8179932335423703,-8.559530415795365,-1.7838442679845836,3.675066789340999
0,-2.319843969193935,-7.00750531509573,-5.288202523936826,-3.0028845313919423,3.6800668802108483
0,3.4706458156179902,7.352979183758594,-0.7568781811690134,3.3880727036216864,3.6850669710807047
0,9.651131553670965,7.703460283660318,9.79444262912131,10.779027442410525,3.690067061950554
0,-16.56838674448554,-10.546061994948914,-11.734240076411183,-11.710020309902019,3.6950671528204033
0,8.442090931627092,2.384412368197038,2.8570737188494397,0.25092945163284264,3.7000672436902597
0,-9.577435407310867,-11.485116606470969,-8.951615968301288,-15.208123267804561,3.705067334560109
0,-2.396965750334836,-5.0546488980887565,-4.700309120699433,-5.6871784624189825,3.7100674254299584
0,2.7434999138064504,2.4358155147417375,4.78099427923313,1.853763874333008,3.715067516299815
0,-10.396038403369761,-9.203723346134863,-10.267705750607101,-13.075296250394219,3.720067607169664
0,-2.225580690063029,-2.463265458530773,-1.2764091920714655,-5.764358828929338,3.7250676980395134
0,8.444873065857195,10.427189200045945,6.874883973265145,8.016576146957519,3.73006778890937
0,-6.274677123327996,-7.022359347824697,-5.963826236035705,-7.092491314138075,3.735067879779219
0,-3.4642312453546604,-2.8619110796390252,-4.63253980139653,-3.1215612035016074,3.7400679706490685
0,-1.653789287827292,-0.6514659728022328,-1.821256704057764,-0.08063351224317616,3.745068061518925
0,-0.383351238080023,-2.431024004476699,-0.3799769249405668,0.24029176876553415,3.7500681523887742
0,-11.632917083183607,-9.82058515156959,-7.9887004446925705,-8.228785351180695,3.7550682432586306
0,6.727513190108729,0.7898506093683579,8.062572756270509,4.7421351373965575,3.76006833412848
0,-13.142060404595664,-9.38971669775378,-13.686157302267947,-15.666946755749096,3.7650684249983293
0,-6.041637853292783,-0.3992870485706961,-5.914890600252866,-7.81603102040927,3.7700685158681857
0,-4.5112191414169605,-6.828860418282259,-5.713627117098149,-7.765117645631039,3.775068606738035
0,4.059195746182422,-1.568436781674049,0.9076331684161865,1.5457933803562756,3.7800686976078843
0,-4.330393175024466,-3.9380161131531346,-0.5011097220728546,1.4667020698463236,3.7850687884777408
0,-2.839985889446587,2.572401613179652,-0.019855766773938965,2.927608435259338,3.79006887934759
0,0.42041761866059946,-1.0071835766093709,2.1213950561228145,1.4985124888910883,3.7950689702174394
0,-4.959182634753897,-8.456771656366413,-5.287357231584785,-3.790585757127958,3.800069061087296
0,-3.4387866335192525,-3.1463625997144646,-0.08611260804358656,-2.619686290694042,3.805069151957145
0,-2.028394361180228,-4.855956379852565,-0.02487105125660305,-1.258789099548008,3.8100692428269944
0,0.9719941990056022,-0.6655529695304162,0.39636746089033603,-3.237894171201279,3.815069333696851
0,8.322379063894347,3.1348476588048877,8.197602950487042,6.892998507004508,3.8200694245667
0,-0.9072397498202698,-2.444754467193505,-0.1411645605888101,0.20388894772331612,3.8250695154365495
0,-3.4468622257165333,-3.5543593198599694,-4.489935050737696,-0.2752228365593715,3.830069606306406
0,4.5735116525078325,1.8460331285634002,3.501291501531039,4.605663166465115,3.8350696971762552
0,-2.2161180988456812,-0.26357709403852536,-4.167484882234326,-1.4834530310347647,3.8400697880461045
0,-0.4557514634961869,2.5068100402442903,0.1537358195973777,-4.95257141698694,3.845069878915961
0,1.7746115748279814,8.917194559192838,3.054953628729253,8.408308020693815,3.8500699697858103
0,-3.8850289675782346,-3.1024235097065196,-4.373831433108801,-2.650814705907009,3.8550700606556596
0,10.315326925571602,1.3479558607147455,3.397380655808992,3.010060415164899,3.860070151525516
0,-7.994320729537074,-5.871667302491035,-5.901410082753983,-7.269066604243076,3.8650702423953653
0,2.3360280831685643,3.868707027819979,3.10979637305428,1.9918042477849394,3.8700703332652147
0,-5.993626620194641,-5.270921121069991,-4.978999954800197,-5.977327016639245,3.875070424135071
0,2.886715176665371,-1.8505517217456464,-0.4677990442178317,-5.806460385136662,3.8800705150049204
0,-5.152946509787884,-4.170184746587102,-3.4166008729247985,-9.225595844916946,3.8850706058747697
0,-5.472611662905654,-5.029820167669923,-4.64540541841637,-2.8647333826018313,3.890070696744626
0,-2.852280265734163,-6.989457956675161,-4.724212657879425,-9.133872984173124,3.8950707876144754
0,-2.541952300926778,-5.209098084785408,1.0769774318633898,-4.693014634996684,3.9000708784843248
0,10.648372249128935,4.391259477320124,7.648164874223122,4.187841680109754,3.905070969354181
0,-3.0113065979999094,-3.568385240731926,-0.3106503074695487,-1.5013040233530344,3.9100710602240305
0,-6.420988824943444,-8.318032209168411,-3.389468090132571,-4.670451729802326,3.91507115109388
0,-5.72067441427451,-1.1276813979515583,-5.038288450752154,0.40039857643723387,3.9200712419637362
0,1.7796366518055775,-1.1173327766453818,1.2728886338852612,0.07124691121264737,3.9250713328335856
0,0.5099443914328501,2.5530136854632994,1.8040631872197173,2.4520932904625234,3.930071423703435
0,4.500248822816857,2.643358019128275,-1.2347647672483146,1.182937730074198,3.9350715145732913
0,5.120549963999125,2.703700254963368,4.466404793918285,4.87378024578337,3.9400716054431406
0,-2.6191521672750095,1.844040423353361,-2.3824281059442116,0.28462085310169805,3.94507169631299
0,1.9911424464915108,0.884378554454083,-1.2112634435781924,-3.2245404326682734,3.9500717871828464
0,13.451433822609156,4.384714678223847,12.009898804216103,9.96629640365768,3.9550718780526957
0,-6.868278021937725,-7.824951175531862,-1.448941339570148,-1.9028686228862877,3.960071968922545
0,9.472006929421154,1.5453810229806884,6.862216147653056,5.687964502458572,3.9650720597924014
0,8.032288692887365,6.195711303653509,9.753371288017036,8.348795794108062,3.9700721506622507
0,14.05256728412099,11.756039696263588,14.834524103036792,12.029625265979124,3.9750722415321
0,2.4928427179424317,0.4363662300826554,2.825674613334307,8.110452931214729,3.9800723324019565
0,7.043115008301766,7.16669093373848,6.596822838601403,10.35127880201987,3.9850724232718058
0,4.833384168466127,2.1570138353311834,3.9479687978213622,3.0621028896888176,3.990072514141655
0,-1.0563497888124687,-3.6226650374135194,-5.140887490487464,1.332925204784221,3.9950726050115115
0,-4.556086851091317,-6.0223456569010665,-4.529746007976023,0.7337457574184738,4.000072695881361
0,-0.6958270059348427,0.31797200464407793,-1.3286067361253804,3.704564557477338,4.00507278675121
0,2.9544297592542,-1.6517120247052546,-2.307469656103579,0.055381614678158275,4.010072877621067
0,-0.005316542855944628,0.5986022833175215,2.003665251155476,4.926196938545426,4.015072968490916
0,-0.9650658996542926,-2.261085042932603,0.6447980048093782,-0.08298946161226728,4.020073059360765
0,-2.0448182985615917,-5.890773974993276,-1.1340713760019843,2.1578224232985064,4.025073150230622
0,6.455426273029739,2.3395355158051063,7.417057127785437,5.098632602170505,4.030073241100471
0,2.0256678276555653,4.299843458315661,-1.5018164649222663,0.3994410836628183,4.03507333197032
0,2.3759063776078837,1.37014988135016,3.7193078645476927,5.070247876156077,4.040073422840177
0,-3.1138580650788352,4.480454813481574,2.3504301346443444,0.3310529877530489,4.045073513710026
0,6.8363745114886765,5.600758282970654,9.621550363556477,9.681856426263941,4.050073604579875
0,4.496604119053163,3.901060317694794,8.142668569021696,9.932658199064386,4.055073695449732
0,0.7868307690549192,4.571360945086546,6.183784768110327,6.423458312856675,4.060073786319581
0,-1.1629455273897067,-2.108339807826225,-3.5951010227820643,-3.785743226390996,4.06507387718943
0,1.097275240677573,2.891958085722032,1.4360112123361484,1.945053586834423,4.070073968059287
0,-0.6325069158121706,3.7822546523453244,1.0271214893465164,-2.7141512420633602,4.075074058929136
0,3.03770801405272,3.1125499184644827,3.008229824084717,5.136642292335912,4.080074149798985
0,2.4279200410985875,5.21284391019706,0.22933623226116717,-0.9425658045916255,4.085074240668842
0,0.4881291759873282,5.473136653276939,1.720440729426591,1.838224472408263,4.090074331538691
0,-0.561664570786325,0.38342817301313903,-2.7784566689811623,-5.0409868714981645,4.0950744224085405
0,1.168538811183359,0.8737184943541902,-3.19735594752386,-1.8001998310865202,4.100074513278397
0,-6.24126066769444,-2.005992357939444,-8.23625709057707,-10.979414400876736,4.105074604148246
0,-3.351062996870086,-4.515704359105567,-1.4451600821329873,-13.068630574864324,4.1100746950180955
0,0.8491318344853536,0.16458251577667204,0.37593509424471483,-2.1878483462377067,4.115074785887952
1,11.20932383737916,7.454868291787235,11.457028455186297,10.832932292557839,4.120074876757801
0,0.4195130226319128,-2.884847006041772,5.308120017082289,1.4537113492692635,4.125074967627651
0,6.679699400603248,11.855436647071036,7.139209795731628,5.854488831309664,4.130075058497507
0,2.5398829811814103,-1.4542807244500038,-0.06970219371535957,2.295264745632023,4.135075149367356
0,0.26006377386854984,0.3960009034442695,3.0113840634152074,1.62603909880823,4.140075240237206
0,-6.649758212056614,-2.7237184454080605,-5.577531418445807,-1.9631881028526426,4.145075331107062
0,-3.1795829672466294,3.8465612528227515,-3.20644862486393,-0.28241685314289405,4.150075421976911
0,3.260589517925018,3.546840021949916,1.5546324587947298,2.738352854153368,4.155075512846761
0,-5.189240746686591,-1.8828821143648833,0.06571184736044311,-3.6508789747440686,4.160075603716617
0,-7.209073751057269,-3.1126051326017996,-6.233210444244931,-1.770112333597037,4.165075694586466
0,-6.538909484818096,-6.502329009166593,-9.022134400913535,-7.359347216010784,4.170075785456316
0,-12.058747936997415,-13.30205372008777,-13.591060007018458,-13.118583615195035,4.175075876326172
