labels,F4,F3,Fz,Cz,timestamps
0,3.5005491914516735,5.87266694343981,4.084086739766643,5.066133561848201,-2.0001718679330516
0,-7.710360846315626,-6.95660231070761,-8.086487938361387,-7.845360794693365,-1.9951714382632169
0,-1.321275635070735,0.6041236960789589,2.1429335352897296,-1.4768593013203866,-1.9901710085933857
0,-4.202195170103553,1.074844965449826,0.7923511655218483,0.07163804739082091,-1.985170578923551
0,-6.543119446346915,-6.3044385008210835,-5.128235042757976,-1.5698687429140779,-1.9801701492537198
0,-6.344048458303439,-2.3837267008034475,-2.6788250845330177,-6.201379666432323,-1.9751697195838887
0,7.955017799980243,13.1569803676116,6.4405810453944285,4.267105282828487,-1.970169289914054
0,2.764079334663142,0.29768270644484107,-0.2400166477155959,6.605586110980927,-1.9651688602442228
0,-1.766863848248136,-2.601619682658729,-0.05061815873560649,2.564062823965811,-1.960168430574388
0,10.392188256976283,10.429073201629,10.658776517266622,4.91253542732416,-1.955168000904557
0,2.031235655750062,1.7197613603794428,4.178167384906363,-2.328996073788968,-1.9501675712347257
0,-1.5197216469068806,-1.2195552056898507,-9.132445551633536,-5.9905316744074275,-1.945167141564891
0,0.4693163537426517,2.7411235038507344,-0.5530622883563677,-0.6420713694654463,-1.9401667118950598
0,2.3983496623528757,-0.708202510692552,0.42631717891228704,-0.9836151536300001,-1.9351662822252251
0,-0.09262171647216255,-0.2975332490751189,-4.664307145417907,1.0348369786331115,-1.930165852555394
0,-4.28359777819005,-7.466868711033547,-3.494935256749098,-2.936714967061202,-1.9251654228855628
0,2.1654214817747763,0.7637911038849987,3.7344328497426043,-2.21827098502294,-1.920164993215728
0,-7.99556393186189,-5.76555380356677,-11.78620282089966,-3.999831069395678,-1.915164563545897
0,-7.426554014118421,-3.0149034323211548,-7.9268422633204025,-4.791395214050165,-1.9101641338760622
0,0.822451240427611,4.385742218973802,6.642514528349686,0.9570365874717142,-1.905163704206231
0,-8.308548162317496,-8.513616848139142,-12.488132439552516,-3.724535658086634,-1.9001632745363963
0,-9.259552215989672,-7.7029806319149206,-10.608783160298763,-3.3661119437645213,-1.8951628448665652
0,-9.750560913610883,-8.992349130142989,-6.559437626520365,-11.497692262307382,-1.890162415196734
0,0.018425752569517506,-6.011722339895659,-5.440095830004106,-5.139276605941517,-1.8851619855268993
0,-2.23259220905255,-6.261100257492928,-8.230757761780435,-2.6008649662276184,-1.8801615558570681
0,-7.403614789688303,-2.8004828785995532,-1.9514234122444423,3.6875426658027415,-1.8751611261872334
0,1.6253580197618818,7.520129801571793,11.347907228660354,3.835946299294987,-1.8701606965174022
0,4.454326228655631,-1.0992622120764348,1.7772341710081614,6.744345943220004,-1.865160266847571
0,-5.496710153590058,-2.608658914767405,-2.883442575469625,1.5827416061607011,-1.8601598371777364
0,3.732248882395851,7.26193969816873,11.975876998626582,7.331133296254601,-1.8551594075079052
0,6.481203345936214,6.542533631261476,7.635192902351033,7.639521021168758,-1.8501589778380705
0,-3.149846753814092,-0.8968771113082,-1.1654948557990752,5.447904788003634,-1.8451585481682393
0,-4.74090140788884,-4.286292525711776,-5.476186267817513,-6.293715396701897,-1.8401581184984046
0,5.858039392692664,8.804287391759338,3.1931186741993542,1.964660473302684,-1.8351576888285734
0,-0.6330243430177693,1.8648626447270646,-3.0175800217220594,2.3130324042566635,-1.8301572591587423
0,-1.984092606019601,6.995433236512735,-1.3582823474498853,1.9114004023797184,-1.8251568294889076
0,7.844834612597082,12.085999169938068,7.751011705199343,2.249764473737255,-1.8201563998190764
0,-3.396242678375783,3.90656044715152,0.7003021443199455,1.1481246241947924,-1.8151559701492417
0,-7.7173244702506425,-5.712882930381668,-7.610411022196348,-5.903519140516978,-1.8101555404794105
0,-2.1584107541944153,2.97766903844532,0.8288722135164915,-4.075166814607146,-1.8051551108095794
0,-2.089501520991073,2.418216354691403,0.34815185951591676,2.933181607970564,-1.8001546811397446
0,-9.64059676102814,-9.011240980581062,-11.032572075931153,-4.058473866498664,-1.7951542514699135
0,-7.861696464234463,-4.410702966190415,-4.893299584245904,-7.970133231554244,-1.7901538218000788
0,4.627199380040767,11.339830399336009,1.6459693436493064,4.878203519530439,-1.7851533921302476
0,-6.973909217087444,-4.569640882411723,-9.654765282704247,-7.873463606216777,-1.7801529624604164
0,-3.775022244230317,-0.19911680998272135,-3.6255034533816546,1.9448653984524888,-1.7751525327905817
0,10.65386031021827,13.671402617912719,11.673754841901413,12.243190540882019,-1.7701521031207506
0,6.702738457843422,2.071917402268357,2.2530096134891333,8.921511828154136,-1.7651516734509158
0,-3.148387790168271,-0.2875724564371138,0.04226087139080048,9.079829266631972,-1.7601512437810847
0,7.210481576921072,7.782933041826645,12.241508625196017,8.748142861768402,-1.75515081411125
0,12.339346569485379,9.093433896722486,12.440752883992818,12.18645261810561,-1.7501503844414188
0,-6.951792802586592,-9.766069892539171,-7.90000634384757,-1.8952414606944585,-1.7451499547715876
0,-4.072936529819705,-7.715578326982598,-1.1407690505072527,-1.1869393716299208,-1.740149525101753
0,0.40591539726778203,-1.8450914073454137,5.028464771739972,1.4813588880401736,-1.7351490954319218
0,-8.055237011560578,-5.06460913382499,-3.882304869320416,2.3496533210217203,-1.730148665762087
0,-3.8963937461943328,0.9258684938137383,0.7669220340792884,-2.7820560700333368,-1.7251482360922559
0,-1.1575547961120822,-2.6436585239235653,3.03614548969579,-6.023769282483306,-1.7201478064224247
0,-5.108720150397236,-6.753190186325248,-7.584634494705865,-7.18548631346067,-1.71514737675259
0,-6.439889797783444,-6.272726492372036,-7.285417911237694,-8.817207159595771,-1.7101469470827588
0,-0.071063726608116,1.8077325594023517,3.843795248340927,0.8110681831169495,-1.7051465174129241
0,0.3377580751571265,-5.131813029138418,-0.03699500739067285,-3.4106602807822206,-1.700146087743093
0,-6.8634243802345685,-5.651363255844074,-9.697788669709723,3.5076074535375685,-1.6951456580732618
0,-2.984611080316893,1.6690818817451132,-0.8085857297004947,-2.4241286090049945,-1.690145228403427
0,-1.3758020122991044,-2.210477613618008,-4.499386178068285,-1.895868463470641,-1.685144798733596
0,-8.916997163028569,-12.45004173894329,-17.80019000503466,-9.917612104789672,-1.6801443690637612
0,-9.658196518912119,-4.199610490836711,-6.7209972001035725,-7.079359527500824,-1.67514393939393
0,3.590599934234258,0.9208161346900912,1.8381922481381725,-2.2511107255335334,-1.6701435097240953
0,-5.430607788881756,-4.53876185789859,-8.662621648182013,-3.4928656922295014,-1.6651430800542641
0,-9.37181967320451,-8.158344463834087,-7.463438876475237,-3.054624420511753,-1.660142650384433
0,4.016964296694942,8.69206832196689,6.585740576301582,0.2936130969947903,-1.6551422207145983
0,1.0957441365937597,-0.6675234952171146,-2.295083276482483,-5.658153132097154,-1.650141791044767
0,-10.25548013758003,-12.347119910106807,-13.965910421323686,-8.509923099900336,-1.6451413613749324
0,-2.1167085097173466,0.4332790827366415,5.493259155557595,-3.511696798080758,-1.6401409317051012
0,3.6220590366442478,9.293673489100163,5.9524254682965765,-1.1634742177649737,-1.63514050203527
0,-0.12917748179995958,-2.15593668515426,-4.248411468936972,-2.9852553496630634,-1.6301400723654353
0,4.519581951602875,0.4444485656107653,3.3107483578437877,-1.8070401842215753,-1.6251396426956042
0,7.2783373532802695,4.93482924684128,5.429904962488798,0.27117128831404846,-1.6201392130257695
0,6.1570887392613205,3.805205363819578,3.6990583586394594,2.3793790778230703,-1.6151387833559383
0,-3.5241638749287794,-6.194423078404585,-5.051791440375185,-6.862416805779141,-1.6101383536861071
0,5.004579525861279,8.265943925056868,9.65735557855061,2.1657836474942105,-1.6051379240162724
0,9.523318956536833,5.956306378958006,8.756499428295687,4.333980447741855,-1.6001374943464413
0,4.302054431610983,3.0766642877153294,2.2456401212592674,4.012173605006074,-1.5951370646766065
0,9.18078596498786,7.887017655240811,11.004777669194999,4.50036312903478,-1.5901366350067754
0,7.129513569885334,5.827366484911156,11.813912083162421,3.0485490291824324,-1.5851362053369407
0,-0.381762741148748,3.257710779542116,1.0930433734166363,5.676731314406215,-1.5801357756671095
0,0.4369570439303212,-0.5019494585506395,0.8921715494676044,5.974909993243306,-1.5751353459972783
0,8.535672936889299,9.848385772591906,6.981296620366515,2.663085073760169,-1.5701349163274436
0,-2.6756150507472203,-0.4212835254044246,-5.779581405101717,-1.9887434364045284,-1.5651344866576125
0,3.043093092272248,3.989042648704168,1.3895374816970167,-1.8705755298296418,-1.5601340569877777
0,10.30179737694945,12.759364295765266,11.958653289325728,2.027588800910596,-1.5551336273179466
0,10.960497813870484,12.52968141604434,11.367766026034635,9.345749563236224,-1.5501331976481154
0,12.42919441284485,12.329994008865903,8.166875699311715,8.203906764273341,-1.5451327679782807
0,22.0178871825757,25.72030207230507,21.855982315598187,10.132060410507203,-1.5401323383084495
0,25.3365761302916,28.68060560280254,24.475085880006,11.590210507566152,-1.5351319086386148
0,16.545261261330158,19.250904594667716,17.594186395877564,14.438357060081586,-1.5301314789687837
0,27.873942578918687,33.70119903978619,32.94328386445018,19.08650007149704,-1.5251310492989525
0,36.42262008402873,40.17148892742072,39.512378284546685,20.75463954379353,-1.5201306196291178
0,28.181293774997858,32.681774243782115,24.291469652098943,16.11277547722921,-1.5151301899592866
0,32.239963647171486,39.372054971640516,29.480557959915043,21.43090787022852,-1.510129760289452
0,37.49862969279474,44.66233109015744,41.59964319778171,21.94903671935016,-1.5051293306196207
0,28.41729190094116,37.37260257470154,31.798725352370205,17.6371620192094,-1.500128900949786
0,21.36595025753626,25.212869396787635,22.77780440705323,16.065283762472404,-1.4951284712799549
0,16.614604745735694,23.45313152448219,20.616880342169306,8.333401940054157,-1.4901280416101237
0,29.813255346408962,28.253388923005,24.355953135546855,11.811516541444826,-1.485127611940289
0,19.871902038277923,22.24364155505424,16.035022762822155,11.229627554975544,-1.4801271822704578
0,13.90054479787237,16.543889380928917,15.934089197613481,5.877734967935989,-1.475126752600623
0,20.289183599706757,22.124132358747342,24.95315241169493,14.42583876663632,-1.470126322930792
0,17.4978184165222,13.584370444688076,15.122212375019934,13.903938936390647,-1.4651258932609608
0,0.14644921943149747,3.264603593233016,2.561269055761014,2.4820354614209137,-1.460125463591126
0,13.325075978245557,15.424831757554063,13.390322420689655,8.53012832494173,-1.4551250339212949
0,8.62369866184271,9.405054889806403,9.86937243557734,7.06821750939984,-1.4501246042514602
0,-9.437682761647897,-7.814727058762636,-7.70158093464123,-2.783697003369872,-1.445124174581629
0,-4.049068324482565,-1.3345141374456904,1.0774622744472162,-2.3856152319312294,-1.4401237449117978
0,-1.8004580587553587,-5.674306395506563,-3.4234979727898134,-4.097537194887399,-1.4351233152419631
0,-16.481851996090125,-21.044103881760105,-23.95446171166755,-17.32946291052436,-1.430122885572132
0,-15.443250167393622,-13.73390664413851,-12.515428976696038,-8.641392396428738,-1.4251224559022972
0,-6.174652602488627,-10.623714729259438,-4.096399801103634,-5.5033256691959,-1.420122026232466
0,-13.926059329986106,-17.44352818232708,-17.97737421684842,-10.315262744461775,-1.4151215965626314
0,-25.007470377303992,-25.933347047112044,-28.138352254678797,-17.60720363698692,-1.4101211668928002
0,-18.87888577038265,-21.5431713656431,-18.21933394371443,-17.569148360432735,-1.405120737222969
0,-13.390305533331478,-19.333001177869562,-19.57031931102191,-14.831096927014585,-1.4001203075531343
0,-21.401729688419923,-20.042836521623443,-16.351308381630957,-7.43304934740807,-1.3951198778833032
0,-15.073158256203438,-12.202677432785652,-11.172301178775669,-10.845005630964963,-1.3901194482134684
0,-10.154591255585787,-12.342523945530704,-9.5132977241751,-8.66696578598049,-1.3851190185436373
0,-18.856028703955047,-22.102376092546468,-19.33429803827347,-8.888929819817264,-1.3801185888738061
0,-15.877470617275309,-16.932233905009348,-13.955302140240203,-6.200897738957724,-1.3751181592039714
0,-6.248917010058397,-8.822097412447597,0.3136899520992058,-5.012869549101003,-1.3701177295341402
0,-11.860367895490503,-18.8119666428282,-14.717321777960244,-5.244845255296488,-1.3651172998643055
0,-14.041823285653592,-15.731841622694747,-11.718337346247733,-7.466824862032141,-1.3601168701944744
0,-6.223283191568401,-5.051722377172223,-1.699356767681685,-1.7888083732517817,-1.3551164405246432
0,-1.5347476232540314,-6.8216089301345395,-4.350380056328496,-2.3007957924106788,-1.3501160108548085
0,-17.066216589947622,-17.271501304502188,-15.451407225617059,-8.752787122575667,-1.3451155811849773
0,-3.987690100153083,-5.731399522271845,-0.3124382883267107,0.5252176335694468,-1.3401151515151426
0,-6.039168161541413,-0.3513036044713118,-3.293473256528355,-1.206781526277961,-1.3351147218453114
0,-8.410650781015475,-5.74121357141276,-7.794512141750966,1.5112153958076595,-1.3301142921754767
0,-9.342137964793874,-10.191129442949372,-10.155554955049999,-5.910791602164387,-1.3251138625056456
0,-4.113629718365063,-3.2910512384125172,-1.596601706856995,-3.502802522048526,-1.3201134328358144
0,-13.615126046450952,-14.960978976448589,-15.257652406890985,-11.65481736535649,-1.3151130031659797
0,-9.616626952954487,-10.35091267487306,-10.308707064083405,-6.2968361330151295,-1.3101125734961485
0,-6.268132440852032,-5.940852350524595,-5.759765686421683,-4.148858825225705,-1.3051121438263138
0,-6.749642512218214,-8.310798019283997,-8.680828280942377,-5.470885441519961,-1.3001117141564826
0,-17.77115716830911,-18.170749696158705,-14.171894853829842,-9.462915980862949,-1.2951112844866515
0,-7.932676409441837,-5.260707395170396,-6.752965410362069,-6.49495044161052,-1.2901108548168168
0,-5.414200234855914,-8.280671129260877,-8.774039954835276,-9.236988821399978,-1.2851104251469856
0,-10.225728642832895,-12.030640910410394,-13.215118490606711,-4.699031117114057,-1.2801099954771509
0,-13.347261630825095,-15.04061674967422,-11.766201020069069,-13.171077324887701,-1.2751095658073197
0,-0.3687991954037834,-0.5705986570645679,2.7227124553926974,-2.1131274400860853,-1.2701091361374885
0,-10.180341332299744,-14.230586641600341,-13.478378064785986,-4.995181457340754,-1.2651087064676538
0,-12.021888036521784,-16.490580711393008,-16.36947258047385,-3.057239370716424,-1.2601082767978227
0,3.1065606976568576,2.189419126459125,2.4994289093411735,4.160698826085407,-1.255107847127988
0,1.3850048765686456,-0.8205871342375635,-0.7316735934756255,7.108633139464831,-1.2501074174581568
0,-6.946555493204579,-10.280599499186536,-8.672780086598902,2.336563575587469,-1.245106987788322
0,-1.198120404957199,0.8793820262314229,2.806109432556443,4.604490140191658,-1.240106558118491
0,5.420310148213635,1.6193574369859847,0.20499496682516527,2.1824128386064907,-1.2351061284486597
0,-1.5912638267071613,-1.7706732717585811,-1.8261234808385183,5.420331675806567,-1.230105698778825
0,-3.602842322800532,-1.6607101048023802,-3.3672459074387264,2.55824665641282,-1.2251052691089939
0,4.815574666844551,1.2592469331070533,6.13162769010995,3.516157784683316,-1.2201048394391592
0,-4.366012850814272,-6.2908021626767985,-6.26950268505203,-0.055934935447918,-1.215104409769328
0,-4.367604868765042,-12.40085739656574,-5.430637029729439,2.141968499717749,-1.2101039800994968
0,4.170798620149567,-2.3409187724466425,4.40822465947876,3.819868093704354,-1.205103550429662
0,-2.550802376762886,-6.700986293510012,-5.002917613789982,2.1677638498314393,-1.200103120759831
0,-7.202407852107877,-9.061059962301957,-8.254063845716145,0.23565577117295977,-1.1951026910899962
0,-4.714017798269298,-2.821139780753723,-1.1552140321641238,-2.7064561393716384,-1.190102261420165
0,3.7043677927617455,-1.9512257502072916,0.26363183142477686,-0.658571878917642,-1.185101831750334
0,-4.637251070704977,-7.831317871545194,-9.147526250067827,-2.7906914444673903,-1.1801014020804992
0,-0.7388743802192315,-0.13141614526310275,-3.088688271449809,1.847185167122031,-1.175100972410668
0,0.8694978727903351,6.228479428458891,1.4601457728718428,-4.194942040891464,-1.1701005427408333
0,-5.362134302976508,-8.421631150451532,-5.8410241111757255,-1.8070730651322953,-1.1651001130710021
0,-8.453770898623155,-12.211747881964607,-13.102197917365913,-8.769207902002261,-1.1600996834011674
0,-4.10541190484327,-5.121870765564799,-2.54337563894081,-5.731346547497777,-1.1550992537313363
0,-1.4970573117870865,-0.9519997999931121,0.0754427315306958,1.5665110029046305,-1.150098824061505
0,-9.018707109125295,-9.702134983372332,-9.395742798017256,-2.12563524586286,-1.1450983943916704
0,-1.1403612860955405,3.097723686625779,2.7030677807009624,5.012214711288927,-1.1400979647218392
0,-1.4020198315084926,-2.092423787323988,-1.9481255237265815,2.210060879388033,-1.1350975350520045
0,-10.933682733803678,-9.982577402306868,-9.849322702474243,-3.002096736713899,-1.1300971053821733
0,-4.155349980994867,-5.422737155071546,-2.650523746398403,3.2157418676984597,-1.1250966757123422
0,3.9129784394213534,0.12709695816163558,4.088271354075384,6.043576697250646,-1.1200962460425075
0,-5.768697459684426,-8.003075058328882,-6.122937391192277,-1.3185922436287514,-1.1150958163726763
0,-7.280377665232522,-10.073253199819662,-7.114149972173338,-5.800764950724514,-1.1100953867028416
0,6.98793783613247,7.676562538933532,8.644633621421272,3.297058580181176,-1.1050949570330104
0,1.8862490579667583,2.826372163532634,3.553413400032433,1.4048783534244915,-1.1000945273631793
0,-4.725443986233405,-3.9938243204513144,-8.10781062604115,-0.8473056266585761,-1.0950940976933445
0,1.5728587169389776,6.435973092381978,2.780961553382325,-1.5494933557982726,-1.0900936680235134
0,7.05115718089394,8.415764407255466,7.109729948531083,1.8183151702784914,-1.0850932383536787
0,-3.1005485810653015,-7.1444503709248455,-9.751505430406466,-2.173880044117567,-1.0800928086838475
0,-5.922258555791188,-6.594671237478096,-2.732744573265938,-5.436078994613216,-1.0750923790140128
0,-1.1939727300527876,-1.4848981875377625,3.0760125303313437,-4.998281676627851,-1.0700919493441816
0,-8.815691090286888,-10.305131215773967,-12.435234108941403,-8.870488085164709,-1.0650915196743505
0,-9.717413622450232,-5.60537031631392,-6.716484480053648,-5.012698214652286,-1.0600910900045157
0,-2.6591403118594306,-1.135615482688418,0.08226142858424845,-5.014912058887646,-1.0550906603346846
0,0.8591288568050359,-0.44586670793334027,-3.69899637088822,-6.867129611074361,-1.0500902306648499
0,-12.652606100693333,-9.256123984776314,-12.750257865927514,-7.0093508638468345,-1.0450898009950187
0,-1.3043451681823919,-0.2763873056401157,-0.16152304350466107,-4.231575809239526,-1.0400893713251875
0,4.2239116709730835,2.763343337398569,2.3272081099544697,0.2561955612683958,-1.0350889416553528
0,-11.64783556627292,-10.076932047505204,-13.114064391613914,0.23396325655717487,-1.0300885119855216
0,-5.9495868626921435,-2.937213451970284,-0.515340533954586,0.32172728563576247,-1.025088082315687
0,-1.6713422005703293,-3.427500867221269,-0.05662030237607607,2.4494876575013427,-1.0200876526458558
0,-9.963101561617034,-14.497794283974605,-13.87790368177702,-11.102755618859977,-1.015087222976021
0,-12.574864926945464,-16.12809369223786,-14.549190656535085,-11.045002534223181,-1.01008679330619
0,7.1533677230346715,5.991600918968963,6.959518789795556,1.8727469212382548,-1.0050863636363587
0,9.641596408392594,7.1812895613990175,7.578224674314693,10.100492757902682,-1.000085933966524
0,-1.7901788509201677,-0.01902775310686411,-4.563072985849908,-3.2317650138096887,-0.9950855042966928
0,4.168041964615285,3.3706489869614904,9.855625826122832,2.365973616238349,-0.9900850746268581
0,7.246258874160425,6.020319792785565,2.014321126741509,-4.046291341988322,-0.985084644957027
0,7.874471896484156,2.5899846752175977,2.323012932156466,3.281440121484539,-0.9800842152871958
0,13.592681049726016,13.269643644664397,13.131701258095704,9.14916801660541,-0.9750837856173611
0,11.79088635113307,12.329296710872448,11.55038611970334,1.1168923530574282,-0.9700833559475299
0,-2.4609121830523395,-5.511056117262422,-2.290932468692579,-5.605386859858801,-0.9650829262776952
0,0.5872854626591164,-1.7914148314892395,2.0177455065237995,0.20233038700900652,-0.960082496607864
0,13.065479303382853,13.538220576225202,14.796420058551606,2.4000441029154493,-0.9550820669380329
0,9.14366935382703,5.197850113676815,9.7250912000821,0.4777542971760882,-0.9500816372681982
0,8.301855627950147,11.107473788050356,8.523758942942209,7.8854609789883785,-0.945081207598367
0,14.260038138765875,20.20709160562792,15.302423297930162,10.583164157216169,-0.9400807779285323
0,14.968216898244153,16.656703571483963,14.691084274743975,14.560863840062662,-0.9350803482587011
0,14.226391917124747,11.436309689176978,13.40974188181641,15.738560034699102,-0.9300799185888664
0,15.524563204762352,14.39590996073144,17.258396126187268,15.456252746981777,-0.9250794889190352
0,15.722730769066516,14.46550438678634,18.887047013420855,12.843941981318423,-0.9200790592492041
0,11.720894616487943,9.785092966663855,7.3056945475298996,10.281627740704899,-0.9150786295793694
0,-0.41094524784446473,0.5046756984952746,-3.1556612688227728,0.06931002694487365,-0.9100781999095382
0,9.187211180246726,9.854252579542848,8.272979566219842,5.74698884102291,-0.9050777702397035
0,-1.3046360956432168,-2.4761763935010097,-3.2883829458442086,-1.215335816540125,-0.9000773405698723
0,-9.366487072226938,-10.596611224251022,-9.329748803649718,-6.177663945430346,-0.8950769109000412
0,-4.918341746132545,-5.527051916182597,-2.7411180056497395,-7.739995545232298,-0.8900764812302064
0,1.6397998864393717,-1.9374984722378223,-4.142490549834989,-2.242330615108109,-0.8850760515603753
0,-11.972062170263062,-15.01795089474434,-15.323866433654535,-10.584669153660306,-0.8800756218905406
0,-6.44392791154388,-5.08840918536401,-1.8852456538980256,-7.8070111588780975,-0.8750751922207094
0,3.8342026678536096,2.141126654982145,3.933371793344377,-1.7793566280613817,-0.8700747625508782
0,0.42232957360716994,-3.2593433740961597,-3.468014087625165,3.198294442070392,-0.8650743328810435
0,-6.4695471884864615,-4.389819272745735,-3.7694032924014227,-2.8440579449432377,-0.8600739032112124
0,10.668572387392164,5.36969895905864,9.209204183499066,1.133586214473667,-0.8550734735413776
0,5.8866883069697495,2.2592113214240945,7.047808344490491,6.821226923864735,-0.8500730438715465
0,1.7648005755843843,-3.201282185646759,1.5964091945823844,5.06886418658501,-0.8450726142017118
0,7.402909198050286,8.528218437688023,10.155006737224868,7.596498005560386,-0.8400721845318806
0,14.431014178641078,10.167713191030098,10.11360097527309,5.894128383137705,-0.8350717548620494
0,-1.540884479061129,-3.762797926491031,-3.6178080890949924,-0.16824467892115488,-0.8300713251922147
0,2.967213227827291,4.266685083759998,5.670779545726073,6.999378820676018,-0.8250708955223836
0,9.695307301718064,9.086162220097764,12.859363880949148,5.4269988828342886,-0.8200704658525488
0,2.403397744613932,-1.1643665195036985,-8.512055082654676,-0.3753844919586058,-0.8150700361827177
0,-8.218515441908101,-0.6749011374510208,-5.273477344660964,-5.8277713035379675,-0.8100696065128865
0,-0.1904322564118623,-0.17544163633772103,1.1450970954397195,-6.500161551718672,-0.8050691768430518
0,-6.952352697231239,-9.755988018696085,-7.16633176150603,-11.482555235898417,-0.8000687471732206
0,-12.194276762264332,-13.766540286707253,-13.207763914258184,-13.634952354730611,-0.7950683175033859
0,-4.786204448774383,-6.617098441811695,-3.679199360966776,-5.917352905887372,-0.7900678878335547
0,1.4618642466988536,-1.4576624845388828,0.5893619009543121,0.4902431139175465,-0.7850674581637236
0,-10.840070671839626,-12.918232414667234,-11.982080125350636,-5.452164291390244,-0.7800670284938889
0,-7.642009199937476,-1.6488082313523837,-8.413525436245795,-2.904575117525458,-0.7750665988240577
0,3.646048667411458,1.5306100668279576,4.135025972530034,1.3430106400829769,-0.770066169154223
0,-10.455897064277428,-10.399977518293356,-12.00642589419394,-10.339407013727737,-0.7650657394843918
0,-8.227846389065416,-5.650570984533724,-7.937881031120976,-3.231828073794046,-0.7600653098145571
0,-3.5197993004522803,-2.1611703292065387,-2.0693394323593943,-0.8342525345059768,-0.755064880144726
0,-2.3017557913048607,-6.911775549080329,-5.450801091376946,-3.2866803898515515,-0.7500644504748948
0,-8.183715853991867,-12.432386640400013,-11.002266001099306,-7.969111633518117,-0.7450640208050601
0,7.234320519493634,7.746996401185293,10.33626584605048,10.778453741095488,-0.7400635911352289
0,1.4323533373492987,-1.29362641951949,3.7447944579220644,-2.2239842592823282,-0.7350631614653942
0,-7.159617392268391,-4.934255097585633,-10.536680157738182,-3.6064256280266545,-0.730062731795563
0,-6.441591661169277,-6.914889627987855,-8.388157993198085,-3.5688703585357704,-0.7250623021257319
0,3.7964305391543447,4.49446999460438,6.400360959670946,-0.45131844399801613,-0.7200618724558971
0,-1.8655507824707915,-3.216176224187217,-1.4111232906098996,-1.6337698773490703,-0.715061442786066
0,-6.4675356170710865,-4.03682827860383,-4.222610735424486,-0.656224651355465,-0.7100610131162313
0,11.470476044429736,9.002513837206717,14.055898633807187,8.301317241274097,-0.7050605834464001
0,4.018484211062518,2.0518501290637436,1.1444048254657149,7.778855807647897,-0.7000601537765689
0,1.6364888915001257,2.6611806025090177,3.1529078474823664,8.016391054358685,-0.6950597241067342
0,-2.1455099059976024,-0.3194947372480733,5.191407707321641,2.9639229873036266,-0.6900592944369031
0,6.532487826613289,1.5198241147984533,4.909904412063413,5.13145161174368,-0.6850588647670683
0,-6.919517902725292,-5.4108628364149585,-7.771602031558518,2.7889769324470013,-0.6800584350972372
0,-2.831527086082822,-1.7015555858741247,0.44688838305158796,7.536498953759532,-0.6750580054274025
0,8.666460284594839,6.017745871603255,9.545375662552871,7.4240176795535895,-0.6700575757575713
0,-0.2255557826158267,-2.7529584587463205,-0.3861401864823489,6.031533113109525,-0.6650571460877401
0,-9.197575279782574,-9.653668571705673,-8.397659157733589,-9.51095474285299,-0.6600567164179054
0,0.940401801059594,0.17561553814068454,4.590818755075187,-3.6534458858074075,-0.6550562867480743
0,-5.201624531826766,-9.395106123355589,-9.780706441574212,-9.355940312925938,-0.6500558570782395
0,-10.033654269800472,-8.24583354981887,-13.84223474083846,-4.008438020800178,-0.6450554274084084
0,-3.965687403728608,-2.976566734256515,-7.063766135197363,-1.9309390054237348,-0.6400549977385772
0,-0.5977239238904095,-0.5173056690713214,0.8746993837516304,2.476556737638243,-0.6350545680687425
0,-2.1897638201167435,-3.3180503462670354,-3.806838174932156,0.04404921298513009,-0.6300541383989113
0,-4.461807081978451,-2.358800757609767,-0.8983788018669953,-2.3384615747895685,-0.6250537087290766
0,1.6761463011710664,0.3204431053409311,3.6700775124891347,-1.8509756210742938,-0.6200532790592455
0,-2.445903659827745,-2.360318748797594,-7.841469222243136,-1.253492921135512,-0.6150528493894143
0,-4.007956953989785,3.1589136886965514,-0.34301899633925687,3.093986529896291,-0.6100524197195796
0,9.03998642978857,9.2181404265046,11.77542820006466,7.49146273687478,-0.6050519900497484
0,0.6479265025823362,1.1473614730165562,1.0838723767200966,1.9689357043879658,-0.6000515603799137
0,-10.834136724701118,-12.053423163731203,-10.597686456957193,-8.663594563312706,-0.5950511307100825
0,-3.7362032410868578,-6.1242134756574265,-6.5292482915779315,-6.166128062000465,-0.5900507010402478
0,-0.8782730351788673,-4.145009454150011,-2.8408131172876065,-4.3686647870488695,-0.5850502713704167
0,-4.000346095139193,-0.3658110899835735,0.7776190763228962,1.0187952666929367,-0.5800498417005855
0,-3.1124224088240218,-1.7266183735393956,-0.03395170002886516,-3.503747895265192,-0.5750494120307508
0,5.255498036143828,8.132568704945554,7.594474564409732,3.643705732756468,-0.5700489823609196
0,2.153415252217579,1.0017501551271821,1.0728978801994113,1.901156156467088,-0.5650485526910849
0,-1.9986707482821946,0.21092598638283522,2.6913182575774015,-0.1913966185232559,-0.5600481230212537
0,8.659240046773965,7.060096207817873,12.32973570641601,1.1860474132561007,-0.5550476933514226
0,7.247147649248462,6.269260828245755,5.748150236081828,2.6134882571695366,-0.5500472636815879
0,-3.6249479294310687,2.678419856041946,0.7265618552744406,2.5509259184520188,-0.5450468340117567
0,-0.5370466782092504,1.0875732991077411,2.2149705721358646,-0.20163959784556607,-0.540046404341922
0,5.240851413854251,5.856721164988945,7.923376394464043,0.8657917131632673,-0.5350459746720908
0,-7.6912536423177045,-8.16413653900473,-12.518220670193237,-5.106780143695664,-0.5300455450022596
0,-6.503361835731661,1.2650001943707023,-1.629820614321166,2.780644836468655,-0.5250451153324249
0,2.674526844904615,1.3541313724693569,3.318576569865252,0.2480666586446869,-0.5200446856625938
0,-8.747587588735291,-5.876742997235158,-9.283029109557027,-0.7045146721633305,-0.515044255992759
0,-8.819705124604262,-4.617622907128375,-8.66463764423768,-2.3270991509655223,-0.5100438263229279
0,-0.5218257501424564,-2.698508349292924,-0.516249025343904,-2.129686772699614,-0.5050433966530932
0,-2.013949452246359,-7.279399315398429,-3.657863243485809,-0.3722775321485483,-0.500042966983262
0,-12.146076217402872,-13.360295796608174,-15.879480288801282,-7.584871423901276,-0.49504253731343084
0,-4.108206031637652,-1.8611977833895357,-4.221100150816734,-5.107468442251306,-0.4900421076435961
0,10.879661119553578,6.36789473447827,9.62727718165746,11.429931418861743,-0.48504167797376496
0,-8.862474749078503,-6.843018232459526,-5.6043482798257225,1.1773281655862615,-0.48004124830393025
0,-9.354613622733279,-9.343936673539865,-9.695976523670442,-11.70527819613371,-0.4750408186340991
0,-0.06675548629825445,-3.9948605777420614,3.3923924619309584,-10.67788766029433,-0.4700403889642679
0,-5.338900324135657,-11.635789933407752,-9.119241310809315,-8.68050022024956,-0.4650399592944332
0,-1.1310481201864897,-1.3367247281721633,-0.6408778293064393,-1.5031158684648935,-0.46003952962460204
0,3.836801141865852,3.052335050922661,6.837482919307777,-2.3457345967065604,-0.4550390999547673
0,-1.0553525215772477,-3.268610582863238,-1.4041590520315141,-6.328356396313827,-0.45003867028493616
0,-1.3875090941598107,-8.799561616144553,-4.6758037305052325,-5.000981258266268,-0.445038240615105
0,4.650331440430701,3.699481964708835,2.602548896692393,-8.253609173073983,-0.4400378109452703
0,2.528169098431942,-0.981479826374613,3.040898842448747,-4.326240130668658,-0.4350373812754391
0,-2.3239961040959667,-4.722446975314759,-4.2407538803697085,-2.1988741204014493,-0.4300369516056044
0,1.7338358487563883,-2.6534194679009104,-1.1624092589323818,0.20848886881824802,-0.42503652193577324
0,4.471664972823444,-1.1243972896770933,2.5359327196696384,0.16584884831087177,-0.4200360922659385
0,-2.0305087161783257,-6.775380425900665,-6.285727931551454,-2.0567941705223824,-0.41503566259610736
0,-1.0026852026688415,0.8336311384651243,2.9726088005133264,5.750559823737013,-0.4100352329262762
0,5.445135528878298,2.162637418714851,8.95094292902079,2.5779108424216624,-0.4050348032564415
0,-0.0070465060849032035,-4.71836156973961,-1.350725533052869,-0.41474110335705106,-0.4000343735866103
0,-5.989231292230952,-8.84936581137568,-9.642396573000859,-6.847396002657651,-0.3950339439167756
0,6.0385811857498695,8.989624709604634,12.165929821857446,10.789946155479774,-0.39003351424694443
0,10.306390943143573,7.668610009159005,10.184253664175122,11.607285381926209,-0.38503308457711327
0,-6.395802005050829,-10.66240989696132,-11.577425033773606,-7.225378312910866,-0.38003265490727856
0,-8.967997644111101,-5.963434993154105,-8.189106259992316,-3.528044919071618,-0.3750322252374474
0,4.8198040408204585,0.1855347364749722,3.7792099977926545,-1.6907144265844394,-0.3700317955676127
0,-2.972396935077677,-8.305500691702889,-9.862476247658115,-1.753386825191704,-0.3650313658977815
0,-5.904600556437179,-12.176541260836764,-12.424164983136132,-6.706062104360599,-0.36003093622795035
0,2.113193192286956,3.622413046533861,5.2341438051558375,-1.1587402532612372,-0.35503050655811563
0,-3.0990156731343443,-4.1386377515474635,-3.0275498684232693,-7.401421260692515,-0.35003007688828447
0,-13.251227136688673,-12.069693636648216,-15.119245989177053,-13.134105114976798,-0.34502964721844975
0,0.03655881805582473,-0.340754589902748,2.469055458002731,-1.6467918037671732,-0.3400292175486186
0,-5.29565779189076,-9.881820591857593,-8.122645511192232,-14.769481313919664,-0.3350287878787839
0,-7.267876949004759,-9.762891622427052,-11.62434888050517,-8.17217363145577,-0.3300283582089527
0,-1.0000986353063421,-5.943967660809425,-2.2360546330540307,-5.554868741504619,-0.32502792853912155
0,1.0976771675961405,-3.945048685434492,2.0122372486927276,-2.4275666283770567,-0.32002749886928683
0,1.6654504783036264,-6.096134674083744,-2.549473217352421,8.039732724118084,-0.31502706919945567
0,-3.3967786845749752,0.9127743959521584,-3.701186013140854,0.9370293322441665,-0.31002663952962095
0,6.210989697533418,8.771678547662216,7.457098879478755,4.564323212013227,-0.3050262098597898
0,-0.8712443568678284,-2.7394221960225433,-0.7846185213342958,-1.9883856208770025,-0.3000257801899586
0,-6.863480829366115,-3.7605278123872625,-6.656338197527817,-1.891097150907334,-0.2950253505201239
0,-0.17571970147987637,5.4283617212231805,2.7619398689655426,2.46618863742823,-0.29002492085029274
0,1.2320390455036825,3.987246427457227,1.7002156963520472,1.573471759655754,-0.28502449118045803
0,3.559795430424388,8.876126328722528,2.6284893028466807,8.840752231177254,-0.28002406151062686
0,3.9175494720125634,8.44500144690407,5.436760706478585,7.118030067030073,-0.2750236318407957
0,10.725301188679028,12.083871803153585,12.025029924916787,10.335305281639043,-0.270023202170961
0,-6.086949401626924,-3.087262582202051,-4.756703024706177,-0.10742211130694412,-0.2650227725011298
0,-13.39920228123525,-9.708401689402573,-13.27843812564909,-6.360152098682345,-0.2600223428312951
0,6.058542567751456,8.740454501262716,10.089824638939211,3.6371153324800285,-0.25502191316146394
0,0.31628516365291115,0.5093060096448534,-0.3019147138063045,-0.7656198047645446,-0.2500214834916292
0,-13.465974474994779,-11.571847144411691,-11.333656166690712,-9.158357497263687,-0.24502105382179806
0,0.6717636705910008,7.08699505900448,5.674600297568733,3.588902268314279,-0.2400206241519669
0,-0.6205003803723694,2.0958326399762055,0.8128546964714001,-1.0438404944489947,-0.23502019448213218
0,-7.512766608305493,-8.545334381392545,-13.92889295234773,-6.906585771807777,-0.23001976481230102
0,-3.065034993338724,0.3634940150289103,-2.430642630998477,-1.0493335498352665,-0.2250193351424663
0,-0.10730551524172816,-2.527682150404182,0.18760567892172308,-5.762083814288187,-0.22001890547263514
0,-1.0195781534769581,-6.338862857053683,-3.504148003744662,-0.4548365505672751,-0.21501847580280398
0,-9.091852887302128,-10.320048083929702,-9.265903659876424,-7.037591743741286,-0.21001804613296926
0,5.235870304273131,11.078762190433057,9.34233872995471,8.199650621405839,-0.2050176164631381
0,-2.036408557518558,0.4375679877739762,0.02057918537216663,2.966890560175607,-0.20001718679330338
0,-8.798689451304725,-10.733630670227711,-10.76118227403001,-3.085871912309275,-0.19501675712347222
0,-4.3009723554704244,-2.684833761838142,0.7270543714279891,-6.708636781075336,-0.1900163274536375
0,2.676742752026742,4.30395873503005,7.645289141697422,2.5285959689894333,-0.18501589778380634
0,-8.185544106402348,-12.59725315720727,-10.046477943159907,-5.704173646727689,-0.18001546811397517
0,-0.21783290808521438,-1.0684694158473853,1.8717531369193998,-0.4069456126082127,-0.17501503844414046
0,7.459876369869999,9.680309982151208,8.069982402080456,5.7502800871288615,-0.1700146087743093
0,1.627583750354599,-2.2009149400728623,-1.711790127587853,1.4075034682543113,-0.16501417910447458
0,-4.164710743971136,-9.232144159521873,-8.593564432182164,0.03472454633903199,-0.16001374943464342
0,9.592992909355377,9.09662234682233,8.654659508212465,4.241943336738269,-0.15501331976481225
0,4.1506947326055785,4.305384602062032,3.3428817135860687,5.469159854600115,-0.15001289009497754
0,-2.4916052522940375,-3.1458573708797877,-3.0588977962304202,4.1763741147496845,-0.14501246042514637
0,6.626092976243508,8.042896450624198,9.149320998332106,1.3535861315988549,-0.14001203075531166
0,13.063789439495435,13.671646088877544,15.277538116504617,12.64079591913802,-0.1350116010854805
0,-9.138515841729372,-5.219608434360956,-5.924246423098021,-0.9919965091286848,-0.13001117141564933
0,-4.060822846999095,-3.0008670978634635,-0.7860326024741343,0.9552088598011022,-0.1250107417458146
0,7.976868444144314,6.33787011944135,9.682179596126806,3.8424120386032343,-0.12001031207598345
0,1.3745580522476395,-2.3233967613621296,-0.4096098096977886,0.5096130397692025,-0.11500988240614873
0,0.032245997686787264,4.22533228071517,1.9785991973485162,3.996811875596177,-0.11000945273631757
0,3.009932300599245,-1.3059427334844336,3.5868066342765577,-1.1959914418267308,-0.10500902306648285
0,2.027616980953526,0.8827782167718414,1.1050125178815544,1.2612030994292431,-0.10000859339665169
0,-1.3346999414425607,-3.3285048478257275,-3.7267831352220444,6.608395511165169,-0.09500816372682053
0,2.7429815530874313,1.3002080934602818,5.211419691499356,4.065585804955143,-0.09000773405698581
0,12.500661484058053,10.01891706138256,8.459621014488429,8.482773991957812,-0.08500730438715465
0,2.438339870584314,1.9776220764661798,2.8778208498579856,3.969960082783936,-0.08000687471731993
0,-0.12398326879267263,1.8563231587990496,-1.0739807867560287,0.4671440874956645,-0.07500644504748877
0,2.883692084043877,3.3850203280793707,4.2642161199396735,1.8043260157564363,-0.0700060153776576
0,-5.248634052958963,-5.576286396220167,-9.297588414891234,-7.218494122935694,-0.06500558570782289
0,-5.200961661811519,-6.807596994630472,-3.3593943759852642,-5.321316318975928,-0.060005156037991725
0,0.12670927572392565,1.9310885525813086,3.8087982522221155,-5.734140562378087,-0.05500472636815701
0,7.584378778136147,7.24977026542102,6.826989485483973,6.233033157304895,-0.050004296698325845
0,-5.027953136086287,1.4884481638377647,-3.144820660594115,5.5702048507173565,-0.04500386702849468
0,-0.2402864485793451,3.7271222674516578,5.773367829312958,0.18737452831121926,-0.040003437358659966
0,4.057378859000516,4.085792595524032,6.061554970278361,2.594542200197692,-0.0350030076888288
0,-6.364957194978529,-4.195540832973872,-7.540259222902451,0.8617078762391057,-0.030002578018994086
0,-9.157294592049022,-9.456877999160135,-9.302074735536447,-10.52112843379238,-0.025002148349162923
0,5.990366686578201,9.221781116052345,3.206108447368991,1.0360332800295016,-0.020001718679328206
0,-2.661973339972662,-3.7995634680283636,-2.615709658769235,-2.0468069720342217,-0.015001289009497043
0,-9.064314652414634,-4.540911732054729,-7.557529038269113,-5.339649179427035,-0.01000085933966588
0,1.113342768760483,4.8077363433740565,6.500650324769971,2.2275066686376372,-0.0050004296698311634
0,5.22099894336177,0.6863807777392579,0.4488284464076866,-2.615339416853374,0.0
0,2.3986538912524322,-0.5549784095327182,-1.4829946573354356,0.2918125752098144,0.005000429669834716
0,-0.6136923679217772,2.673658800867285,-1.424818970523055,-6.051037343959395,0.01000085933966588
0,0.20396018527761717,1.7822924281470018,3.0633555228010962,-4.873889162931091,0.015001289009497043
0,-2.6683884297678917,1.3609224913732278,-3.668471161373618,-1.7367428699162542,0.02000171867933176
0,0.679261806377033,3.3895490094330842,1.3597009929549349,-3.5595984527382827,0.025002148349162923
0,2.8669109132102726,9.14817200096558,9.487872001766293,0.20754410108382126,0.03000257801899764
0,-1.1554410897945977,-0.6332085157768401,-2.743958119153547,1.1946848042207154,0.0350030076888288
0,0.30220581675760627,0.7054074770442087,-0.8857893543034778,1.6118236693938321,0.040003437358659966
0,2.7898516522058845,4.224019997004335,3.6823783116775344,-6.481039290702217,0.04500386702849468
0,-2.1325035641662433,-1.7573709384793643,-3.219455105878201,-5.183904063272657,0.050004296698325845
0,-8.01485981307652,-5.198765312083026,-8.901289591601921,-0.1167706352055553,0.05500472636816056
0,-0.1272170750387801,-2.510163106383709,-0.9231251298692328,-2.9196389930309845,0.060005156037991725
0,0.6004246697604176,1.3184356963016697,0.9050382953423763,-3.522509123016501,0.06500558570782644
0,-2.7219345586509904,-5.262968886115214,-4.946799299666328,-1.2853810111950044,0.0700060153776576
0,3.8257052598282915,6.44562316441131,4.81136210154029,3.551745356610767,0.07500644504748877
0,7.543344145245903,11.634211865874239,7.849522515396794,4.468869994614882,0.08000687471732348
0,2.5609821173729514,2.2027972358547583,2.0276819580739036,7.065992916802574,0.08500730438715465
0,-0.9413808044281086,2.4013792913156133,4.185840445293364,2.313114136731008,0.09000773405698936
0,4.516255398900082,8.63995804870549,8.283997992330125,5.110233667481357,0.09500816372682053
0,1.0838907462241165,-3.831466475925926,-3.167845385973213,-4.522648478245912,0.10000859339665169
0,-13.338474743691966,-14.422894266735748,-16.479689675013628,-11.5955322878556,0.1050090230664864
0,-4.320841051876749,-6.574325307574448,-4.231534859872461,-10.878417748377224,0.11000945273631757
0,-0.8832081588151464,2.454240418419595,-0.18338092489823543,-2.6313048460567847,0.11500988240615229
0,-8.025576044445456,-5.257197071304293,-7.995227853811178,-4.054193566344234,0.12001031207598345
0,-7.157944688248321,-3.8586377589876713,-4.3270756299002855,-2.767083894142315,0.1250107417458146
0,-1.6903140691788934,-2.240081626591599,-1.9389242360152446,-6.859975813966227,0.13001117141564933
0,-5.842684165653026,-8.091528655719767,-10.960773654537729,-2.892869309930668,0.1350116010854805
0,-11.585054955589317,-13.372978827489415,-9.622623867299158,-9.885764365677058,0.1400120307553152
0,1.3125735836664028,-2.1044321223056945,-0.4044748554201447,-0.12866096431570317,0.14501246042514637
0,-2.3497985246738953,-8.465888519771843,-7.806326599333897,-0.8915590884750435,0.1500128900949811
0,-11.002171257004047,-10.027347998771967,-7.968179078918786,-3.7444587204759427,0.15501331976481225
0,8.015455410625671,9.701189462436915,14.749967726404172,8.792640157494276,0.16001374943464342
0,4.6730815023920105,1.9697238859343904,3.6081138373168917,3.359737563172973,0.16501417910447813
0,0.79070704234307,-4.621744706277802,-3.463740725863094,2.276833513977283,0.1700146087743093
0,1.0583320542020092,3.2167837076472425,4.354404056797355,8.773928026901418,0.175015038444144
0,6.625956561434512,5.365309149507633,8.352548205023156,8.781021118453944,0.18001546811397517
0,-3.186419412722013,-3.7461683590232218,-3.3393082617403476,0.5781128045296662,0.18501589778380634
0,1.0012041547684563,-1.4176487964188147,-1.211165324349222,2.0452031004485924,0.19001632745364105
0,6.578827286826439,3.6508678588469596,7.916977036213694,3.392292021171883,0.19501675712347222
0,10.066450006151515,4.779381628292053,1.3251188388396948,7.499379581390192,0.20001718679330693
0,-2.665927665031064,-2.6621074667415696,-5.25673989782,1.2664657954265937,0.2050176164631381
0,-4.698305704936223,-1.1235994050950395,-0.32859915521751604,-6.2264493227577775,0.21001804613296926
0,10.449315908083605,9.174905834320247,11.169541085246301,10.280634240637719,0.21501847580280398
0,5.956937195561148,6.4434082724075665,2.9876808420123444,6.357716499275591,0.22001890547263514
0,5.084558178601435,5.501907929587652,6.765820133039793,-0.18520253356696514,0.22501933514246986
0,15.492178877648175,20.540404825570683,20.863958975616516,8.431877154895746,0.23001976481230102
0,5.9997993123371876,5.948898979116161,2.452097386119838,5.338955577000911,0.23502019448213574
0,8.537419501379679,12.957390407836995,11.530235379851884,10.816032744547671,0.2400206241519669
0,14.625039462562597,12.855879128200902,19.638372971075725,11.543108668602244,0.24502105382179806
0,5.122659212733735,10.844365155553064,11.126510172900417,5.10018335934226,0.2500214834916328
0,-6.139721232125779,-1.787151495835587,1.5546469971414534,5.297256826071351,0.25502191316146394
0,2.5678981435043866,5.421329187528493,8.302783454571284,2.74432907741418,0.26002234283129866
0,6.125517355054771,4.389807218702354,4.390919555285783,2.8014001215235487,0.2650227725011298
0,-9.236863582112239,-7.421717389538792,-9.960944691074005,-4.8715300337466045,0.270023202170961
0,-13.249244652577877,-10.543244624456241,-9.092809274941258,-7.034461380582287,0.2750236318407957
0,-10.741625840362126,-11.584774472852812,-9.02467418626661,-12.077393910831658,0.28002406151062686
0,-17.174007128447904,-20.556306920585182,-19.416539414114368,-12.43032761561454,0.2850244911804616
0,-13.386388498546628,-8.837841952230246,-13.208404946384007,-7.7132624850589675,0.29002492085029274
0,0.16123006892467973,-6.2993795510144475,-5.070270769638267,-5.756198508279089,0.2950253505201239
0,-4.491151405455028,-11.850919699044148,-7.462136869260537,-5.80913567355552,0.3000257801899586
0,-15.933532900475601,-18.30246237745572,-17.754003229719384,-11.332073968484638,0.3050262098597898
0,-4.475914394270279,-3.6340075662772575,-3.8558698345510436,-2.2050133799740896,0.3100266395296245
0,0.2717041358259167,2.274444755532968,-0.9677366663308538,-0.327953894285395,0.31502706919945567
0,-7.840677286902533,-8.207105390337858,-9.9596037069313,-1.9608954972682606,0.3200274988692904
0,-4.743058638754944,-2.058657981873531,-1.8714709377336516,2.886161825392458,0.32502792853912155
0,9.274560104335166,10.519787003194892,11.12666166026965,3.85321808801119,0.3300283582089527
0,7.122178966528004,-0.21177041285730125,1.4947941061226473,1.3702733047445221,0.3350287878787874
0,-6.570202028325527,-3.2333302080140864,-6.817073581425587,-2.4826725104683245,0.3400292175486186
0,2.2374171433148833,6.92510763954102,7.131058616182411,-0.7956193437842751,0.3450296472184533
0,9.995036504884034,7.093543151472059,4.499190717448014,4.661432818664595,0.35003007688828447
0,-4.647343920363047,-1.8180236508919032,-4.192677259315177,-5.111516009255015,0.35503050655811563
0,3.3102758905417344,7.67040725336844,11.865454703940026,-0.5844658136841362,0.36003093622795035
0,3.707895960376188,5.058835884805661,8.703586624918811,-0.9974165806654702,0.3650313658977815
0,1.7055163117486605,0.31726226356831977,-0.9782814792383312,4.909631703870142,0.37003179556761623
0,-0.31686303295970875,6.46568640939745,7.5998504080055,1.946679053942221,0.3750322252374474
0,3.9107579484436457,6.254108341656698,6.897982302711483,2.7137254833548776,0.38003265490727856
0,-4.291620721970777,-4.637471920688597,-8.453885779482448,-2.389228994323923,0.38503308457711327
0,1.126000977819794,2.750945641035197,-2.0757538231508694,5.787815634320314,0.39003351424694443
0,8.233623069823903,9.609361045353612,8.602378187224238,8.264859382520147,0.39503394391677915
0,1.7712455758786754,-3.382225689446489,1.010510267185117,3.1719022631177953,0.4000343735866103
0,-2.6311314825081116,-5.893814545350041,-1.9313575679512578,7.7889442884025275,0.40503480325644503
0,5.876491915927547,3.8145944956514093,7.926774696897243,4.625985470093385,0.4100352329262762
0,3.6641157922870677,2.433001451697343,2.7949070765962443,1.8730258193732765,0.41503566259610736
0,-7.168259832534867,-8.828593659053336,-4.716960414276508,-3.8499346529750293,0.4200360922659421
0,-4.120634937705246,-1.290190818364134,-5.408827761279135,-5.582895936269518,0.42503652193577324
0,3.1669904978271997,3.0582099922533184,3.2993050501981327,-1.6358580196153996,0.43003695160560795
0,-1.3953835046521577,-3.8333912085159363,-6.632561964979552,-3.2588208917719235,0.4350373812754391
0,-7.107756923752751,-15.874994401823493,-9.84442879168591,-11.251784541131327,0.4400378109452703
0,1.4998702620794049,0.4734004316360587,2.603704585624442,-4.604748955590928,0.445038240615105
0,-0.322501925362377,-2.508206688173235,-0.08816181706509318,-2.7577141224188053,0.45003867028493616
0,-5.614873464115799,-4.959815740803757,-6.790027983542725,-0.8506800283486398,0.4550390999547709
0,1.9427556679253375,-1.5914267055002669,1.4581061025597433,0.7063533401836759,0.46003952962460204
0,-0.19961450697595262,1.0669604387639802,0.9562404578032879,-3.066614003130019,0.4650399592944332
0,-12.931983966404477,-10.594654286752053,-12.945624901082711,-5.529582044477835,0.4700403889642679
0,-3.024352687618326,-3.24627086048078,-5.2274899570510875,-3.89255076978953,0.4750408186340991
0,6.163279352626802,7.922110739546187,4.4706453074862065,2.37447983535784,0.4800412483039338
0,-0.8990878221433954,-3.8095094645022445,-1.9312190894796122,-1.3384902143669501,0.48504167797376496
0,0.05854581154568583,2.8688685494725856,1.3069168701248763,0.018539095779101178,0.4900421076435997
0,2.5861802770528466,2.677244803449,0.06505320433398265,0.10556778055264948,0.49504253731343084
0,4.433815597628859,-0.6443806807164633,-1.7468100688366295,0.2825958547235292,0.500042966983262
0,-3.518548203652237,-9.886007881235415,-8.258672931301046,-0.6203766669376916,0.5050433966530967
0,3.169088896124518,2.3523632238477346,4.299464635255954,1.776650230330843,0.5100438263229279
0,4.876726919772135,9.86073265673154,8.21760264933874,1.4536765612540052,0.5150442559927626
0,-0.27563411007034,-2.300899560452815,-3.3842588706734107,1.620702340459891,0.5200446856625938
0,1.4520058289997446,1.2474665941172516,2.4838800933117247,2.2177275824310403,0.5250451153324249
0,5.949646759185483,7.905831142015507,10.172019559161237,4.144752301465328,0.5300455450022596
0,-5.652711297496178,-1.7958058954161205,-6.459840455524578,-0.4182234883670841,0.5350459746720908
0,-6.1350683191045885,0.8125555028987657,-1.3716999333912394,0.27880022679717975,0.5400464043419255
0,7.562575716457368,9.040915357826712,12.796441142844579,4.905823460685675,0.5450468340117567
0,3.290220831407537,-1.1507263100131546,-0.5654172096967921,-2.0171537731064686,0.5500472636815879
0,-2.5321329521928524,-3.802369480288958,-0.7572749742711463,3.7998685388584406,0.5550476933514226
0,4.515514387484583,2.365985867225667,4.060867865576801,1.2868904098702187,0.5600481230212537
0,4.683162872095656,-0.37566024718604774,-1.6109886738232302,0.603911853064133,0.5650485526910884
0,-3.1591874769215402,-6.537307803178944,-8.192844576178981,-0.3890671185641541,0.5700489823609196
0,-6.361536638279099,-1.6189567802593614,-1.7946998250228943,-2.412046492071355,0.5750494120307543
0,1.0961154094330439,3.979392842315029,3.78344559644661,0.10497374553559036,0.5800498417005855
0,-3.5862313120987492,-6.612258914549561,-5.188408294754141,-2.6180063926429717,0.5850502713704167
0,-10.158576780905383,-8.7039120297989,-9.730261481468224,-5.130986893354425,0.5900507010402514
0,4.529079025345545,1.7344335179769361,4.297886053780686,1.106032256879822,0.5950511307100825
0,2.0067361293151795,-1.4272222493906994,-0.8339656711719994,1.3330510717538495,0.6000515603799172
0,-8.995605446225186,-9.378879309789667,-10.065816638297786,-8.54993043491818,0.6050519900497484
0,0.31205432159105206,1.169462359175614,3.5523331706403827,1.2770877508339544,0.6100524197195796
0,6.9797154558323715,3.95780278021602,4.910483774124828,0.7941056432176319,0.6150528493894143
0,-3.6526220203848707,-6.493858023820949,-8.161364809311127,-1.1488767434186498,0.6200532790592455
0,-4.6049580840353865,-0.36552003004287215,-5.303212561108165,-3.871859394682901,0.6250537087290802
0,8.51270728792829,6.422816784545974,9.604940537520815,4.415157703899133,0.6300541383989113
0,-1.7796258814282564,-7.198847557023792,-4.886905494478832,1.4721745668497932,0.635054568068746
0,-8.351957569122007,-12.910513031654036,-10.008750638153572,-7.810808791356867,0.6400549977385772
0,2.7857122479024987,5.307820384144684,3.249405125650769,-0.9337923561886157,0.6450554274084084
0,1.0733835929230064,4.286152714313825,3.927561816411534,6.673223887091467,0.6500558570782431
0,2.3010564892890573,0.5344839828519206,3.185719453645865,4.620239953245025,0.6550562867480743
0,2.6987309602220573,2.6028142135212957,3.7138780566088987,-0.6227441432484903,0.660056716417909
0,0.46640702874737183,3.0311434298458204,1.7120376442233396,0.3242716117779796,0.6650571460877401
0,-9.675915282223002,-11.070528344790706,-12.409801764791673,-6.358712767608099,0.6700575757575713
0,1.911764050349913,0.4577989130848752,0.5383598484097825,1.1883027327835642,0.675058005427406
0,7.179445049740734,5.6761252272144755,9.776522502989925,7.375318127297571,0.6800584350972372
0,-5.212872260756082,-2.8155493785465056,-4.715313781826417,-3.977666569767397,0.6850588647670719
0,-5.205187857937657,-1.2672248804173907,-2.9671489869759067,0.7393486557200912,0.6900592944369031
0,4.622498281501715,6.921098745333005,8.981016906552993,4.516363817804404,0.6950597241067342
0,6.110186180991213,4.469421522320397,2.8791839176994456,1.5033789304357335,0.7000601537765689
0,-1.5921241361893177,-1.1722565261462734,-3.3826479348740874,-1.3396059926229458,0.7050605834464001
0,7.675567352928148,9.976064622886197,12.565521367194865,8.057409062205513,0.7100610131162348
0,18.51326067089253,14.454384991931317,16.35369184186215,15.784424108190759,0.715061442786066
0,0.8309558395189336,2.3727046027735508,0.6718635062868406,8.141439157897636,0.7200618724559007
0,12.01865287967481,8.50102347632376,8.140036376679653,8.188454222878232,0.7250623021257319
0,16.95635181130438,13.789341632702527,18.018210468443726,18.295469313643014,0.730062731795563
0,9.874052653306093,9.417659091180965,7.706385796083627,12.282484439588627,0.7350631614653977
0,0.591755423418004,2.10597587006288,2.2745623730415248,5.539499608861647,0.7400635911352289
0,5.969460138480254,3.584291986847359,8.99274021187989,3.306514828509548,0.7450640208050636
0,-3.702833185155233,-7.997392541395221,-8.489080675386692,-6.446469895074312,0.7500644504748912
0,-6.105124531301693,-12.519077697563146,-6.490900276928228,-7.629454555623594,0.755064880144726
0,3.032586116344504,5.059236535911205,8.43728141926929,3.5775608534132908,0.7600653098145607
0,3.5702987742676857,4.187550177077424,1.2554644253957217,-4.435423661056655,0.7650657394843954
0,-5.231986541042237,-1.1441367559413291,-6.146351246450464,-1.9284080919122941,0.770066169154223
0,-4.724269813106282,-2.095824245181741,-2.928165584215165,-3.991392431839896,0.7750665988240577
0,5.49344897472194,5.932487727244132,8.1700214243196,0.22562332672677832,0.7800670284938924
0,-0.9488301607610863,-2.2592008208276475,-5.321790208545329,-2.6673608084155305,0.78506745816372
0,-5.1811072027579135,-5.820889871629854,-7.453600470524143,-1.2603448292967476,0.7900678878335547
0,4.926617865554548,6.877420592656256,8.97459065080912,-1.3333287277917516,0.7950683175033895
0,-3.735654938918485,-1.4142694100784334,-3.2072168319662246,-4.416312495606443,0.8000687471732242
0,-6.477925599189959,-4.855959861974712,-10.949022906240348,-8.51929612419167,0.8050691768430518
0,4.36980590190685,6.87234925482286,7.34917244076268,5.99772039537414,0.8100696065128865
0,2.817539581712349,4.4906579581448085,2.537369222047589,-0.5152629277035206,0.8150700361827212
0,-10.174724542418833,-8.921033734357518,-12.224432549350281,-9.558246084133138,0.8200704658525488
0,-2.166986453040673,-6.242725805079325,-5.246232860271057,-7.171229064422142,0.8250708955223836
0,1.0807538676151833,3.065581763892329,1.2119683029053534,-3.1542118585589525,0.8300713251922183
0,-5.421503562366237,-7.546111009140533,-2.9798290457382888,-4.137194455932134,0.8350717548620459
0,-10.613758724628187,-5.427804105564727,-6.391624891849762,-5.740176845446495,0.8400721845318806
0,-4.996011600339883,-3.419497506374985,-2.123419220797185,-3.5531590155738355,0.8450726142017153
0,-12.188262169962064,-13.681191192036255,-11.245212017529765,-12.036140954296522,0.85007304387155
0,-17.97051041307446,-20.552885142252016,-21.837003266338442,-13.00912264892983,0.8550734735413776
0,-9.62275630812988,-8.514579335557404,-6.948792950438905,-10.202104085849,0.8600739032112124
0,-5.154999832331531,-4.736273749146449,-5.110581051761932,-8.945085250336412,0.8650743328810471
0,-10.357240961830108,-11.627968359132275,-11.422367551190098,-8.688066126640983,0.8700747625508747
0,-8.009479671944053,-4.419663140812701,-6.494152428799783,-6.331046698107104,0.8750751922207094
0,3.678284062743826,3.04864193119563,5.704064336040452,-5.114026947296556,0.8800756218905441
0,-5.643949731828582,-5.403053117291682,-10.977717235563754,-6.287006856111002,0.8850760515603788
0,-5.316181029429813,-0.4247482602580328,-2.3494971222058627,0.640013594090981,0.8900764812302064
0,9.291590196409963,12.983556528394628,15.73872469778389,11.427034422258394,0.8950769109000412
0,9.079363972188133,10.701861274511575,7.586948245964161,14.934055647131897,0.9000773405698759
0,-0.08285967599397637,1.1701660032392738,-3.0548264567234815,6.98107728665125,0.9050777702397035
0,-2.22508072254512,-2.231529260995294,-0.7665993899045459,-2.6719006422252054,0.9100781999095382
0,10.622700857840771,10.136775505844808,15.101629466553419,14.775121876747727,0.9150786295793729
0,-8.789514909707279,-10.684919672396672,-9.930139867468467,-4.387855140681195,0.9200790592492005
0,-4.421728000152758,-7.316614771894951,-5.231907372329772,-2.350831679159171,0.9250794889190352
0,4.546061611696904,2.291690231496127,2.826326971719898,-0.4738077234565429,0.93007991858887
0,1.0838539512279703,-2.3000046376531325,-3.2654368152770794,1.5032167417615132,0.9350803482587047
0,1.0116490437888648,-3.491699354535717,1.3928012868774546,-1.459758268096632,0.9400807779285323
0,9.019446914525531,4.146606105787872,8.741041298376551,2.547267262368381,0.945081207598367
0,9.267247588216694,4.294911768299683,8.909283239157846,8.234293348463343,0.9500816372682017
0,-0.40494891094297186,-3.5667823421537723,-3.0124728713730127,2.57132000521221,0.9550820669380293
0,3.7828574406637374,3.4715237991032417,8.045772985667073,4.22834724719666,0.960082496607864
0,7.550666666250375,2.4998302166475956,6.424020828766072,4.825375088556056,0.9650829262776988
0,0.8184787886566922,-1.0618630650652,-0.9777293240131191,1.85240354303376,0.9700833559475335
0,9.866293830276739,3.456443978271877,6.680522544963075,8.679432623980317,0.9750837856173611
0,8.104111812978797,0.2247513708366411,5.998776452959289,0.18646234432283115,0.9800842152871958
0,3.071932757988264,2.2930591366719657,-0.32296758316309226,4.843492716562866,0.9850846449570305
0,0.2897566859127364,-0.4386327003186016,1.7952904530781764,5.540523752820833,0.9900850746268581
0,9.997583616922524,10.319675883606477,15.523550577852221,12.967555464768978,0.9950855042966928
0,5.685413570774748,0.49798491189310723,5.011812806825516,3.424587863421406,1.0000859339665276
0,-3.4567534332814267,-0.29370559240383254,-3.8099228450432845,3.8716209590471955,1.0050863636363623
0,8.26108262358372,8.604604393458946,7.9283436366769475,5.8986547613105875,1.01008679330619
0,7.438921759880687,7.122914891907769,5.226612266115097,7.015689279385702,1.0150872229760246
0,-9.533236006255326,-7.198774075071647,-10.835116942888513,-0.7672754780501185,1.0200876526458593
0,-7.635390656862551,-6.990462485742774,-6.5068439765510755,-3.200239502704853,1.025088082315687
0,8.322457826273187,8.147849681788092,9.071431179233937,4.496797213585346,1.0300885119855216
0,-5.399690538338369,-8.333837550345594,-5.120291461147107,-2.3561653210179747,1.0350889416553564
0,-11.321835732046946,-14.305524159803909,-9.562011883231937,-9.179127098321656,1.040089371325184
0,1.2360222641070613,-1.2472101237421633,0.13626992767963197,-1.2120881099055765,1.0450898009950187
0,-0.9261165304467951,-6.078895418572881,-3.3654460132764,-2.205048346941384,1.0500902306648534
0,-7.158252095949612,-4.01058002009102,-6.617159690582767,-4.588007800236937,1.0550906603346881
0,3.409615587584228,4.167736096320099,4.471128911589752,1.709033539667181,1.0600910900045157
0,11.89748654026083,8.61605295542552,11.099419809216405,13.216075682336973,1.0650915196743505
0,-0.3246392180458005,-4.915629418207704,-1.7422869819685591,1.913118637067675,1.0700919493441852
0,0.6232383320682502,0.8926889997106431,1.816008553326102,5.390162412578679,1.0750923790140128
0,11.791119209621769,9.341008233336126,15.184306430021426,10.657207016991084,1.0800928086838475
0,1.1590034332515027,-7.070671693325517,-4.507393337395607,-2.285747542143563,1.0850932383536822
0,-0.6531089788738371,-2.1723507564159634,3.5409092650620053,4.041298742225161,1.090093668023517
0,8.364781991046462,9.505971067943445,11.689214251007726,7.418345876795231,1.0950940976933445
0,9.182676360477167,11.664293803523389,7.167521633614521,6.695393867886365,1.1000945273631793
0,-0.7394258536328123,0.942617473553748,-0.8541685745994277,0.9124427212942052,1.105094957033014
0,9.93847536508751,12.830942100518843,11.33414363826741,7.379492442297418,1.1100953867028416
0,6.016380032483599,7.869267706166112,8.482458283574644,5.206543035721709,1.1150958163726763
0,-4.315711836120934,-2.522405688495719,-5.30922462792917,-3.176405494047202,1.120096246042511
0,1.2221997742383597,7.125921936954229,5.929094914016828,3.2006468570588176,1.1250966757123386
0,1.3101148784385241,4.4942506025586795,2.4674169194326567,1.1977000929669717,1.1300971053821733
0,-1.1819665086440985,-0.1874196719950919,-0.49425860185767134,4.094754217479115,1.135097535052008
0,-5.9040443721200715,-5.079088867306503,-2.6559316402042907,2.3118092341809513,1.1400979647218428
0,6.953881303005737,11.309243035933846,7.602397813983049,5.808865146368298,1.1450983943916704
0,6.3218105317568565,1.6675760569127474,2.500729770188312,1.15592195699701,1.150098824061505
0,-1.9102566710884548,-7.814089785464404,-5.990935762339274,-0.3070203312967418,1.1550992537313398
0,5.127679708899053,6.484245527552593,7.35740122549074,8.520038283881055,1.1600996834011674
0,10.365619685833899,12.862582014654608,11.70574074262973,9.237097804608391,1.1651001130710021
0,-6.416436726561918,-5.369080305805388,-3.725917202371338,-0.04584176757219077,1.1701005427408369
0,-4.538489514873999,-3.3807414159028673,-1.3475726014327807,-4.518780431632548,1.1751009724106716
0,2.409461334358091,3.1975987021927414,5.680774553329581,-1.2117181867022597,1.1801014020804992
0,-2.1825841651914386,-6.54405993355008,-5.300875730237663,-1.0146550317652843,1.185101831750334
0,-2.31462599971942,-2.9457173049874266,-2.3425234442962823,1.35240903436549,1.1901022614201686
0,4.253335844656198,13.312626606197414,11.465831419042512,5.509474012904774,1.1951026910899962
0,10.491301381773095,5.460971818210791,4.734188867539466,3.9765399048915917,1.200103120759831
0,3.609270625106099,0.9693183487455985,2.652548908494628,3.11360671102116,1.2051035504296657
0,9.107243587513414,11.037666214898321,9.910911548644986,6.820674431583684,1.2101039800994933
0,12.575220281142421,12.956015433168513,10.269276794141701,7.317743066414607,1.215104409769328
0,3.9532007173249153,2.534366019263889,3.587644650408752,2.0248126148096564,1.2201048394391627
0,1.2611849065861007,2.4527179880686747,2.246015122136177,2.661883075546686,1.2251052691089974
0,11.579172858844025,10.091071353869708,13.404388213436594,3.8389544470216617,1.230105698778825
0,-6.562835416444689,-5.870573869485736,-5.407236072103173,-9.103973272598619,1.2351061284486597
0,-6.984839910098172,-5.082217668420444,-7.238857731286669,-12.036900085069732,1.2401065581184945
0,8.963159387130471,12.486139970644157,10.199523239054527,-0.7898259916264715,1.245106987788322
0,10.591162484550164,6.634499061209583,6.6979068421136665,3.7072490071310487,1.2501074174581568
0,-3.010830608887367,-0.4171403836784143,-3.483706919221002,-0.4956750891071333,1.2551078471279915
0,2.7971801152636004,8.2312216484703,5.694681957539901,-0.14859828068091113,1.2601082767978262
0,13.885194665093753,12.179585169649359,10.853073474583008,1.6984794319957328,1.2651087064676538
0,9.043213048206578,5.527950191190978,8.951467633612335,1.7455580484517557,1.2701091361374885
0,9.291235271372194,12.056316723576328,14.209864435513419,5.642637568083852,1.2751095658073233
0,27.489261340281768,29.864684776262962,23.988263880053722,16.369717989947418,1.2801099954771509
0,22.047291259178287,20.75305435720553,15.116665965521406,16.676799312338712,1.2851104251469856
0,25.825325030325235,30.501425472249142,27.445070688392622,20.563881532276678,1.2901108548168203
0,40.78336265357768,44.18979812466886,43.89347804298505,28.340964645064783,1.295111284486648
0,26.47140412598876,29.928172314679404,31.351888020839862,19.63804864393979,1.3001117141564826
0,25.339449441559637,27.456548039116665,21.760300610238566,18.915133519907535,1.3051121438263174
0,32.73749859135788,39.794925291550605,35.71871579633408,22.622219261842776,1.310112573496152
0,31.705551563642288,34.25330406237228,30.547133561397796,17.109305856623475,1.3151130031659797
0,22.463608343788525,26.98168433867042,21.925553884798376,13.196393289224087,1.3201134328358144
0,25.911668914357993,33.900066104282566,25.33397674309792,17.1234815429024,1.325113862505649
0,31.91973325529465,34.98844933994532,34.25240211027098,17.360570599357075,1.3301142921754767
0,17.49780134397189,22.136834023305223,14.66082995772335,12.177660438738865,1.3351147218453114
0,12.19587315532936,17.07522012909719,12.82926025442413,9.384751039713324,1.3401151515151462
0,18.23394866232404,21.463607629643246,17.96769296739656,8.001842379696908,1.3451155811849809
0,15.742027836307615,18.591996495253248,14.906128062101487,9.07893443511088,1.3501160108548085
0,-2.0098893528094957,-1.38961330554184,-2.575434497405481,-1.663972818429464,1.3551164405246432
0,10.488197063775225,13.398778194435693,14.11300525184765,7.663120594101443,1.360116870194478
0,14.576287054099044,15.017170961412914,17.141447272006708,11.690214647262325,1.3651172998643055
0,-11.475619414515632,-9.414435039260256,-11.130108475675677,-5.582690684933464,1.3701177295341402
0,-6.897522375200927,-8.836039842817106,-10.431662030566716,-9.625595428881502,1.375118159203975
0,1.1505781390728165,-0.6676434843750645,-0.8532134318708628,-5.958499610834114,1.3801185888738026
0,-0.9413179042448745,-3.6292459985526975,-4.994762718193856,-2.761403256465326,1.3851190185436373
0,-0.8432105374802763,-2.240847419569649,-4.656309927638477,-1.1943063908885891,1.390119448213472
0,5.414900207076036,0.047552218611310204,2.4321449020578862,0.22279096111494667,1.3951198778833067
0,-8.38698570290047,-14.07404711771345,-13.57939826652193,-11.000111225027176,1.4001203075531343
0,-17.998868299591752,-20.22564546170728,-19.850939470288306,-16.75301297347978,1.405120737222969
0,-15.430747614468505,-13.707242845430558,-13.4724787451212,-15.865914307499459,1.4101211668928038
0,-5.322623677763791,-6.828839299487031,-7.184016125487972,-8.638815249025352,1.4151215965626314
0,-15.144496518436497,-19.68043485311587,-16.165551644523937,-9.51171581867383,1.420122026232466
0,-11.89636616432404,-12.982029534290632,-11.197085334191506,-11.28461603595698,1.4251224559023008
0,-10.42823264213405,-11.173623369633123,-11.558617225262582,-9.55751591939948,1.4301228855721355
0,-13.850095977400041,-16.835216384394933,-13.900147347296349,-12.99041548651774,1.4351233152419631
0,-20.33195619443184,-23.45680860243058,-21.241675728591197,-14.60331475374108,1.4401237449117978
0,-10.723813316146025,-13.748400045974224,-14.2432023959838,-12.856213736288948,1.4451241745816326
0,-9.125667363999709,-13.36999073550826,-6.884727374737327,-9.45911244810216,1.4501246042514602
0,-25.14751835810312,-25.061580689861554,-22.67625068868708,-18.742010901872746,1.4551250339212949
0,-12.919366317156895,-13.003169926206814,-10.267772360326019,-15.634909108993615,1.4601254635911296
0,-10.471211258277703,-11.994758460003036,-10.409292410750709,-13.217807079403237,1.4651258932609572
0,-11.623053197116029,-14.286346305162873,-15.390810859741805,-8.880704821578998,1.470126322930792
0,-9.694892148130728,-7.847933474296536,-8.422327725885065,-8.163602342754649,1.4751267526006266
0,-4.016728124761144,-4.519519978901576,-3.9138430266595137,-6.8064996491822205,1.4801271822704614
0,-14.578561139559806,-15.891105829561926,-15.605356778607668,-11.529396746282856,1.485127611940289
0,-15.260391204177171,-18.21269103592014,-18.836868997335838,-11.922293638622847,1.4901280416101237
0,-2.712218329186686,-6.8242756063954575,-2.998379697256577,-7.345190329796824,1.4951284712799584
0,1.605957475831819,5.494140451805358,1.240111108374862,1.4819131775281422,1.500128900949786
0,-8.085863798132266,-12.457442867792821,-12.511396592987333,-8.850983118668392,1.5051293306196207
0,-2.4676821597768117,-0.0490255712847788,2.3670971865433943,1.4261207799973306,1.5101297602894554
0,4.0005023825081185,5.149392335566655,4.105592435216052,9.33322487214944,1.5151301899592902
0,-5.311310179454838,-11.302189152785584,-8.445910858557848,3.2003291563197416,1.5201306196291178
0,-7.963119853702199,-2.3337700417104936,0.03258729370672264,3.6774336306179314,1.5251310492989525
0,-5.7849266479297095,-8.155350336182476,-5.168913119279915,-6.315461707250266,1.5301314789687872
0,-17.856730569187704,-18.816930040534398,-20.670412108376695,-14.38835685960682,1.5351319086386148
0,-13.328531623572815,-15.328509158123188,-12.861909683620956,-12.921251828222982,1.5401323383084495
0,-1.5603298160058725,-6.1000876909956965,-0.8334058538514364,-6.014146613861744,1.5451327679782842
0,2.5878748495711803,0.08833436001725598,-0.9549006268758344,2.4729587837061393,1.5501331976481119
0,-7.863917630308558,-7.003243005164254,-6.3563940099706455,-2.1299356347153893,1.5551336273179466
0,-4.905707258865351,-7.85481978616262,-5.027886010093238,-6.182829868098086,1.5601340569877813
0,3.912505961009085,0.743604017876954,3.7706233661589903,0.7442760847865343,1.565134486657616
0,-7.239277973272538,-6.79797159171053,-8.070865887509902,-2.2586177745747746,1.5701349163274436
0,-0.8310590640920299,0.8104533867775381,2.057646222811665,2.8484885554787636,1.5751353459972783
0,1.5071626863789311,4.2488789552755755,1.7761596912078577,1.7055950766301846,1.580135775667113
0,-10.054612723823997,-13.442694884171292,-17.465325488075383,-10.757298209467097,1.5851362053369407
0,-12.456385296335348,-8.834268129271221,-11.026809320365915,-7.0201913009728685,1.5901366350067754
0,-7.848155032102547,-4.395840777107211,-5.9782918101042615,-11.57308419547145,1.59513706467661
0,-9.02992193113641,-11.207412823963034,-13.159772960687782,-10.365976889694187,1.6001374943464448
0,-14.521685992488447,-12.998984265312961,-15.811252774504203,-4.778869379431703,1.6051379240162724
0,-4.993447214229004,-7.0205550957015905,-3.542731252840919,-4.261761659629078,1.6101383536861071
0,-3.5752055934869214,-0.22212530872660738,0.26579160403355917,3.2853462753498635,1.6151387833559419
0,-7.186961126669708,-9.993694897278154,-14.935684203470196,-2.5275455685881814,1.6201392130257695
0,-1.2787138096607436,-1.865263853733722,-3.4671586743838936,-0.46043718545926593,1.6251396426956042
0,4.9995363620368005,-1.4968321700029583,3.7513681928828277,0.05667143076967224,1.630140072365439
0,-1.2922106069502253,-7.558399837599968,-3.850103599658552,0.5637802861852608,1.6351405020352665
0,-1.4639547120628782,-2.079966847681513,-3.20157404984519,2.920889386867144,1.6401409317051012
0,5.814304051191875,8.418466808919263,5.3869568446015,0.28799873880291316,1.645141361374936
0,2.4525656872044252,3.476901141411853,0.8654890860113348,7.2151083478084495,1.6501417910447707
0,-3.79916979983968,-3.4846638412680937,-0.7959773233973745,7.182218219395117,1.6551422207145983
0,3.1890975940954607,8.023771869531448,9.592557618411389,3.639328358588866,1.660142650384433
0,7.637367872965303,6.69220828221736,8.041093913166158,3.8164387698639786,1.6651430800542677
0,-1.5743589594894951,0.1906454048036726,1.4296315620547788,4.823549457220658,1.6701435097240953
0,10.323917100112991,11.429083244811373,14.358170565620457,10.890660424203574,1.67514393939393
0,6.802196054714464,9.107521809208626,6.996710923707471,0.27777167379919865,1.6801443690637647
0,0.660477906701479,-0.5440388957175684,-2.3047473646042556,-1.695116791540949,1.6851447987335995
0,-5.391237342013008,-2.0155988642670106,-3.9662043007687426,-6.7280049695878485,1.690145228403427
0,-0.7529496896326469,-0.11715809096083137,0.9623401136773362,-6.320892857921294,1.6951456580732618
0,-1.5746591341939347,-2.668716570270089,0.10088587733158048,-3.5437804536602235,1.7001460877430965
0,-9.116365673484568,-9.25027429648758,-8.350567011084577,-6.826667753390663,1.7051465174129241
0,-5.398069304928574,-4.181831263542744,-6.272018552611135,-9.90955475314772,1.7101469470827588
0,-0.36977002544073434,-9.763387464800452,-7.063468747795514,-9.74244144829172,1.7151473767525935
0,-7.751467831450498,-6.14494289295586,-8.564917596529428,-3.575327833374164,1.7201478064224212
0,-0.27316271899681044,-3.566497540018002,-4.02636509800957,-2.1082139022079005,1.7251482360922559
0,-1.6548546837763665,-5.088051397390433,-0.12781125081089587,-3.451099648105238,1.7301486657620906
0,-7.7965437211974775,-10.549604455949343,-8.449256053055132,-5.623985064036813,1.7351490954319253
0,-10.758229826298775,-16.74115670590153,-10.320699502440547,-4.9968701426067135,1.740149525101753
0,0.6000870064665698,-2.4327081365010903,-0.7321415960733596,0.2202451240036305,1.7451499547715876
0,1.2484067832156742,-5.8242587360070806,-7.663582330411778,-1.8626392560407419,1.7501503844414223
0,-7.92327048962864,-7.215808491932733,-8.095021701348536,-4.575523274353692,1.75515081411125
0,-4.074944805420836,-4.987357391210862,-2.6664597042024685,-3.028406922326117,1.7601512437810847
0,-1.8566161571493205,-1.5889054202232669,-4.487896333713275,0.10870980893531751,1.7651516734509194
0,-0.2582845374216488,-0.7404525649147985,-1.8993315841588077,3.2258269285350547,1.770152103120754
0,1.9800500613645995,3.9880011889867157,3.7692345504848186,4.7329444455677985,1.7751525327905817
0,10.53838764677846,14.576455855663331,14.597802076255531,10.160062368849092,1.7801529624604164
0,-0.6732717739183566,0.984911448818941,1.6963709987614168,6.1871807066572835,1.7851533921302511
0,-7.7849281938314405,-6.766632018451374,-8.105058676994904,-1.9657005333740094,1.7901538218000788
0,10.433418393815039,6.361825466659125,10.94351305367958,4.981418655904136,1.7951542514699135
0,4.451767995752727,3.460283916914998,4.152086195351861,1.9185382813669114,1.8001546811397482
0,-7.029879381540138,-0.23125665507490856,-4.139339247699442,-0.9843416503229717,1.8051551108095758
0,0.018476268217029204,3.7572037630401365,3.229236728516303,3.3727788673212107,1.8101555404794105
0,7.026834951345747,5.645665183370684,8.297814127844246,3.379899840642378,1.8151559701492452
0,-6.544803325819955,-8.965872382208074,-9.593607046056714,-7.922978724161538,1.82015639981908
0,-7.506438556955132,-6.78740892185788,-6.565026789610448,-11.08585682083177,1.8251568294889076
0,4.521929264487921,-0.978944423401762,1.3935549010391668,-0.15873444265204192,1.8301572591587423
0,-8.689699854609273,-12.780478874129512,-15.527861969768123,-10.701611582259764,1.835157688828577
0,-9.921325907036012,-8.572012260711865,-10.959277397080516,-4.654488231679364,1.8401581184984046
0,-1.43294888507763,-5.0435445690477705,-2.8106913750889024,-4.587364382331759,1.8451585481682393
0,-7.344568780394118,-8.055075784234274,-9.002103897090777,-6.690240025053804,1.850158977838074
0,-11.726185584047856,-13.876605890617078,-15.783514955604469,-5.573115150139436,1.8551594075079088
0,-3.457799286431276,-4.198134871708863,-0.8149245422948652,-3.505989747341093,1.8601598371777364
0,0.9105901227580342,2.510337289798342,0.6636673520019373,1.9311361940568328,1.865160266847571
0,1.6589826542464663,-1.931189388296637,-3.727739263074926,6.058262684990563,1.8701606965174058
0,-4.252621681131337,-2.642714888036764,-0.6991443776994697,-0.0946102637018797,1.8751611261872334
0,4.115777127475582,2.385760808619606,8.069452018047235,4.282517358546792,1.8801615558570681
0,0.12417909092679169,-1.1957622802081964,0.708049933995505,6.629645562003366,1.8851619855269028
0,-7.737415779930872,-10.267284136320182,-7.0733506202536605,-4.423225643390903,1.8901624151967304
0,6.810992525817345,2.8311952587177274,7.655250364808511,0.9639037520612259,1.8951628448665652
0,6.139404019137625,1.5396759236511386,3.363852898675591,2.0710337579949383,1.9001632745363999
0,-5.45218128918134,-0.24184212265625998,-2.8675430093346765,7.578164383981005,1.9051637042062346
0,8.376236611388066,9.426641138544749,14.111062649812823,0.875295639328123,1.9101641338760622
0,11.624657731106621,10.705125725662906,11.689669884714863,11.15242753292266,1.915164563545897
0,-3.1669179202391224,-1.7963883434908063,-7.801721296735237,4.989560073119882,1.9201649932157316
0,-1.438490333372254,1.7320989483088867,1.7868891127818305,-0.15330673232034095,1.9251654228855593
0,14.339940500713817,15.160587617900154,15.605501120361398,13.213827123825965,1.930165852555394
0,-3.1416254092460436,-5.670922318298049,-7.495885267182199,-2.5190383517075063,1.9351662822252287
0,-7.813188054862038,-5.432430844280728,-5.807270043382842,-6.851903152593285,1.9401667118950634
0,5.985252572183605,9.76606205585717,8.401346798198931,0.6652327274300478,1.945167141564891
0,5.15369648030629,6.944556397985421,2.8499652640801307,-1.737630705150527,1.9501675712347257
0,0.4421436777841305,2.053052197601422,-4.551414639383543,0.5195065563490371,1.9551680009045604
0,5.1105941725662225,8.101549469645757,4.527207093973244,-3.2133554812913308,1.960168430574388
0,7.279047972255712,8.270048228506742,7.565830470205527,4.9437831887757575,1.9651688602442228
0,2.117505084036008,-1.5514515120065548,-1.9955445048758347,0.8309225733875285,1.9701692899140575
0,0.5759655146428956,-0.2529497385581295,5.023082174199122,1.4880626792464309,1.975169719583885
0,1.5044292705029012,4.425553561973585,2.8417105126219724,2.665203512871257,1.9801701492537198
0,-8.91710364205645,-9.935941597341051,-13.909659484581296,-7.977654919340226,1.9851705789235545
0,-4.588633216544459,-2.9474352033171516,-4.281027812233811,-0.490512610931626,1.9901710085933892
0,-1.9601594460614336,-1.2689272424340663,2.4676055353388278,-4.343369555190739,1.9951714382632169
0,-1.7216823232735292,-4.360417700790877,-5.173759435739851,-6.3162257450651484,2.0001718679330516
0,1.2967981594247033,-2.771906564184988,-4.415122719094596,0.8609188268652992,2.0051722976028863
0,-1.7147179902442156,0.3566061818598215,3.0035156918941164,-4.151935831635463,2.010172727272714
0,2.233769235477588,-0.684879447969865,-0.427844195952604,-2.9747897125354523,2.0151731569425486
0,-4.317740155639357,-5.536363438855989,-5.059202375743033,-2.1476428075480287,2.0201735866123833
0,3.550753844211893,3.872154224164148,1.1594411595000995,-0.4104951081272159,2.025174016282218
0,11.519251242795013,12.560673556099125,11.548086416832211,8.78665339440564,2.0301744459520457
0,-3.3022479524245756,-9.420805428293523,-4.783266596859565,-1.3861972913909526,2.0351748756218804
0,-0.4637437343794937,2.8077172854366337,4.055382124984162,5.11095284274629,2.040175305291715
0,7.8847639037794846,8.726241711633252,10.614032588646014,4.968103804765071,2.0451757349615427
0,6.863274968695228,9.144767864422235,4.682684800019591,4.2752556022596675,2.0501761646313774
0,-2.818210533395919,-1.9567042426109358,-3.5286612355514007,-1.0575917575708234,2.055176594301212
0,3.4403074033496726,0.3518254036005194,5.129994486877142,0.8695617321848885,2.0601770239710397
0,6.578828784540108,5.020356815880617,5.888651972038955,3.1867160783017843,2.0651774536408745
0,-8.442646384424505,-4.5111099930628455,-7.252688775561535,-1.856128712543499,2.070177883310709
0,-6.144118098207573,-6.62257501055161,-5.084027751530819,-6.9889726337177045,2.075178312980544
0,4.634413648775755,3.2259617762745836,5.614635048704344,0.08818432156698724,2.0801787426503715
0,-2.687051137595719,-3.2954996194614172,-5.056700370062124,-7.554657839576677,2.085179172320206
0,-4.878512451317078,-1.4769591844766934,-3.048034002931565,-4.987499109643315,2.090179601990041
0,7.390029713713871,13.681583094546703,11.460634155077676,10.969660519243483,2.0951800316598685
0,7.408575363589367,6.2901272306697535,9.35930410881185,11.016821054991526,2.1001804613297033
0,-6.252875495875848,-4.451326763616581,-1.652024137414524,0.8539825050019036,2.105180890999538
0,4.255677140839069,5.017221123702872,8.24664942010087,3.3111448759955486,2.1101813206693727
0,6.224233279116138,8.145770904397168,8.77532478456859,8.068308174197371,2.1151817503392003
0,-6.427207075823407,-0.7856774100708087,-5.525998041298891,-1.2045275945656981,2.120182180009035
0,-4.538643918867153,6.082876191351112,1.10268094482774,1.332637575173955,2.1251826096788697
0,7.249922755221303,10.251431719303978,12.331361745113476,5.699803688644135,2.1301830393486973
0,5.908492951750337,8.449989183875505,6.430044361424855,13.716970750781872,2.135183469018532
0,2.27706667575462,7.1685485943860785,7.638728794981814,8.23413876590668,2.140183898688367
0,10.785643931783712,3.467109959364885,12.997415046196991,4.751307737460684,2.1451843283581944
0,8.514224723801329,7.0156732866842635,10.756103114590609,10.098477668039287,2.150184758028029
0,-6.547190944882145,-1.7557614162968018,-2.4052070012646922,4.225648559508637,2.155185187697864
0,1.2013969286090824,5.172805857408156,1.1034846964999394,2.2228204130837512,2.1601856173676985
0,1.5099883470778894,-0.7886248854638019,1.1821782054659737,2.8799932294787634,2.165186047037526
0,-9.881416686585865,-8.870053638290944,-11.28912647679239,-2.7028329908914546,2.170186476707361
0,2.2771818306905764,6.5085196056380115,5.349570647485984,8.114341752219346,2.1751869063771956
0,8.355783902189785,10.927094853121158,6.278269576270658,3.5115174588534743,2.180187336047023
0,-2.035610468847902,-4.004327889301848,-2.583029692533767,-5.571305871246464,2.185187765716858
0,-7.187001279389861,-8.695748615444998,-5.904327161214573,-10.67412823844662,2.1901881953866926
0,1.3416114736207598,4.572832680902732,3.274377167973509,-1.3869496427761612,2.1951886250565273
0,-1.4197722065220106,0.17141600618806763,-3.6769167070411592,-3.5897700837044346,2.200189054726355
0,-7.061152316308419,-4.7899986330479,-7.658208788154093,-3.8725895602452534,2.2051894843961897
0,1.917471147994666,5.788588769752984,5.070500922985282,-2.1954080710748745,2.2101899140660244
0,3.0060981903397503,3.447178221129086,0.03921242495315058,-0.6682256145747014,2.215190343735852
0,-8.37527118523229,-7.354230272515618,-11.162074283583534,-9.761042188854082,2.2201907734056867
0,-7.136636974546846,0.49436329516109345,-2.133359203751451,-8.153857791633566,2.2251912030755214
0,1.1520008269587263,3.6129589306167262,4.545357663723031,-3.5566724200272875,2.230191632745349
0,2.2706422242514903,-3.1684433596200194,-4.465923681620592,-0.8094860705182243,2.2351920624151838
0,-6.450712777534919,-4.679843569013595,-10.697203240114742,-6.212298739143907,2.2401924920850185
0,1.6979358268124471,-3.3012416908699125,0.3915189882313118,-4.345110421598296,2.245192921754853
0,-0.673411957357546,-7.632637718142042,-3.2797569961091315,-5.5579211131674215,2.250193351424681
0,-9.354756124541069,-17.604031643235835,-10.99103119224277,-11.300730808618225,2.2551937810945155
0,2.513903331000358,2.1445765422461442,-0.562303598829745,-5.633539502061491,2.2601942107643502
0,5.272566415259756,-1.676813152492013,1.7264257859518763,4.433652813076789,2.265194640434178
0,-7.448766865712704,-10.938200717741557,-9.144843035754148,-6.669153856181927,2.2701950701040126
0,-3.2000965058628212,0.9104138565831768,-4.636110061535477,-2.5519595025941855,2.2751954997738473
0,0.7185775010653658,-1.3809694190186768,-1.6873752885613875,-7.6747641186377376,2.280195929443682
0,-1.6927448384133172,-6.012350533734482,-8.118638713528872,-5.857567696339123,2.2851963591135096
0,-2.5740635176295754,-2.1437294764971373,-4.3099003326809076,-5.750370227164138,2.2901967887833443
0,8.074621470162676,6.374893764021626,4.538839858182802,-3.2231717020025172,2.295197218453179
0,2.083310131631534,-1.6564808007620166,-2.0424181364702303,-2.045972111253623,2.3001976481230066
0,1.3720024731636689,0.03214684046401495,2.316325687851938,6.431228554987285,2.3051980777928414
0,5.300698500823024,7.61077669888344,5.175071335543386,2.568430306640927,2.310198507462676
0,7.799398220347368,6.099408785457222,5.153818810778409,1.66563315338987,2.3151989371325037
0,-5.611898362921505,-12.281956889195566,-11.267431882558641,-5.187162895330287,2.3201993668023384
0,0.4268087560700846,6.83667968539303,7.971319259314235,2.4200421698651025,2.325199796472173
0,3.7855195823254917,4.775318519749035,5.130072240207883,-2.3027516415509615,2.330200226142008
0,-8.21576587912089,-10.266040375642882,-11.421172936170008,-9.625544319963016,2.3352006558118354
0,-11.81704762307726,-13.20739699023367,-16.362416266047227,-13.408335855382795,2.34020108548167
0,-3.928325643834449,-0.438751312933218,-2.8836577449917495,-10.931126237036006,2.345201515151505
0,-1.619599934969036,-0.12010333193623382,-3.474897367635408,-6.86391545310217,2.3502019448213325
0,-3.980870489513305,-3.0314530350164333,-2.1761351279389745,-5.576703490775272,2.355202374491167
0,0.4978626998221039,1.9171995902105996,2.012628980474341,-1.6494903365048947,2.360202804161002
0,0.9465996405168006,0.3958545561962983,0.9113949641084154,-0.3622759762608311,2.3652032338308366
0,-4.98465965985375,-3.2654881245929266,-5.589837170520419,-3.3750603957456606,2.3702036635006642
0,2.7040848063689,4.003171560321352,0.8989325831658777,-0.14784358049151308,2.375204093170499
0,2.81283304691556,-0.04816637658123801,-0.14229576810609443,-3.9306255158608443,2.3802045228403337
0,-3.1984149305142795,-5.879501922853454,-6.1935222174708064,-4.503406187003171,2.3852049525101613
0,-7.279659118237939,-5.920835065944539,-4.774746757865368,-1.0061855787844882,2.390205382179996
0,7.289100491592081,8.807834206978375,9.094030618058143,5.781036324179638,2.3952058118498307
0,8.927863906918533,9.40650590883586,4.83280991772292,6.848259537261519,2.4002062415196583
0,-5.603368864568731,-3.9448199477976247,-4.9784088517134535,-0.7145159244882135,2.405206671189493
0,-0.9645978154973112,-2.996143350756111,3.11037431663992,2.642709953597589,2.4102071008593278
0,10.91417706140548,8.942535712006784,11.39915942953775,11.369937185876621,2.4152075305291625
0,-0.017044226735830642,-5.428782747499347,-6.70205350652401,5.437165786275748,2.42020796019899
0,1.0317383268561326,0.2599012826360896,2.7967355146351482,7.214395768070197,2.425208389868825
0,6.400524728635184,7.128587814273009,8.665526499022869,4.0416271438433,2.4302088195386595
0,3.27931498477584,5.127276859134427,4.74431945239879,9.768859925555345,2.435209249208487
0,3.448109101093064,3.0659684285663142,3.103114380044023,5.8060941245369415,2.440209678878322
0,14.086907082949775,14.734662533387896,14.341911286675739,13.033329751398782,2.4452101085481566
0,3.1857089351018706,5.173359183747782,5.240710176348112,4.840566815930091,2.4502105382179913
0,1.9145146615972017,2.2320583890105894,0.8195110523543919,4.647805327096985,2.455210967887819
0,-0.19667573404128996,3.8407601578973,4.658313917379863,0.2250452932214484,2.4602113975576536
0,2.9321377514619016,2.8894644987199527,-0.6728812262442818,-2.727713277730401,2.4652118272274883
0,-2.989044878729321,-1.9918285804934301,1.0459256236011938,3.819529622099851,2.470212256897316
0,-3.270223621472032,0.11688092812032994,-1.6852655310737856,-0.1632259994555525,2.4752126865671507
0,4.568601526467114,2.845593032382794,1.663545311721613,-6.055980134597974,2.4802131162369854
0,7.487430568339055,7.184307740029641,4.062358153953251,9.231267224492056,2.485213545906813
0,-3.4937364928352475,0.4630250585239438,0.8211729974567684,1.6485160856010805,2.4902139755766477
0,2.8851003456677358,8.731744994931775,9.45998984381166,3.8357664562634417,2.4952144052464824
0,-2.0560589135687075,-2.429532444087599,-4.8911913057422405,-3.136981656309,2.500214834916317
0,-4.647214267949072,-8.050807252140864,-7.672370450189684,-0.3397282450623722,2.5052152645861447
0,4.3916342852353,2.767920577217721,6.686452411574369,3.137526697057505,2.5102156942559795
0,7.670486748741345,4.456651050639918,5.85527728079794,7.804783177046336,2.515216123925814
0,-9.820656874835976,-13.63461582513922,-14.15589584135506,-7.447958798332131,2.520216553595642
0,-5.491796582987746,-11.375880043163662,-8.49706695365392,-10.350699222429181,2.5252169832654765
0,4.6870676270457015,2.1528584041589296,2.741763945655867,-2.1934380882678015,2.530217412935311
0,-1.334064241689655,-2.798400474894224,-5.349403141085932,-0.83617538830051,2.535217842605146
0,-4.835192186062952,-10.039656671635104,-6.090568211179078,-4.388911114555212,2.5402182722749735
0,-0.7263162028535964,-4.640910176983839,-2.5517312615794063,-9.691645258746949,2.5452187019448083
0,3.322563711337593,0.937839018668674,1.397107711147275,2.0956221878265295,2.550219131614643
0,0.7214475599763004,-0.7334090746562332,-4.4040512892980965,4.742891234253548,2.5552195612844706
0,3.58033534641497,-2.154654446765954,2.464791740925752,1.050161889686729,2.5602199909543053
0,5.719227073781004,-1.1558970873763381,2.513636805727273,0.5474341630845113,2.56522042062414
0,-8.171877255056119,-8.077136986034954,-7.917516090989392,-5.685291936740011,2.5702208502939676
0,-9.922977637268026,-5.718374131959027,-4.718666945223692,-8.648016400857085,2.5752212799638023
0,4.535925930324949,2.700391486093718,1.8401842473417214,-1.3907392199299384,2.580221709633637
0,1.8248334513075857,-1.8408401202765392,-2.030962508658422,5.016539615832534,2.5852221393034718
0,-7.866255070606119,-4.322068939308535,-6.562107208404035,-4.506179883577276,2.5902225689732994
0,6.1026603683356635,13.036705040820912,9.826750153083033,7.251102291801898,2.595222998643134
0,3.521579771929882,0.5654818318005987,1.1556095808124351,3.678386151783226,2.600223428312969
0,-0.20949685615367886,-0.44573855505163473,-1.6255289204110406,2.3756717058901873,2.6052238579827964
0,1.859430487519489,1.563043891271506,4.813334653986035,-1.2570410366874651,2.610224287652631
0,5.618361806189033,3.0918291816435937,6.172200308393697,3.2302479330304705,2.615224717322466
0,-8.842702897072483,-5.1193826731554495,-13.728931953007965,-7.582461376042651,2.6202251469923006
0,-9.26376361917034,-0.9905916623634178,-7.040062125994517,-5.855168954874997,2.625225576662128
0,-0.7448203566044747,4.718202224879402,2.668809794135529,-0.7778747940814674,2.630226006331963
0,-9.915873105276905,-9.053001000484729,-10.742316187361773,-8.270578883828803,2.6352264360017976
0,-7.186921860497813,-5.334201327377935,-1.913440064799979,1.3267187861267677,2.6402268656716252
0,5.252033383002222,5.624601255595325,7.505438167878913,4.2740182263273745,2.64522729534146
0,-4.44900736909916,-1.4265932399113446,-0.3356814831328772,1.2513194473611242,2.6502277250112947
0,-5.120044110941735,0.7522151977657734,-4.6367990117687405,3.6486224596253747,2.6552281546811294
0,1.4889231635287596,5.031026580188275,5.772085587956862,1.5359272732613984,2.660228584350957
0,1.5078944605849829,3.489840918747935,1.830972322009479,6.673233898142669,2.6652290140207917
0,-6.2631302134023,-4.561341775414629,-7.160138803742093,-1.3694576561640897,2.6702294436906264
0,-6.6041508519291865,-8.802521491248461,-6.551247783394,-7.25214738031803,2.675229873360454
0,2.2048325518383414,1.4263017825539974,0.6776453892946435,-4.614835264895434,2.6802303030302888
0,-4.626179994906396,-8.454871942271513,-8.09345927899972,-3.8775213000789663,2.6852307327001235
0,-12.877188484661023,-12.736042653516218,-13.5445617811429,-11.460205475533584,2.690231162369951
0,1.6918070905357747,-2.4872103383178494,2.074337890635659,-3.122887780327955,2.695231592039786
0,-3.3691932608053343,-7.478374983045723,-9.496760255198627,-5.405568202880663,2.7002320217096205
0,-9.88018952975204,-10.459536573370997,-13.747856209561771,-4.3582467310353445,2.7052324513794552
0,-0.8611817069656156,-3.6706950942764007,-0.668949962652277,-3.4109233521654594,2.710232881049283
0,0.1278302173453449,-3.2418505300560776,-0.2800415039298035,-2.763598053234728,2.7152333107191176
0,-6.823153746696673,-12.843002864413029,-11.571130822359635,-1.596270820866215,2.7202337403889523
0,-2.854133588709208,-2.9041520804481245,-2.6422179064990576,-1.4889416414244985,2.72523417005878
0,16.994890701907522,13.7547018392955,13.346697255511407,12.548389498832085,2.7302345997286146
0,-6.546080864350869,-11.316441087553473,-8.224385324363837,-4.494277386522951,2.7352350293984493
0,-6.467048277299883,-6.297580843405559,-3.1454656342935383,-1.12694228421215,2.740235459068284
0,6.301988473206797,4.401282589551379,7.113456337578357,4.950394818906872,2.7452358887381116
0,7.241029397410014,8.050149229395021,5.982380603131843,7.36773393588532,2.7502363184079464
0,-8.359925494607745,-6.530980905891261,-6.408692825992626,-3.1249249205120373,2.755236748077781
0,2.2591238070476063,3.5678922014495162,2.850236061611577,-1.1675817378200302,2.7602371777476087
0,-0.40182268769231105,-2.3532314308817495,-1.720832722663056,-8.200236503590558,2.7652376074174434
0,-5.672764968773982,-6.324351785109199,-7.311899167321782,-1.452889205093072,2.770238037087278
0,-0.5237030259924356,1.3845311567277752,6.407036739301458,1.1844601707781321,2.7752384667571057
0,6.455363151034232,4.913417412792736,8.805975008954832,1.2718116373520527,2.7802388964269404
0,-6.185566427271975,-9.237692998696483,-6.075084346836446,-6.700834791990447,2.785239326096775
0,-7.606491750480622,-6.028800059435096,-7.746141316785307,-6.9534791037294434,2.79023975576661
0,1.742587192085131,3.140096249218706,2.642804110536414,-3.6761212839467152,2.7952401854364375
0,-1.9083295885392921,-3.2410040537344798,-3.0182480531118276,-3.6987613182025623,2.800240615106272
0,-9.479242081055054,-6.92210094908521,-10.229297795705888,-5.561399191588938,2.805241044776107
0,6.769849726099903,5.7968055825887195,4.999654895090371,0.5859651112010349,2.8102414744459345
0,2.0889458446918656,2.0257155608680404,1.9886100319100635,0.4633316057727469,2.8152419041157692
0,-2.931953713550222,-5.10537099470833,-5.65243237254267,-1.4092996921345682,2.820242333785604
0,-7.4428489369644515,-4.806454064620266,-0.3534723055561576,-3.371928766724161,2.8252427634554387
0,-1.7037398136824278,-5.657533629094675,-1.9445097542705194,-4.264555602054578,2.8302431931252663
0,-10.174626331401557,-11.698609667862259,-15.875544705543533,-8.777180181872408,2.835243622795101
0,-8.805508477256291,-8.439682159961876,-8.746577145679012,-0.11980248946328864,2.8402440524649357
0,1.3236137622832926,-0.9207510836271976,-1.37760706013004,0.7175774923306799,2.8452444821347633
0,4.16274040126949,0.23818358355635916,1.7213655663913707,4.434959780867019,2.850244911804598
0,-9.358128546061572,-10.432878135628311,-11.77965925043709,-5.237655606542738,2.8552453414744328
0,-1.2589930653690524,4.056063781896483,2.589318505357432,0.09973134736115719,2.8602457711442604
0,4.57014685792297,8.025009359441317,6.498298850041734,4.217120659889281,2.865246200814095
0,-10.810708761406087,-6.106041379736855,-10.02271820003259,-4.645487651625284,2.87024663048393
0,-3.6815599083707147,0.07291158743857462,-0.5237326284955814,-4.128093569835786,2.8752470601537645
0,8.867593432341458,10.441868283982021,12.645255581150728,7.219302922727493,2.880247489823592
0,-0.06324872380276048,-1.829171267238376,-1.815753554669143,0.29670184359489604,2.885247919493427
0,-1.0840863614967273,1.629792956334608,0.20323998012446431,2.584103210138931,2.8902483491632616
0,8.275080534350757,11.798760976958352,11.192236201299439,7.341507039462948,2.895248778833089
0,3.0642519785981595,3.5277328165029935,3.4512351242901227,3.9489133483219083,2.900249208502924
0,-1.8565720142350832,0.3167084962912101,-1.6997632359458998,2.2763221530278486,2.9052496381727586
0,10.852608570042849,14.725688037122415,12.789241135112986,10.803733469432824,2.9102500678425933
0,0.9417937452963694,-1.9453285407201457,2.318248251572605,4.62114731287364,2.915250497512421
0,-4.9890164749719625,-5.656341217438518,-4.602741872936515,2.4785636980853765,2.9202509271822557
0,6.200177922535771,11.382650026543901,11.706270774871262,6.565982639257013,2.9252513568520904
0,12.91937695098233,11.351645210622328,14.405286207942588,7.9634041501002955,2.930251786521918
0,-0.0014193768958776082,-9.249355646294749,-4.585695561428442,0.870828243799407,2.9352522161917527
0,-5.322211048922268,-3.3003525257106587,-8.626674521566688,-6.491745066909029,2.9402526458615874
0,5.557001946823465,7.798654590895906,6.71234933911762,5.455684230570781,2.945253075531415
0,7.47621962219662,3.9176657221098234,0.4013760323873037,7.31311614882467,2.9502535052012497
0,1.3054419887883144,1.3466808862634263,3.290405569968231,8.640550700161294,2.9552539348710845
0,9.284669057726312,11.755700101272234,11.299437963311865,7.777987896271058,2.960254364540919
0,8.593900839595989,8.804723384519573,10.108473223362001,6.565427748088052,2.965254794210747
0,0.5331373443535353,4.373750752661865,2.5575113603054205,1.4728702658384565,2.9702552238805815
0,0.10237858139383643,5.64278222159835,5.146552383570854,1.7703154592199668,2.975255653550416
0,14.641624559734732,17.691817806537742,15.68559630195785,11.457763337556372,2.980256083220244
0,4.380875287941787,5.770857521856016,0.39464312356965187,2.2752139097380684,2.9852565128900785
0,-4.429869226039554,-0.7100986190167365,-4.476307144186643,-3.407332815849808,2.9902569425599133
0,8.249391025276271,9.408949396633066,9.392745505720184,3.7901231688648713,2.995257372229748
0,-5.691343950825066,-8.181998418882504,-7.8281989198013795,-7.342418128094087,3.0002578018995756
0,-6.932074147097398,-4.312942053387275,-6.3791404138498695,-5.224956698561548,3.0052582315694103
0,-2.872799556074255,-0.5338814945227421,-0.4900789692809632,-11.287492533979794,3.010258661239245
0,3.356479830101731,1.075183270375572,1.0189854214217486,-0.26002562516803274,3.0152590909090726
0,-3.744235980462199,-2.985747745861825,-5.01194723399858,-1.2825559623470983,3.0202595205789073
0,2.7950530204044797,-0.06667453033063658,1.0771230723300829,0.8849164646042256,3.025259950248742
0,1.5643468408677572,-2.22759707002602,2.096196348402287,-3.1476083340733396,3.0302603799185697
0,-6.076354510939729,-9.368515351762683,-9.104727397706819,-7.3701303480170575,3.0352608095884044
0,-7.237051026794335,-11.249429361957647,-10.695648157707318,-10.392649566520202,3.040261239258239
0,5.572257301835491,1.3796609136341027,3.373434077205392,-0.43516597827982517,3.045261668928074
0,-4.578429516223159,-7.451244510077406,-7.637480683599842,-1.9676795713921458,3.0502620985979014
0,-7.129111471978781,-7.2121456176769465,-7.578392430329597,-3.390190333570958,3.055262528267736
0,6.50021144376999,9.466957606676505,8.700698847203315,-0.7326982522972956,3.060262957937571
0,7.489539240358219,6.176065178992061,5.039793159385501,4.424796685113117,3.0652633876073985
0,4.418871926876098,4.845177114974012,3.5488905163728113,8.16229449130841,3.070263817277233
0,10.59820951185327,16.204293429698048,10.737990927819084,7.87979517856682,3.075264246947068
0,20.417552003053085,19.713414137339626,20.617094402686156,11.417298758503737,3.0802646766169026
0,6.0268994071652475,4.692539250818862,3.526200948902689,-0.48519475805408824,3.0852651062867302
0,11.726251729630098,10.511668781732709,11.18531057320742,5.89231463903741,3.090265535956565
0,13.255608974739843,15.64080274057702,14.354423281282813,1.2998269594625904,3.0952659656263997
0,14.99497114567351,12.2399411367742,14.2335390777552,6.807342212559793,3.1002663952962273
0,13.354338244356923,15.509083978497836,9.512657966028211,8.404860407262388,3.105266824966062
0,25.483710271293408,28.40823127247928,24.791779948185436,14.282381551895934,3.1102672546358967
0,27.21308722526678,27.647383023629583,26.990905024760686,14.64990565386827,3.1152676843057243
0,19.052469102934612,18.096539234586686,20.31003319428301,14.827432719372387,3.120268113975559
0,24.00185589864813,29.755699905570513,27.10916445297426,20.934962753178606,3.1252685436453937
0,30.6212476044745,35.784865034351284,33.74829879464044,24.972495758410066,3.1302689733152285
0,11.190644210160123,16.42403461603166,12.097436210542865,7.22003173632281,3.135269402985056
0,10.500045703295827,15.573208643077734,14.606576689542914,7.527570686438951,3.140269832654891
0,12.199452069842316,18.702387105809894,18.375720218605395,7.295112607053522,3.1452702623247255
0,5.888863294584489,7.86156999285835,6.654866783173576,-0.9873425043129067,3.150270691994553
0,-1.411720638596766,3.0107572914812044,-0.34598363256988374,0.7302053493860898,3.155271121664388
0,2.26770025362371,7.189948987982366,7.803168954739149,-0.052243835007954764,3.1602715513342226
0,5.1471259543185415,6.119145068037664,5.202324527981724,1.5753099392911367,3.1652719810040573
0,-6.583443553609244,-8.081654483160523,-11.168516930336683,-3.7371333309559294,3.170272410673885
0,-6.044008287294263,-4.902449680610056,-0.8593554378116302,-4.63957364892991,3.1752728403437196
0,0.6354317363735422,-4.043240539062432,1.7598089882054109,-3.4320110175792173,3.1802732700135543
0,-9.485123499103677,-13.774027072748328,-12.5610236693317,-5.8644454394820915,3.185273699683382
0,-9.245674009772316,-9.564809295188029,-9.781853427079037,-0.25687691681128455,3.1902741293532166
0,5.1237801888826535,2.914412780944285,6.367319698928051,6.580694548552681,3.1952745590230514
0,3.733239081793986,1.1936391436058762,3.716495693128964,3.568268954720382,3.200274988692879
0,-8.957297346046655,-12.437130218989015,-8.314325459994773,-1.1241537004760567,3.2052754183627137
0,1.1221708903592353,2.712104681603928,2.454856223994856,4.383426580507134,3.2102758480325484
0,0.12164377618721023,-5.3186561657972184,-3.775959270326725,-0.3389902049768657,3.215276277702383
0,-8.808878703182353,-13.749412771964815,-15.306771958108651,-5.64140405968673,3.2202767073722107
0,-17.37939656202599,-15.700165147036358,-18.157581853887894,-12.273814986256554,3.2252771370420454
0,-7.81990981383726,-9.530913300094335,-10.148388971061545,-14.856222986743445,3.23027756671188
0,-10.950418471004129,-20.5016572389231,-19.499193321601652,-14.238628062168255,3.2352779963817078
0,-17.850922544776868,-15.272396969900685,-19.169994915982752,-11.761030212257573,3.2402784260515425
0,1.3085779547181027,0.29686750204144746,4.049206236832684,5.446570564471896,3.245278855721377
0,0.22808301828616373,-5.623863826885956,-2.031589870966962,4.644174270209318,3.250279285391212
0,-2.73240736280175,-7.814590959801809,-8.882383246652187,3.9117809071811,3.2552797150610395
0,6.557106802820441,5.804686100621289,10.006826102754168,10.279390477225137,3.2602801447308742
0,0.9966255064385615,2.033967351977449,2.2360381703213914,5.527002981606173,3.265280574400709
0,-6.183851260821626,-9.296747208119632,-7.604747051026459,-5.635381579010334,3.2702810040705366
0,-8.874323507810047,-8.337457581947074,-5.665529568416881,-7.587763204251537,3.2752814337403713
0,-1.7447912429874335,3.1018362286569023,1.35369061131481,-1.6301418935412184,3.280281863410206
0,-2.6752544742876228,-2.0488657776904127,-6.997086518278432,-0.1925176458815372,3.2852822930800336
0,-3.865713209238023,0.7004363978199941,3.5021390366400613,3.065109539990018,3.2902827227498683
0,5.873832544886843,7.269742753986127,5.981367270042427,4.402739665327433,3.295283152419703
0,0.22338278088450836,0.919053289428653,-1.4894018242014977,5.88037273114433,3.3002835820895378
0,-3.947062508532789,0.45836800247305703,-2.860168252429358,6.608008738036597,3.3052840117593654
0,3.322496669295223,4.967686891188602,3.229067978958418,3.1656476860792533,3.3102844414292
0,0.582060307047869,-3.1629900465408958,-1.1016931364058482,-2.166710425127967,3.315284871099035
0,-7.0483716025939565,-4.453662812925382,-8.332451604851821,-4.009065596220517,3.3202853007688624
0,-10.678799066790678,-5.534331410041043,-8.313207432476387,-7.9614178277259215,3.325285730438697
0,4.610777907752543,3.3350041603600062,5.116039375106071,3.226232880182474,3.330286160108532
0,-7.309640685179051,-10.545656103161361,-7.554711187283664,-1.1861134723383993,3.3352865897783666
0,0.7299451485072788,-1.7963122017368973,1.7145408754146143,7.6615431149510895,3.340287019448194
0,6.269535403068829,2.7130358638667875,5.433795558388567,8.379202642066197,3.345287449118029
0,-0.660869927262741,-6.417611906841699,-0.9969471432104382,-2.393134891437935,3.3502878787878636
0,-2.6212708484263927,-3.318255514168567,-6.077687234363943,-2.615469486417362,3.355288308457691
0,7.868332633522655,10.651105041775386,10.431575279924825,5.732198856137351,3.360288738127526
0,11.77794051233868,7.450469760835417,9.42084039455422,10.009870135137904,3.3652891677973606
0,0.9875527812638508,-0.40016135759108373,2.410108103951691,8.327544349070415,3.3702895974671883
0,9.767169432851224,13.109211685311688,14.519378401836327,13.265221495648143,3.375290027137023
0,5.516790459011375,9.478588887750663,7.278651281148427,-0.6170984283178211,3.3802904568068577
0,0.22641585106678785,1.56797024717841,0.07792673400417893,3.3205845732301724,3.3852908864766924
0,-4.933954400081133,-2.9126442396364167,-3.6227952480943015,0.19827049591647322,3.39029131614652
0,4.11567969636201,1.0667454237714211,2.8164853261577143,-2.99404066480818,3.3952917458163547
0,3.5553181312101176,4.196139233826454,2.7557684480657376,1.003651086489395,3.4002921754861894
0,-9.04503910478601,-5.524462813093164,-7.9349458910985975,-5.188654254666152,3.405292605156017
0,0.9746079791384168,-0.06506072063575874,1.1943422999750446,-4.220956692563063,3.4102930348258518
0,-0.7557406260517803,0.8743455076395495,-2.6463669872104036,-3.403256231182758,3.4152934644956865
0,-10.23608492914844,-7.836244131688362,-13.86707376087024,-5.665552874114856,3.420293894165521
0,-14.826424938544438,-9.996829641785721,-8.907778028711991,-12.07784662447878,3.425294323835349
0,0.323239338112291,1.302588974681747,1.6515202023273519,-4.82013748475495,3.4302947535051835
0,-6.587092105998116,-9.197988284376105,-11.66917907397902,-4.442425456679491,3.4352951831750183
0,2.442580722861161,-0.7085614205777457,-3.8198758633096466,1.7852894586134844,3.440295612844846
0,8.772257818637739,7.2608695647961445,12.469429829114418,8.323007260248898,3.4452960425146806
0,4.531939175106643,0.020304670530287117,2.8887379981644394,1.0707279472147773,3.4502964721845153
0,-1.1783752144000406,-9.700256104724103,-2.8919513616322847,-3.5615484818256853,3.455296901854343
0,4.52131464305738,4.929187237717124,2.7773617439188305,2.996177971606524,3.4602973315241776
0,3.841008740163785,0.6386346967238848,-3.2133226910760073,-3.906092694005425,3.4652977611940123
0,-8.749292930599902,-9.811913728733709,-7.564004672435114,-6.928360480070274,3.470298190863847
0,-4.899590376753072,-2.702458039514362,-2.244684205711606,-3.890625387712959,3.4752986205336747
0,9.970116394441684,4.507001763874137,8.774638703880454,-0.342887417631627,3.4802990502035094
0,-1.8301726241409169,-3.9135343188279252,-2.566035948785306,-4.245146570155604,3.485299479873344
0,1.5595425602170525,4.08593371215141,3.9632918309830383,4.592597154610663,3.4902999095431717
0,9.829261939990044,12.265405856458958,8.482622037623267,4.340343756611557,3.4953003392130064
0,-5.281014492628317,-4.675117886609808,-4.708045334740745,-5.32190676434413,3.500300768882841
0,-14.661286745612223,-10.985637518102436,-13.328710292179755,-9.704154408503456,3.505301198552676
0,-4.061554826609789,-0.5461530389482573,2.5206271594857514,-7.076399175773342,3.5103016282225035
0,3.2081812574140502,3.0333355503583803,3.609967014902021,1.8513589345579984,3.515302057892338
0,-1.2820785000381907,-0.3371717504323183,-5.330690731079217,-1.32088007630749,3.520302487562173
0,0.06766589463802386,6.722325058366125,4.37865391638493,0.9868837930220988,3.5253029172320005
0,10.787414434972966,11.89182597614579,13.718000952038734,4.134650543935695,3.5303033469018352
0,4.997167114213189,5.881331001718013,2.4573503702252717,6.702420177665589,3.53530377657167
0,0.396923925093451,7.330840133110002,4.396702164625679,8.090192695064564,3.5403042062414976
0,12.606684859815974,9.560353367566753,13.446056328281815,6.957968096394511,3.5453046359113323
0,5.926449910038585,9.049870701562035,3.9154128535801904,6.135746381226606,3.550305065581167
0,-3.9037809332024596,-0.37060786921187905,-3.1852282677819637,0.48352754848766955,3.5553054952510017
0,7.4159923206533565,14.958917650246905,7.9141329554251705,3.9113115966261263,3.5603059249208293
0,6.06576966187014,5.028447254280481,6.9534965141349945,5.789098523750439,3.565306354590664
0,-4.824448919617779,-1.6920190634736785,-2.927137601105721,0.9968883276300337,3.5703067842604987
0,-2.1346634341241177,2.307518690103211,4.072230599868947,1.3746810056920316,3.5753072139303264
0,8.65512610802,7.3570605078774065,9.061601106959968,4.852476555099327,3.580307643600161
0,-4.245080303543149,-2.873393617520522,-6.969026090229808,-2.50972502719782,3.585308073269996
0,-3.1352826792831374,0.8561563062905378,-4.809651002310764,-1.1019237443981087,3.5903085029398305
0,6.2345189703257455,4.795710271553087,5.419726360200014,8.89588040023757,3.595308932609658
0,0.5943246348191709,0.6252682703832583,-2.3508940130422755,5.983687403267079,3.600309362279493
0,-10.795865696341652,-12.265169705222206,-12.831512132285397,-5.558502739146433,3.6053097919493275
0,-0.7360520335823693,-0.7456036631080143,5.147871992487463,0.11930996886633621,3.610310221619155
0,-0.6862343869648588,-2.7160336106806766,3.7772583516374203,-2.922874476807279,3.61531065128899
0,-8.876412766193909,-7.7464595549111674,-12.173353064353533,-7.365056080069339,3.6203110809588246
0,-4.846587180619556,-0.306881502388052,-1.4939622648827244,-2.6172348444889053,3.625311510628652
0,11.453242360801035,11.972700540588665,9.295430740953215,9.970589226707474,3.630311940298487
0,-6.4669241507305015,-4.3577134323303275,-2.9751740558223028,2.3384161303289526,3.6353123699683216
0,-4.907086724072285,-2.1681234277569867,-2.3257766643284397,2.7762458628552205,3.6403127996381563
0,2.682754632008054,7.071470547575286,7.973622906215309,8.514078420334226,3.645313229307984
0,-0.3474000910535374,-0.09893151312548576,0.06302464649552297,0.0519137983871919,3.6503136589778187
0,0.1524490982472524,-0.1993296168271269,-0.5075714530161572,5.3697519922085535,3.6553140886476534
0,1.7523021913775976,4.460276229325437,5.431834597949009,3.317592996615625,3.660314518317481
0,1.722159179738572,3.7398860180217492,1.6712427894856363,0.2754368060940221,3.6653149479873157
0,-10.377979945313891,-7.000500258253895,-9.649346888479975,-2.3667165851152205,3.6703153776571504
0,0.0818848077225035,-2.080882607078343,-2.9799344459585724,-3.538867182815422,3.675315807326985
0,7.621753430627615,5.548738964125885,3.3294801073699953,-2.8010149926471275,3.6803162369968128
0,3.831625915211886,2.9383644480070945,2.858896762060969,3.206839979983041,3.6853166666666475
0,-6.378497746985843,-3.2020061629480097,-3.881684491366401,-1.2153022701993461,3.690317096336482
0,17.201382435297646,12.3676271235204,15.967736337436733,3.672558251511154,3.69531752600631
0,4.821266452970508,3.307264299362089,1.407159238473929,1.790421539702993,3.7003179556761445
0,-4.548845703644877,-4.673094643916255,-4.103415798766694,-0.85171241119788,3.7053183853459792
0,5.291045955296061,6.946550284859937,9.996011214825227,0.13615639310696714,3.710318815015807
0,7.540941419407197,11.866199076640106,10.675440268070322,5.674027946843255,3.7153192446856416
0,4.370840677980135,5.415851721890291,1.2048713492478593,4.011902244078966,3.7203196743554763
0,10.120743719762347,12.565508210295059,13.354304445918205,11.01977927851191,3.725320104025311
0,8.920650532824743,11.185168530635124,13.343739544870456,6.057659043249096,3.7303205336951386
0,-2.6294388954855643,-3.535167329222449,-1.4968233680043093,-0.1844584692836413,3.7353209633649733
0,-8.459524578303895,-4.125499382047245,-7.967384307549951,-4.426573267143076,3.740321393034808
0,-2.8196065287261294,0.0041723592720877,1.0920567112252817,-5.808685358450698,3.7453218227046357
0,-4.119684759435103,-4.00615211796022,-4.958500326436905,-7.7607947510099855,3.7503222523744704
0,-7.739759282641049,-4.4364728261935165,-6.489055434971202,-6.272901452076127,3.755322682044305
0,-1.0898301100891115,3.8032102223792927,2.8503913715312956,1.3449945316921568,3.76032311171414
0,-3.9098972530732565,-2.5571029842525546,-8.830159920685004,-8.737106805889928,3.7653235413839674
0,-9.279960722482567,-7.527412457997807,-10.250709325014212,-8.499205470591772,3.770323971053802
0,-5.920020528727742,-9.757718210495197,-5.1012568542769525,-5.551301467617407,3.775324400723637
0,1.4799233183567342,0.06197974716830312,0.8981974793967968,-3.2233948015010148,3.7803248303934645
0,-0.10012919063324333,-5.138318595509087,-3.9023463356310675,1.1945145237573969,3.785325260063299
0,-3.91017806492889,-0.188613248622304,-3.8328883107266174,2.072426504420796,3.790325689733134
0,6.469776686298334,6.071095777947549,6.336571542950644,0.5403411367670452,3.7953261194029615
0,-0.10026494614396086,-7.009191525654549,-6.863966785641832,-6.051741582987466,3.800326549072796
0,-6.530302971546697,-1.7194751692880295,-4.964503307463591,-1.5238216585471775,3.805326978742631
0,9.959662600768182,9.010244837283865,7.894961966718627,3.8541009065923952,3.8103274084124656
0,8.859631761383133,8.599968484222675,8.284429026204968,8.542026108989624,3.8153278380822933
0,-5.760395499503724,-1.1203042387574547,-4.96610214000132,-0.6800460550678256,3.820328267752128
0,3.079580807900612,2.239426657548632,4.583368456731257,2.757884410310877,3.8253286974219627
0,4.009560673224027,5.119161162036543,3.012840804835739,-0.18418249925612817,3.8303291270917903
0,-3.010455914011654,-4.281100736603397,-6.897685107383138,-1.456246788273526,3.835329556761625
0,-11.700468964325664,-13.401359049729807,-12.93820929156506,-7.8283084612191765,3.8403299864314597
0,5.289521512008402,1.988386211631407,5.521268241082204,4.1596324776352755,3.8453304161012944
0,0.29951550506294866,-3.991864963007755,0.6907474798344748,2.9975760242211553,3.850330845771122
0,-6.340486994948427,-7.472112583712301,-10.459771585830126,-3.1544778255364285,3.8553312754409568
0,5.819514002238486,6.747643339772394,7.529711033694504,1.963470924189364,3.8603317051107915
0,8.79951848688452,11.577402797824185,8.77919532810931,4.4914222691671055,3.865332134780619
0,-2.8204735510062644,-0.44283421949859214,-3.761318713100356,1.4693762050339068,3.870332564450454
0,0.8995378782085411,4.646932277303556,4.818168899173023,2.947332727180472,3.8753329941202885
0,-0.43044723599447954,0.37670227730725897,-3.5523418461813465,-2.7147081692327513,3.880333423790116
0,-3.4904289041246788,-1.873524230637544,-8.892850960271083,-0.4967464891469563,3.885333853459951
0,-5.540407136562116,-5.7537472577250055,-6.763358453910962,-6.718782237431909,3.8903342831297856
0,2.1096180565680775,4.6060331849943275,4.226135662605228,-4.1808154187019735,3.8953347127996203
0,4.859646665349855,0.6358170866068434,-0.7843686206290461,1.3071539627963773,3.900335142469448
0,-11.370321320102832,-13.604395563749975,-12.894871313358397,-13.444874096813951,3.9053355721392826
0,-4.1702859095690075,-3.4246047766871204,-1.5153724250372425,-10.63689960092289,3.9103360018091173
0,-5.980247112405516,-2.5648105622633413,-5.635871964584326,-11.248922552108127,3.915336431478945
0,-7.420204937379115,-5.845012929986322,-9.836369940347197,-10.340942951902445,3.9203368611487797
0,0.709840607309712,-0.3552118889598199,0.5931336398839177,-4.302960800808807,3.9253372908186144
0,9.869889513824583,8.58459255196603,11.27263876874136,3.5550239014693976,3.930337720488449
0,5.849941774244751,6.864400383860799,3.7321454388125272,11.123011155551985,3.9353381501582767
0,6.159997380136412,7.30421159731325,8.121653642178156,12.131000961751917,3.9403385798281114
0,14.600056322368932,14.99402618218549,16.921163370203526,11.638993319549225,3.945339009497946
0,5.800118590993053,3.7538441274649714,0.9306746133803987,3.906988227381035,3.9503394391677737
0,-3.509815824779433,-4.476334578691893,-7.489812638615574,-1.5750143171893503,3.9553398688376085
0,-7.63974693620918,-3.2865099485467377,-1.5902983964119217,-5.637014317025963,3.960340298507443
0,-9.909674754412825,-10.92668199423359,-8.600782670397159,-12.219011774889644,3.965340728177271
0,-11.979599289863641,-14.176850727328013,-12.021265470442472,-9.15100669296748,3.9703411578471055
0,-11.129520552105769,-12.047016158480575,-8.931746805673464,-10.892999072564189,3.9753415875169402
0,8.090561450264095,13.342821702674321,12.827773315582151,7.5450110859010096,3.980342017186775
0,1.2106467092030622,-3.0573371529522233,-1.902705114633088,1.3430237825121059,3.9853424468566025
0,-3.9992647832884174,-2.1374927344694354,-0.3831821044054792,0.43103901736315503,3.9903428765264373
0,6.160826964676712,1.6023549489159312,6.786342337957826,3.7090567903486473,3.995343306196272
0,-4.309078055071064,-9.337794111913981,-6.684131795992366,-5.302922898789355,4.0003437358661
0,-12.91897985065265,-13.367939925755753,-16.86460451466698,-9.274900050277342,4.005344165535934
0,-5.568878429808649,-4.96808250073517,0.4349241740125012,-9.10687466395973,4.010344595205769
0,-5.65877379957063,-4.068221844126505,-6.725545737107801,-7.87884673896585,4.015345024875604
0,-17.428665966181388,-15.848357962444435,-17.236014254477244,-12.640816273565392,4.020345454545431
0,-7.768554934991561,-1.0784908614604543,-4.236481383762045,-6.172783265116578,4.025345884215266
0,1.0715592896396173,3.191379453769679,3.933052870241416,0.17525228988067237,4.030346313885101
0,-2.3883232959165808,-2.678747021421971,-3.6274114967213333,4.003290395479093,4.035346743554928
0,-2.3382026949594374,-1.8088702916201793,-5.8078744887167035,1.2613310558471185,4.040347173224763
0,0.9419210893706055,-0.7289903613349609,-0.23833610960566964,-1.2306257249829524,4.045347602894598
0,4.392048054020986,-2.079107234933657,-1.5287963629575154,2.337420056892283,4.050348032564425
0,-0.5078218041280756,-0.8692209166412621,-2.4492552521172124,4.125468405284053,4.05534846223426
0,6.442311511608092,10.250668589381307,10.180287219664937,5.583519323806031,4.060348891904095
0,10.532447997598634,7.9605612787615785,8.53983104896689,6.141572815698408,4.06534932157393
0,-2.3274123502790416,-1.3995428533990564,-4.320623768118002,1.9996288837209795,4.070349751243757
0,0.9027304633649949,5.010356187469403,2.578922764048244,-1.492312469791492,4.075350180913592
0,6.842876433646248,4.260258395584152,4.1384706409034795,0.9357487572697967,4.080350610583427
0,0.4830255554704598,-4.339836235112941,-0.9019801422508185,-1.17618743303355,4.085351040253254
0,-5.256822176494268,-5.349927710810279,-5.06242959024797,-1.798121038610353,4.090351469923089
0,6.2633332323204005,8.209983962408051,8.917122292064178,6.309947942665205,4.095351899592924
0,9.713491776409034,9.809898778473324,10.27667549973972,11.69801951278268,4.100352329262758
0,-7.956346550024486,-5.9001832690290845,-10.143769972552633,-3.253906326712977,4.105352758932586
0,8.203818246891323,6.88973781306213,6.295785869502697,3.134170425213334,4.110353188602421
0,-2.4060138391409747,-0.8003379823279482,-3.334656979845737,-4.327750230657718,4.115353618272255
0,-5.195842814493381,-6.860410662380888,-7.515098526267925,-3.8296682935232047,4.120354047942083
0,0.07433131452428376,-0.39048023421086686,1.0344612247731972,-0.8315837623803082,4.125354477611918
0,8.31450854174849,3.6094532952828358,7.024022268064032,4.966503363990005,4.1303549072817525
0,-4.775311139019418,-10.720610080635227,-6.506415401574882,-2.475406913149123,4.13535533695158
0,-10.795127734069746,-12.450670368443795,-11.10685178933297,-3.9773145925879008,4.140355766621415
0,3.9250587505175276,-3.79072757398953,0.6727130999271305,1.1307803269479768,4.1453561962912495
0,-5.344751690940656,-11.080781702265512,-10.727720738087196,-3.1311221531003404,4.150356625961084
0,-9.88455906378835,-9.990832757427013,-10.648153307056583,-2.6030220311289716,4.155357055630912
0,-0.8143633729584192,-1.380880742805009,4.411415390013565,0.9550806946345884,4.160357485300747
0,11.565835377032833,12.02907433888805,9.450985350599202,6.993186026061461,4.165357914970581
0,1.4760371816812368,0.439032485005332,-0.349443427888279,5.271293964867932,4.170358344640409
0,11.006242036037523,15.928993692446888,16.710129051481367,15.519404512284591,4.175358774310244
0,13.986449934468908,18.86895795731029,15.519702784892772,9.80751766873569,4.180359203980078
