labels,F4,F3,Fz,Cz,timestamps
0,-1633.05,-895.83,-3033.57,92.56,-2.0000271370420855
0,-1633.51,-894.21,-3025.09,93.44,-1.9950270691994803
0,-1627.14,-885.39,-3018.76,97.65,-1.990027001356875
0,-1626.24,-874.19,-3016.65,98.52,-1.9850269335142698
0,-1633.19,-872.89,-3018.1,95.03,-1.9800268656716646
0,-1630.81,-883.71,-3019.39,90.45,-1.9750267978290594
0,-1635.04,-888.82,-3025.9,85.13,-1.9700267299864542
0,-1633.36,-886.06,-3020.38,93.48,-1.965026662143849
0,-1631.05,-888.34,-3022.51,90.31,-1.9600265943012438
0,-1632.16,-890.04,-3014.37,95.09,-1.9550265264586386
0,-1629.0,-880.13,-3012.61,101.31,-1.9500264586160334
0,-1624.76,-870.21,-3009.5,97.81,-1.9450263907734282
0,-1620.75,-872.04,-3005.01,96.16,-1.940026322930823
0,-1627.69,-875.89,-3015.6,95.02,-1.9350262550882178
0,-1630.42,-886.3,-3012.32,96.48,-1.9300261872456126
0,-1634.99,-887.32,-3021.44,92.47,-1.9250261194030074
0,-1633.74,-892.25,-3025.38,91.6,-1.9200260515604022
0,-1633.63,-887.28,-3025.45,88.14,-1.915025983717797
0,-1627.85,-883.18,-3017.75,89.63,-1.9100259158751918
0,-1629.09,-885.45,-3017.65,83.36,-1.9050258480325866
0,-1632.77,-891.66,-3024.74,84.6,-1.9000257801899814
0,-1636.92,-883.86,-3022.23,81.31,-1.8950257123473762
0,-1628.1,-876.91,-3015.9,90.01,-1.890025644504771
0,-1633.19,-889.14,-3022.38,82.3,-1.8850255766621657
0,-1636.65,-894.29,-3025.79,84.92,-1.8800255088195605
0,-1632.2,-892.09,-3022.71,83.71,-1.8750254409769553
0,-1631.86,-891.37,-3023.36,83.95,-1.8700253731343501
0,-1636.05,-895.58,-3031.59,76.84,-1.865025305291745
0,-1642.28,-901.37,-3032.86,81.09,-1.8600252374491397
0,-1643.96,-901.85,-3034.82,83.04,-1.8550251696065345
0,-1641.28,-888.41,-3028.13,84.93,-1.8500251017639293
0,-1640.87,-889.57,-3030.35,85.63,-1.845025033921324
0,-1631.68,-885.54,-3024.38,87.75,-1.840024966078719
0,-1633.16,-886.43,-3028.74,85.34,-1.8350248982361137
0,-1639.24,-883.73,-3024.78,87.42,-1.8300248303935085
0,-1634.5,-892.84,-3027.29,87.21,-1.8250247625509033
0,-1644.19,-901.57,-3033.05,82.98,-1.820024694708298
0,-1627.99,-880.51,-3021.48,96.47,-1.8150246268656929
0,-1633.11,-880.48,-3020.45,93.3,-1.8100245590230877
0,-1628.63,-881.66,-3022.07,91.62,-1.8050244911804825
0,-1634.25,-888.96,-3021.98,85.9,-1.8000244233378773
0,-1634.33,-887.84,-3024.21,86.13,-1.795024355495272
0,-1631.38,-879.04,-3016.89,87.56,-1.7900242876526669
0,-1633.99,-883.07,-3027.29,93.34,-1.7850242198100617
0,-1630.69,-881.32,-3019.99,89.04,-1.7800241519674564
0,-1629.9,-888.09,-3018.16,89.27,-1.7750240841248512
0,-1637.23,-896.92,-3024.72,84.34,-1.770024016282246
0,-1636.86,-890.34,-3027.01,86.2,-1.7650239484396408
0,-1632.33,-889.99,-3023.27,91.6,-1.7600238805970356
0,-1636.33,-892.5,-3026.08,86.64,-1.7550238127544304
0,-1630.94,-881.73,-3017.83,88.85,-1.7500237449118252
0,-1633.67,-884.64,-3023.28,86.52,-1.74502367706922
0,-1633.36,-885.56,-3023.06,92.57,-1.7400236092266148
0,-1627.75,-886.0,-3020.02,97.32,-1.7350235413840096
0,-1626.07,-881.5,-3019.84,100.94,-1.7300234735414044
0,-1621.0,-879.2,-3014.46,105.69,-1.7250234056987992
0,-1624.12,-885.88,-3016.11,102.8,-1.720023337856194
0,-1625.63,-887.86,-3017.72,97.07,-1.7150232700135888
0,-1631.57,-884.02,-3016.87,97.82,-1.7100232021709836
0,-1630.52,-875.11,-3019.55,93.41,-1.7050231343283784
0,-1636.92,-881.69,-3024.65,88.33,-1.7000230664857732
0,-1632.68,-885.29,-3020.78,88.67,-1.695022998643168
0,-1633.67,-891.0,-3019.68,93.1,-1.6900229308005628
0,-1642.12,-888.86,-3023.01,88.44,-1.6850228629579576
0,-1635.94,-887.37,-3022.5,90.85,-1.6800227951153524
0,-1631.89,-880.77,-3018.31,92.62,-1.6750227272727471
0,-1634.83,-883.94,-3021.81,89.1,-1.670022659430142
0,-1631.28,-879.85,-3010.54,97.95,-1.6650225915875367
0,-1633.14,-890.18,-3019.34,90.44,-1.6600225237449315
0,-1630.84,-886.09,-3018.3,91.44,-1.6550224559023263
0,-1625.21,-886.64,-3018.46,94.4,-1.6500223880597211
0,-1622.34,-880.23,-3015.36,94.85,-1.645022320217116
0,-1623.23,-881.49,-3010.59,94.52,-1.6400222523745107
0,-1629.84,-890.58,-3016.35,88.31,-1.6350221845319055
0,-1629.79,-884.98,-3018.97,93.43,-1.6300221166893003
0,-1624.09,-877.66,-3020.84,88.15,-1.625022048846695
0,-1631.8,-891.7,-3019.41,84.3,-1.62002198100409
0,-1632.36,-885.55,-3017.31,88.1,-1.6150219131614847
0,-1630.54,-886.54,-3017.71,90.95,-1.6100218453188795
0,-1637.69,-899.49,-3030.97,86.64,-1.6050217774762743
0,-1627.18,-889.86,-3016.82,91.08,-1.600021709633669
0,-1631.08,-884.29,-3025.84,91.96,-1.5950216417910639
0,-1637.84,-884.77,-3026.45,88.1,-1.5900215739484587
0,-1636.86,-882.75,-3025.29,89.6,-1.5850215061058535
0,-1633.03,-882.87,-3021.67,88.13,-1.5800214382632483
0,-1639.48,-895.14,-3026.78,89.32,-1.575021370420643
0,-1632.29,-886.64,-3024.79,86.56,-1.5700213025780378
0,-1629.59,-881.68,-3017.2,90.37,-1.5650212347354326
0,-1640.05,-896.24,-3027.46,82.39,-1.5600211668928274
0,-1632.23,-887.36,-3021.69,83.59,-1.5550210990502222
0,-1639.9,-893.39,-3027.73,78.06,-1.550021031207617
0,-1641.68,-896.0,-3032.5,76.43,-1.5450209633650118
0,-1640.47,-890.89,-3032.84,78.88,-1.5400208955224066
0,-1638.62,-895.43,-3032.27,78.53,-1.5350208276798014
0,-1637.61,-897.51,-3026.45,86.42,-1.5300207598371962
0,-1635.86,-885.87,-3024.54,89.7,-1.525020691994591
0,-1624.59,-878.27,-3014.92,96.92,-1.5200206241519858
0,-1618.38,-872.46,-3010.73,108.35,-1.5150205563093806
0,-1621.88,-877.47,-3012.25,105.67,-1.5100204884667754
0,-1631.11,-885.05,-3015.06,106.39,-1.5050204206241702
0,-1631.23,-882.08,-3017.04,100.73,-1.500020352781565
0,-1629.52,-878.43,-3013.27,98.16,-1.4950202849389598
0,-1629.7,-880.5,-3016.53,97.96,-1.4900202170963546
0,-1625.98,-871.99,-3012.02,99.09,-1.4850201492537494
0,-1625.88,-876.31,-3013.19,101.25,-1.4800200814111442
0,-1627.71,-876.93,-3015.18,99.37,-1.475020013568539
0,-1631.06,-881.42,-3019.24,94.72,-1.4700199457259338
0,-1633.19,-884.28,-3023.01,93.13,-1.4650198778833285
0,-1643.47,-900.69,-3033.11,80.66,-1.4600198100407233
0,-1645.39,-890.0,-3030.89,81.5,-1.4550197421981181
0,-1650.84,-898.09,-3038.32,78.09,-1.450019674355513
0,-1653.02,-899.47,-3036.51,77.72,-1.4450196065129077
0,-1649.97,-902.4,-3042.94,72.9,-1.4400195386703025
0,-1643.6,-898.78,-3035.57,77.07,-1.4350194708276973
0,-1640.86,-891.63,-3031.43,76.96,-1.4300194029850921
0,-1634.92,-891.39,-3025.09,80.83,-1.425019335142487
0,-1623.83,-881.1,-3017.0,88.12,-1.4200192672998817
0,-1620.78,-893.17,-3021.67,81.82,-1.4150191994572765
0,-1624.68,-889.22,-3018.16,86.64,-1.4100191316146713
0,-1635.25,-894.56,-3026.49,86.36,-1.405019063772066
0,-1640.62,-893.84,-3031.32,81.46,-1.4000189959294609
0,-1641.58,-896.67,-3033.79,86.98,-1.3950189280868557
0,-1639.57,-889.51,-3027.53,91.67,-1.3900188602442505
0,-1628.72,-890.42,-3019.8,92.66,-1.3850187924016453
0,-1634.04,-897.69,-3023.89,90.61,-1.38001872455904
0,-1639.27,-892.84,-3030.06,81.1,-1.3750186567164349
0,-1633.99,-886.67,-3027.0,84.94,-1.3700185888738297
0,-1637.58,-892.87,-3028.49,88.07,-1.3650185210312245
0,-1640.14,-889.81,-3028.97,92.23,-1.3600184531886192
0,-1640.83,-900.37,-3032.56,87.21,-1.355018385346014
0,-1646.99,-909.67,-3037.52,86.02,-1.3500183175034088
0,-1636.71,-895.52,-3028.94,90.68,-1.3450182496608036
0,-1634.97,-896.17,-3030.22,88.65,-1.3400181818181984
0,-1634.74,-894.18,-3031.93,88.67,-1.3350181139755932
0,-1637.51,-893.34,-3027.72,86.55,-1.330018046132988
0,-1638.36,-893.38,-3025.38,89.91,-1.3250179782903828
0,-1632.23,-876.32,-3021.16,92.0,-1.3200179104477776
0,-1632.83,-885.23,-3022.49,90.13,-1.3150178426051724
0,-1632.06,-889.2,-3021.87,87.9,-1.3100177747625672
0,-1632.31,-888.05,-3023.61,92.11,-1.305017706919962
0,-1634.94,-884.6,-3025.37,89.97,-1.3000176390773568
0,-1635.38,-889.56,-3025.09,91.98,-1.2950175712347516
0,-1638.5,-888.18,-3026.8,86.89,-1.2900175033921464
0,-1639.85,-895.38,-3032.13,85.22,-1.2850174355495412
0,-1640.09,-894.6,-3031.26,82.17,-1.280017367706936
0,-1643.06,-890.75,-3027.96,82.01,-1.2750172998643308
0,-1638.38,-898.58,-3031.89,79.88,-1.2700172320217256
0,-1638.48,-899.92,-3031.79,75.66,-1.2650171641791204
0,-1642.38,-894.87,-3030.62,79.59,-1.2600170963365152
0,-1636.81,-893.31,-3027.54,75.34,-1.25501702849391
0,-1630.37,-885.23,-3028.57,80.05,-1.2500169606513047
0,-1638.23,-897.03,-3037.16,78.17,-1.2450168928086995
0,-1638.7,-898.97,-3031.25,79.04,-1.2400168249660943
0,-1635.16,-889.91,-3029.64,83.8,-1.2350167571234891
0,-1631.25,-881.97,-3022.84,87.42,-1.230016689280884
0,-1630.24,-879.82,-3017.7,87.94,-1.2250166214382787
0,-1633.59,-888.81,-3021.88,91.19,-1.2200165535956735
0,-1636.43,-890.97,-3026.85,86.29,-1.2150164857530683
0,-1637.07,-890.74,-3024.95,88.18,-1.210016417910463
0,-1637.89,-885.48,-3027.27,85.51,-1.205016350067858
0,-1642.39,-890.33,-3029.9,83.34,-1.2000162822252527
0,-1631.36,-875.16,-3020.34,96.94,-1.1950162143826475
0,-1643.86,-898.11,-3034.37,83.48,-1.1900161465400423
0,-1648.31,-902.8,-3036.72,77.18,-1.185016078697437
0,-1652.85,-904.98,-3046.32,73.62,-1.1800160108548319
0,-1644.2,-889.51,-3033.76,74.57,-1.1750159430122267
0,-1629.3,-882.39,-3020.85,83.1,-1.1700158751696215
0,-1632.55,-888.54,-3023.74,85.63,-1.1650158073270163
0,-1631.3,-886.53,-3023.91,88.27,-1.160015739484411
0,-1621.07,-868.93,-3020.57,95.75,-1.1550156716418059
0,-1631.34,-876.53,-3018.32,95.55,-1.1500156037992006
0,-1626.25,-876.75,-3015.15,95.67,-1.1450155359565954
0,-1626.13,-886.66,-3017.12,95.78,-1.1400154681139902
0,-1627.45,-880.17,-3014.34,92.96,-1.135015400271385
0,-1631.12,-887.89,-3022.09,90.21,-1.1300153324287798
0,-1630.01,-892.38,-3021.57,89.65,-1.1250152645861746
0,-1622.88,-889.09,-3019.11,93.59,-1.1200151967435694
0,-1637.6,-892.34,-3023.17,90.74,-1.1150151289009642
0,-1636.64,-886.19,-3023.67,90.45,-1.110015061058359
0,-1641.63,-892.21,-3024.43,82.51,-1.1050149932157538
0,-1641.02,-899.82,-3027.37,87.85,-1.1000149253731486
0,-1639.5,-894.94,-3021.5,88.98,-1.0950148575305434
0,-1636.26,-887.72,-3022.5,92.69,-1.0900147896879382
0,-1637.22,-886.28,-3022.54,89.35,-1.085014721845333
0,-1638.64,-896.8,-3026.52,86.64,-1.0800146540027278
0,-1640.75,-899.71,-3026.29,86.83,-1.0750145861601226
0,-1640.86,-896.97,-3028.63,86.35,-1.0700145183175174
0,-1636.67,-890.77,-3024.0,91.08,-1.0650144504749122
0,-1628.33,-886.08,-3018.79,90.78,-1.060014382632307
0,-1635.48,-884.41,-3020.81,91.38,-1.0550143147897018
0,-1629.5,-884.83,-3018.81,95.76,-1.0500142469470966
0,-1628.12,-889.68,-3017.98,99.84,-1.0450141791044913
0,-1633.96,-890.59,-3027.92,91.56,-1.0400141112618861
0,-1631.09,-885.14,-3019.21,95.13,-1.035014043419281
0,-1635.56,-886.39,-3016.14,94.2,-1.0300139755766757
0,-1631.5,-882.09,-3015.86,92.01,-1.0250139077340705
0,-1624.39,-878.06,-3021.45,93.04,-1.0200138398914653
0,-1637.79,-889.88,-3029.84,86.5,-1.0150137720488601
0,-1633.38,-883.21,-3024.77,91.19,-1.010013704206255
0,-1627.37,-877.74,-3014.07,93.03,-1.0050136363636497
0,-1629.1,-881.63,-3019.75,93.56,-1.0000135685210445
0,-1635.94,-887.62,-3027.06,89.25,-0.9950135006784393
0,-1634.85,-900.54,-3025.92,85.93,-0.9900134328358341
0,-1628.96,-893.09,-3027.2,87.75,-0.9850133649932289
0,-1636.78,-893.33,-3026.36,82.55,-0.9800132971506237
0,-1636.11,-889.49,-3021.33,89.83,-0.9750132293080185
0,-1634.96,-884.82,-3020.99,90.36,-0.9700131614654133
0,-1633.8,-887.57,-3023.86,85.05,-0.9650130936228081
0,-1630.88,-882.65,-3020.57,93.32,-0.9600130257801993
0,-1630.2,-886.75,-3019.24,94.55,-0.9550129579375941
0,-1640.12,-896.47,-3030.51,84.49,-0.9500128900949889
0,-1639.48,-901.71,-3031.06,86.26,-0.9450128222523837
0,-1641.64,-895.72,-3033.03,85.11,-0.9400127544097785
0,-1634.82,-892.52,-3026.24,84.67,-0.9350126865671733
0,-1626.27,-886.54,-3024.19,89.94,-0.9300126187245681
0,-1629.75,-878.85,-3023.09,93.16,-0.9250125508819629
0,-1634.01,-882.27,-3023.46,88.13,-0.9200124830393577
0,-1625.99,-884.19,-3020.77,89.6,-0.9150124151967525
0,-1632.41,-886.77,-3018.78,89.6,-0.9100123473541473
0,-1631.95,-872.32,-3011.6,90.34,-0.9050122795115421
0,-1624.88,-883.18,-3013.87,95.4,-0.9000122116689369
0,-1626.81,-885.36,-3017.07,92.5,-0.8950121438263317
0,-1627.1,-889.05,-3025.96,84.67,-0.8900120759837264
0,-1621.41,-880.43,-3019.13,89.42,-0.8850120081411212
0,-1633.05,-875.19,-3019.24,95.72,-0.880011940298516
0,-1632.35,-875.59,-3022.09,94.0,-0.8750118724559108
0,-1634.48,-892.08,-3027.13,82.95,-0.8700118046133056
0,-1628.7,-882.87,-3017.52,90.8,-0.8650117367707004
0,-1637.74,-881.09,-3021.72,90.52,-0.8600116689280952
0,-1638.67,-893.94,-3030.26,86.98,-0.85501160108549
0,-1637.46,-898.11,-3030.16,88.35,-0.8500115332428848
0,-1637.19,-893.79,-3027.85,88.99,-0.8450114654002796
0,-1631.35,-890.94,-3020.5,91.89,-0.8400113975576744
0,-1629.12,-882.05,-3019.71,92.15,-0.8350113297150692
0,-1637.77,-890.93,-3026.05,87.44,-0.830011261872464
0,-1633.45,-893.58,-3025.85,93.22,-0.8250111940298588
0,-1635.17,-883.33,-3020.66,90.32,-0.8200111261872536
0,-1637.88,-881.47,-3018.82,88.98,-0.8150110583446484
0,-1635.65,-889.93,-3019.86,88.77,-0.8100109905020432
0,-1629.32,-883.42,-3021.42,89.97,-0.805010922659438
0,-1635.4,-883.51,-3023.42,90.48,-0.8000108548168328
0,-1629.66,-883.21,-3021.32,87.02,-0.7950107869742276
0,-1627.11,-882.9,-3017.38,88.95,-0.7900107191316224
0,-1619.13,-878.57,-3015.04,97.14,-0.7850106512890171
0,-1624.12,-883.13,-3014.03,95.46,-0.7800105834464119
0,-1632.5,-883.08,-3018.04,89.69,-0.7750105156038067
0,-1631.22,-878.52,-3014.14,88.88,-0.7700104477612015
0,-1635.55,-882.38,-3017.26,87.84,-0.7650103799185963
0,-1637.85,-885.69,-3017.77,90.51,-0.7600103120759911
0,-1628.14,-887.09,-3018.77,89.83,-0.7550102442333859
0,-1632.46,-888.06,-3021.32,87.49,-0.7500101763907807
0,-1629.58,-889.97,-3020.14,89.1,-0.7450101085481755
0,-1633.09,-893.27,-3028.92,83.41,-0.7400100407055703
0,-1632.29,-888.6,-3022.94,82.66,-0.7350099728629651
0,-1634.61,-877.76,-3022.05,92.88,-0.7300099050203599
0,-1636.56,-885.04,-3017.98,96.38,-0.7250098371777547
0,-1636.49,-890.2,-3023.71,87.37,-0.7200097693351495
0,-1635.76,-892.89,-3027.22,86.45,-0.7150097014925443
0,-1639.49,-902.57,-3032.08,76.79,-0.7100096336499391
0,-1637.45,-896.56,-3033.61,76.6,-0.7050095658073339
0,-1641.45,-895.63,-3038.13,79.04,-0.7000094979647287
0,-1646.06,-902.71,-3041.76,78.23,-0.6950094301221235
0,-1643.88,-893.36,-3041.3,84.29,-0.6900093622795183
0,-1644.94,-896.72,-3033.59,84.1,-0.685009294436913
0,-1642.37,-895.92,-3028.76,84.85,-0.6800092265943078
0,-1637.05,-890.99,-3026.48,84.97,-0.6750091587517026
0,-1636.47,-890.29,-3025.67,85.08,-0.6700090909090974
0,-1636.01,-885.21,-3018.44,94.63,-0.6650090230664922
0,-1632.2,-879.18,-3015.99,95.99,-0.660008955223887
0,-1630.59,-879.34,-3016.52,92.84,-0.6550088873812818
0,-1624.6,-873.81,-3016.15,98.6,-0.6500088195386766
0,-1624.2,-871.51,-3016.46,97.46,-0.6450087516960714
0,-1624.0,-881.86,-3016.01,98.5,-0.6400086838534662
0,-1629.27,-882.9,-3015.48,101.62,-0.635008616010861
0,-1635.03,-879.33,-3021.79,91.39,-0.6300085481682558
0,-1638.37,-891.26,-3026.05,86.49,-0.6250084803256506
0,-1635.14,-886.85,-3022.96,85.86,-0.6200084124830454
0,-1639.07,-887.76,-3028.51,81.07,-0.6150083446404402
0,-1631.06,-886.88,-3021.77,86.25,-0.610008276797835
0,-1642.38,-900.69,-3035.95,77.69,-0.6050082089552298
0,-1640.83,-890.19,-3027.16,87.92,-0.6000081411126246
0,-1640.37,-891.59,-3029.18,83.2,-0.5950080732700194
0,-1641.16,-895.92,-3031.89,80.99,-0.5900080054274142
0,-1641.45,-894.29,-3029.11,82.62,-0.585007937584809
0,-1639.68,-887.57,-3031.98,84.3,-0.5800078697422038
0,-1641.79,-887.75,-3029.77,83.13,-0.5750078018995985
0,-1635.15,-892.36,-3033.45,85.0,-0.5700077340569933
0,-1638.47,-898.86,-3034.78,76.47,-0.5650076662143881
0,-1639.82,-904.24,-3031.0,78.82,-0.5600075983717829
0,-1636.5,-894.54,-3025.28,90.0,-0.5550075305291777
0,-1640.64,-902.0,-3027.98,84.62,-0.5500074626865725
0,-1638.65,-886.43,-3025.12,85.75,-0.5450073948439673
0,-1634.83,-883.35,-3022.67,88.89,-0.5400073270013621
0,-1628.51,-882.34,-3019.9,94.73,-0.5350072591587569
0,-1628.06,-874.69,-3010.06,100.14,-0.5300071913161517
0,-1635.98,-889.19,-3021.16,91.49,-0.5250071234735465
0,-1633.56,-896.96,-3026.41,93.46,-0.5200070556309413
0,-1638.41,-898.65,-3028.75,88.96,-0.5150069877883361
0,-1634.46,-898.02,-3024.46,86.17,-0.5100069199457309
0,-1627.01,-893.69,-3020.25,88.53,-0.5050068521031257
0,-1626.63,-885.76,-3019.46,89.63,-0.5000067842605205
0,-1632.39,-888.81,-3022.79,91.12,-0.49500671641791527
0,-1633.84,-884.45,-3020.76,94.96,-0.49000664857531007
0,-1643.29,-894.42,-3034.18,81.46,-0.48500658073270486
0,-1641.96,-900.56,-3028.63,82.6,-0.48000651289009966
0,-1638.36,-903.78,-3036.25,79.93,-0.47500644504749445
0,-1643.57,-902.63,-3032.48,80.27,-0.47000637720488925
0,-1643.36,-892.97,-3030.63,85.11,-0.46500630936228404
0,-1646.94,-893.5,-3027.43,83.22,-0.46000624151967884
0,-1634.78,-887.01,-3020.87,90.66,-0.45500617367707363
0,-1635.53,-889.94,-3024.34,91.2,-0.45000610583446843
0,-1642.96,-897.53,-3029.86,87.25,-0.4450060379918632
0,-1632.01,-890.81,-3024.84,98.33,-0.440005970149258
0,-1631.06,-889.58,-3023.69,99.88,-0.4350059023066528
0,-1640.32,-888.47,-3025.72,86.87,-0.4300058344640476
0,-1633.31,-889.85,-3027.07,84.94,-0.4250057666214424
0,-1631.99,-898.55,-3028.87,80.57,-0.4200056987788372
0,-1640.7,-890.74,-3028.49,81.95,-0.415005630936232
0,-1638.19,-889.65,-3031.34,81.48,-0.4100055630936268
0,-1634.46,-892.85,-3026.43,82.35,-0.4050054952510216
0,-1627.95,-892.83,-3027.48,85.44,-0.4000054274084164
0,-1630.82,-887.77,-3022.81,88.82,-0.3950053595658112
0,-1635.38,-886.29,-3029.16,84.57,-0.39000529172320597
0,-1640.57,-890.85,-3027.64,88.79,-0.38500522388060077
0,-1634.91,-889.43,-3027.35,88.08,-0.38000515603799556
0,-1628.93,-888.95,-3025.52,88.46,-0.37500508819539036
0,-1630.57,-887.65,-3026.03,91.35,-0.37000502035278515
0,-1629.31,-873.49,-3015.46,96.17,-0.36500495251017995
0,-1626.28,-878.21,-3009.99,94.4,-0.36000488466757474
0,-1626.33,-881.62,-3012.27,96.18,-0.35500481682496954
0,-1626.8,-887.23,-3018.97,98.88,-0.35000474898236433
0,-1623.53,-887.88,-3013.93,101.21,-0.34500468113975913
0,-1625.61,-885.5,-3020.58,96.64,-0.3400046132971539
0,-1636.55,-893.87,-3026.39,86.26,-0.3350045454545487
0,-1642.79,-891.46,-3026.61,85.12,-0.3300044776119435
0,-1637.73,-880.13,-3021.18,89.24,-0.3250044097693383
0,-1638.92,-880.07,-3023.46,88.46,-0.3200043419267331
0,-1636.42,-887.82,-3029.86,81.97,-0.3150042740841279
0,-1638.98,-893.26,-3030.37,82.46,-0.3100042062415227
0,-1644.54,-901.37,-3034.86,81.8,-0.3050041383989175
0,-1646.21,-906.67,-3042.97,77.08,-0.3000040705563123
0,-1644.54,-900.29,-3032.59,85.99,-0.2950040027137071
0,-1641.86,-885.88,-3031.95,85.98,-0.2900039348711019
0,-1633.85,-884.76,-3022.85,93.84,-0.28500386702849667
0,-1637.59,-876.53,-3019.61,100.0,-0.28000379918589147
0,-1635.31,-874.35,-3019.61,96.33,-0.27500373134328626
0,-1632.56,-890.89,-3020.75,91.77,-0.27000366350068106
0,-1629.26,-889.31,-3027.72,87.87,-0.26500359565807585
0,-1631.77,-894.53,-3023.44,88.79,-0.26000352781547065
0,-1634.13,-880.7,-3018.39,105.43,-0.25500345997286544
0,-1644.14,-885.91,-3028.87,87.05,-0.25000339213026024
0,-1645.91,-892.34,-3032.01,80.89,-0.24500332428765503
0,-1643.95,-896.01,-3032.01,81.49,-0.24000325644504983
0,-1641.73,-893.63,-3029.08,83.87,-0.23500318860244462
0,-1641.68,-887.36,-3025.68,87.49,-0.23000312075983942
0,-1628.13,-882.87,-3016.74,91.91,-0.22500305291723421
0,-1626.36,-882.43,-3016.08,89.63,-0.220002985074629
0,-1623.81,-883.45,-3014.99,94.03,-0.2150029172320238
0,-1626.99,-879.51,-3019.77,97.28,-0.2100028493894186
0,-1634.75,-884.91,-3021.96,91.63,-0.2050027815468134
0,-1634.75,-884.21,-3022.39,91.98,-0.2000027137042082
0,-1635.39,-882.48,-3019.63,93.97,-0.19500264586160299
0,-1629.89,-881.78,-3018.71,92.32,-0.19000257801899778
0,-1631.66,-896.81,-3025.97,88.22,-0.18500251017639258
0,-1633.75,-887.03,-3018.21,91.26,-0.18000244233378737
0,-1638.97,-889.33,-3033.33,80.04,-0.17500237449118217
0,-1640.47,-906.88,-3036.41,83.78,-0.17000230664857696
0,-1641.8,-903.99,-3038.6,77.7,-0.16500223880597176
0,-1642.55,-897.84,-3037.55,78.2,-0.16000217096336655
0,-1646.39,-895.89,-3034.86,80.18,-0.15500210312076135
0,-1639.03,-888.69,-3029.42,78.91,-0.15000203527815614
0,-1640.25,-889.84,-3028.72,88.9,-0.14500196743555094
0,-1636.32,-885.21,-3027.5,86.23,-0.14000189959294573
0,-1632.96,-891.55,-3025.12,87.26,-0.13500183175034053
0,-1634.39,-897.83,-3028.66,88.54,-0.13000176390773532
0,-1633.56,-880.91,-3022.69,87.81,-0.12500169606513012
0,-1633.19,-882.57,-3020.68,92.78,-0.12000162822252491
0,-1632.49,-887.08,-3027.28,84.39,-0.11500156037991971
0,-1639.64,-889.78,-3027.63,84.71,-0.1100014925373145
0,-1631.19,-886.09,-3023.52,90.2,-0.1050014246947093
0,-1635.88,-883.32,-3027.21,86.31,-0.1000013568521041
0,-1628.4,-874.96,-3019.6,91.17,-0.09500128900949889
0,-1634.79,-890.41,-3025.79,88.63,-0.09000122116689369
0,-1636.09,-891.27,-3031.89,80.86,-0.08500115332428848
0,-1635.22,-886.59,-3028.58,86.42,-0.08000108548168328
0,-1635.07,-887.65,-3022.68,89.07,-0.07500101763907807
0,-1633.73,-883.48,-3018.22,91.52,-0.07000094979647287
0,-1624.75,-879.42,-3015.37,96.54,-0.06500088195386766
0,-1626.23,-876.63,-3010.99,99.17,-0.06000081411126246
0,-1630.48,-880.42,-3021.11,94.64,-0.05500074626865725
0,-1631.17,-899.05,-3022.94,90.18,-0.05000067842605205
0,-1628.9,-888.05,-3020.99,91.02,-0.04500061058344684
0,-1632.79,-880.5,-3019.78,89.96,-0.04000054274084164
0,-1638.07,-885.78,-3019.63,86.95,-0.03500047489823643
0,-1639.73,-887.01,-3024.02,95.12,-0.03000040705563123
0,-1642.7,-883.0,-3027.67,89.81,-0.02500033921302247
0,-1638.5,-890.84,-3028.14,87.46,-0.02000027137042082
0,-1641.66,-895.84,-3029.89,84.2,-0.015000203527812062
0,-1643.85,-888.0,-3023.66,87.34,-0.01000013568521041
0,-1639.96,-889.19,-3016.2,87.73,-0.005000067842601652
0,-1639.04,-893.24,-3023.42,87.54,0.0
0,-1634.97,-886.39,-3024.2,83.18,0.0050000678426087575
0,-1637.18,-885.41,-3026.78,87.39,0.01000013568521041
0,-1635.37,-890.27,-3029.81,89.87,0.015000203527819167
0,-1629.58,-877.97,-3021.9,90.38,0.02000027137042082
0,-1634.42,-880.5,-3023.23,87.06,0.025000339213029577
0,-1632.51,-886.47,-3027.02,83.14,0.03000040705563123
0,-1633.39,-892.59,-3025.28,89.78,0.035000474898239986
0,-1631.34,-891.81,-3021.97,93.4,0.04000054274084164
0,-1632.18,-894.34,-3030.3,83.77,0.045000610583450396
0,-1633.16,-886.03,-3024.99,88.97,0.05000067842605205
0,-1640.69,-895.61,-3031.97,85.41,0.055000746268660805
0,-1641.23,-887.18,-3031.17,82.98,0.06000081411126246
0,-1639.15,-886.75,-3027.33,80.29,0.06500088195387121
0,-1644.45,-897.31,-3028.04,79.39,0.07000094979647287
0,-1651.27,-893.42,-3034.27,81.96,0.07500101763908162
0,-1646.64,-889.94,-3033.08,84.14,0.08000108548168328
0,-1631.83,-884.14,-3023.61,90.84,0.08500115332429203
0,-1626.83,-892.56,-3023.79,95.67,0.09000122116689369
0,-1625.81,-878.53,-3015.33,101.96,0.09500128900950244
0,-1622.56,-880.82,-3010.09,92.18,0.1000013568521041
0,-1629.39,-881.51,-3012.56,91.46,0.10500142469471285
0,-1633.31,-883.64,-3019.31,83.97,0.1100014925373145
0,-1630.62,-884.77,-3016.64,92.58,0.11500156037992326
0,-1628.52,-874.59,-3011.4,93.35,0.12000162822252491
0,-1625.39,-876.54,-3011.66,91.97,0.12500169606513367
0,-1635.18,-894.81,-3026.78,85.43,0.13000176390773532
0,-1625.65,-891.76,-3013.36,91.49,0.13500183175034408
0,-1631.1,-895.13,-3021.05,83.89,0.14000189959294573
0,-1627.5,-885.31,-3022.06,87.5,0.1450019674355545
0,-1624.81,-881.76,-3014.84,90.81,0.15000203527815614
0,-1625.67,-882.63,-3015.19,90.14,0.1550021031207649
0,-1627.49,-881.55,-3017.68,91.76,0.16000217096336655
0,-1630.8,-874.75,-3022.59,91.01,0.1650022388059753
0,-1625.01,-880.57,-3013.68,99.69,0.17000230664857696
0,-1632.11,-886.42,-3023.95,93.36,0.17500237449118572
0,-1625.74,-891.83,-3022.48,92.27,0.18000244233378737
0,-1626.51,-884.75,-3015.23,96.5,0.18500251017639613
0,-1634.1,-887.44,-3020.09,92.17,0.19000257801899778
0,-1637.94,-887.48,-3025.43,85.71,0.19500264586160654
0,-1648.74,-894.57,-3039.87,78.74,0.2000027137042082
0,-1637.59,-892.38,-3028.82,86.54,0.20500278154681695
0,-1640.84,-888.57,-3032.31,83.16,0.2100028493894186
0,-1632.01,-884.62,-3031.8,79.56,0.21500291723202736
0,-1637.71,-888.25,-3027.57,83.89,0.220002985074629
0,-1637.09,-899.45,-3030.45,83.37,0.22500305291723777
0,-1635.31,-891.37,-3028.77,87.34,0.23000312075983942
0,-1638.79,-890.54,-3025.92,81.89,0.23500318860244818
0,-1645.4,-892.73,-3029.73,87.02,0.24000325644504983
0,-1647.38,-892.38,-3036.82,87.85,0.24500332428765859
0,-1640.56,-893.0,-3029.57,89.87,0.25000339213026024
0,-1635.79,-876.73,-3017.5,97.02,0.255003459972869
0,-1624.02,-873.81,-3013.15,99.6,0.26000352781547065
0,-1630.96,-878.73,-3019.71,93.1,0.2650035956580794
0,-1630.49,-886.46,-3021.66,95.63,0.27000366350068106
0,-1630.44,-877.53,-3017.57,95.88,0.2750037313432898
0,-1631.28,-885.45,-3022.08,97.58,0.28000379918589147
0,-1625.98,-894.78,-3027.72,92.94,0.2850038670285002
0,-1631.55,-885.63,-3020.62,94.49,0.2900039348711019
0,-1628.78,-869.26,-3007.52,102.03,0.29500400271371063
0,-1633.65,-878.49,-3017.94,94.31,0.3000040705563123
0,-1637.23,-890.51,-3024.12,89.76,0.30500413839892104
0,-1629.39,-888.98,-3021.24,95.95,0.3100042062415227
0,-1635.87,-887.01,-3024.2,92.6,0.31500427408413145
0,-1624.66,-886.39,-3019.28,95.21,0.3200043419267331
0,-1628.01,-886.15,-3022.23,97.29,0.32500440976934186
0,-1621.34,-875.72,-3018.48,93.64,0.3300044776119435
0,-1624.97,-882.49,-3011.54,99.36,0.33500454545455227
0,-1625.44,-882.87,-3016.83,92.43,0.3400046132971539
0,-1628.41,-891.54,-3023.6,91.01,0.3450046811397627
0,-1629.32,-887.97,-3021.18,90.96,0.35000474898236433
0,-1625.27,-883.24,-3018.99,92.23,0.3550048168249731
0,-1623.66,-882.59,-3016.75,89.48,0.36000488466757474
0,-1614.39,-876.66,-3013.24,95.23,0.3650049525101835
0,-1602.44,-860.72,-2999.76,109.2,0.37000502035278515
0,-1589.58,-848.5,-2986.96,106.87,0.3750050881953939
0,-1577.84,-816.93,-2973.55,100.76,0.38000515603799556
0,-1569.77,-811.5,-2962.8,102.15,0.3850052238806043
0,-1569.53,-825.61,-2967.24,102.77,0.39000529172320597
0,-1573.7,-833.37,-2975.8,106.37,0.39500535956581473
0,-1578.52,-838.77,-2986.03,105.14,0.4000054274084164
0,-1584.23,-846.38,-2988.51,107.89,0.40500549525102514
0,-1593.88,-851.87,-2992.54,103.57,0.4100055630936268
0,-1610.56,-860.96,-2998.57,94.42,0.41500563093623555
0,-1618.71,-858.61,-3005.24,96.06,0.4200056987788372
0,-1625.21,-870.66,-3012.72,90.08,0.42500576662144596
0,-1623.71,-876.77,-3010.32,93.26,0.4300058344640476
0,-1626.02,-888.82,-3019.85,90.58,0.43500590230665637
0,-1635.06,-887.39,-3023.29,94.87,0.440005970149258
0,-1636.76,-894.45,-3029.08,96.59,0.4450060379918668
0,-1647.61,-908.21,-3037.16,91.1,0.45000610583446843
0,-1650.34,-908.35,-3037.72,88.36,0.4550061736770772
0,-1655.46,-913.91,-3043.29,83.78,0.46000624151967884
0,-1652.18,-911.79,-3040.47,80.79,0.4650063093622876
0,-1661.07,-912.23,-3042.6,85.98,0.47000637720488925
0,-1662.06,-918.22,-3053.19,78.21,0.475006445047498
0,-1664.42,-917.53,-3049.79,79.38,0.48000651289009966
0,-1664.11,-912.05,-3053.52,83.79,0.4850065807327084
0,-1660.48,-917.78,-3047.02,84.73,0.49000664857531007
0,-1656.37,-922.39,-3048.33,85.4,0.4950067164179188
0,-1669.24,-925.84,-3052.73,80.3,0.5000067842605205
0,-1661.03,-912.65,-3047.74,85.55,0.5050068521031292
0,-1662.53,-919.13,-3049.3,80.36,0.5100069199457309
0,-1660.37,-913.76,-3045.85,83.44,0.5150069877883396
0,-1661.97,-924.13,-3049.92,85.31,0.5200070556309413
0,-1655.41,-916.5,-3044.06,80.03,0.52500712347355
0,-1658.98,-909.09,-3044.57,79.42,0.5300071913161517
0,-1663.91,-912.79,-3048.91,80.0,0.5350072591587605
0,-1663.32,-910.84,-3050.91,69.83,0.5400073270013621
0,-1653.15,-901.12,-3042.06,79.18,0.5450073948439709
0,-1648.66,-892.57,-3034.77,84.52,0.5500074626865725
0,-1649.15,-906.69,-3037.59,85.43,0.5550075305291813
0,-1653.46,-916.74,-3045.87,73.02,0.5600075983717829
0,-1647.21,-907.43,-3043.15,80.01,0.5650076662143917
0,-1640.53,-903.28,-3039.02,88.18,0.5700077340569933
0,-1643.98,-902.07,-3032.9,85.06,0.5750078018996021
0,-1644.25,-897.79,-3033.27,82.22,0.5800078697422038
0,-1647.99,-902.45,-3040.1,77.15,0.5850079375848125
0,-1642.26,-892.16,-3034.78,83.53,0.5900080054274142
0,-1640.9,-899.77,-3027.95,85.51,0.5950080732700229
0,-1640.87,-897.34,-3029.68,83.08,0.6000081411126246
0,-1639.93,-892.65,-3028.89,87.71,0.6050082089552333
0,-1643.85,-895.81,-3025.42,88.04,0.610008276797835
0,-1638.72,-887.01,-3025.35,90.72,0.6150083446404437
0,-1640.75,-895.42,-3028.63,84.69,0.6200084124830454
0,-1632.39,-890.67,-3023.68,92.84,0.6250084803256541
0,-1629.23,-887.23,-3021.7,88.8,0.6300085481682558
0,-1634.15,-879.5,-3021.18,90.77,0.6350086160108646
0,-1637.75,-886.35,-3023.1,87.52,0.6400086838534662
0,-1630.69,-881.44,-3017.62,94.47,0.645008751696075
0,-1629.31,-879.36,-3015.92,93.7,0.6500088195386766
0,-1633.89,-881.08,-3020.18,94.11,0.6550088873812854
0,-1630.66,-875.41,-3016.06,92.15,0.660008955223887
0,-1627.14,-875.1,-3017.07,94.31,0.6650090230664958
0,-1637.1,-884.56,-3022.14,88.07,0.6700090909090974
0,-1638.96,-891.24,-3028.62,91.36,0.6750091587517062
0,-1636.06,-893.72,-3027.97,87.72,0.6800092265943078
0,-1636.12,-894.5,-3030.56,87.07,0.6850092944369166
0,-1637.15,-889.13,-3027.82,89.02,0.6900093622795183
0,-1636.8,-892.95,-3032.18,86.81,0.695009430122127
0,-1644.02,-891.46,-3032.41,80.77,0.7000094979647287
0,-1638.4,-894.56,-3031.56,85.43,0.7050095658073374
0,-1631.9,-882.12,-3018.69,93.19,0.7100096336499391
0,-1621.16,-881.49,-3007.66,106.59,0.7150097014925478
0,-1628.45,-885.85,-3019.09,97.11,0.7200097693351495
0,-1633.37,-890.54,-3026.97,81.98,0.7250098371777582
0,-1633.36,-896.38,-3032.13,78.59,0.7300099050203599
0,-1644.53,-905.92,-3041.73,76.1,0.7350099728629687
0,-1646.75,-898.89,-3036.75,75.05,0.7400100407055703
0,-1639.76,-892.87,-3028.63,82.05,0.7450101085481791
0,-1632.17,-900.96,-3028.6,79.85,0.7500101763907807
0,-1636.59,-900.67,-3029.09,80.74,0.7550102442333895
0,-1635.02,-894.09,-3031.02,82.52,0.7600103120759911
0,-1648.71,-901.01,-3038.11,74.75,0.7650103799185999
0,-1647.73,-890.17,-3035.68,76.36,0.7700104477612015
0,-1639.09,-896.1,-3031.79,82.95,0.7750105156038103
0,-1642.36,-909.18,-3039.97,76.7,0.7800105834464119
0,-1646.15,-898.67,-3031.33,86.02,0.7850106512890207
0,-1639.02,-895.25,-3034.52,85.32,0.7900107191316224
0,-1641.22,-899.9,-3029.55,86.11,0.7950107869742311
0,-1637.23,-893.2,-3024.57,90.84,0.8000108548168328
0,-1644.48,-904.62,-3031.22,86.82,0.8050109226594415
0,-1645.34,-897.18,-3032.64,84.21,0.8100109905020432
0,-1643.35,-890.75,-3028.99,88.1,0.8150110583446519
0,-1637.94,-894.22,-3030.21,88.14,0.8200111261872536
0,-1638.78,-888.14,-3028.4,93.64,0.8250111940298623
0,-1643.75,-896.53,-3032.94,90.4,0.830011261872464
0,-1634.49,-890.91,-3028.62,91.45,0.8350113297150727
0,-1636.1,-889.99,-3026.47,88.52,0.8400113975576744
0,-1628.36,-882.48,-3017.71,92.41,0.8450114654002832
0,-1619.71,-880.04,-3015.61,93.77,0.8500115332428848
0,-1620.5,-877.27,-3014.52,92.55,0.8550116010854936
0,-1612.93,-868.93,-3000.31,98.37,0.8600116689280952
0,-1602.36,-865.24,-2995.14,99.67,0.865011736770704
0,-1582.78,-842.68,-2980.17,113.35,0.8700118046133127
0,-1577.29,-839.09,-2971.37,118.43,0.8750118724559144
0,-1569.21,-827.48,-2962.41,121.08,0.8800119402985231
0,-1570.66,-825.62,-2966.59,112.99,0.8850120081411248
0,-1573.89,-829.44,-2971.99,106.94,0.8900120759837336
0,-1575.87,-829.5,-2971.3,112.57,0.8950121438263352
0,-1580.27,-831.7,-2977.34,111.03,0.900012211668944
0,-1590.15,-833.98,-2985.27,105.64,0.9050122795115456
0,-1597.6,-841.25,-2985.51,106.53,0.9100123473541544
0,-1606.22,-854.85,-3004.4,94.75,0.915012415196756
0,-1612.74,-859.65,-3003.19,94.62,0.9200124830393648
0,-1620.48,-874.44,-3006.32,88.58,0.9250125508819664
0,-1635.31,-883.16,-3024.27,84.79,0.9300126187245752
0,-1645.13,-901.19,-3035.32,76.83,0.9350126865671768
0,-1649.73,-901.81,-3040.65,82.9,0.9400127544097856
0,-1649.35,-905.27,-3043.01,80.41,0.9450128222523873
0,-1652.9,-908.29,-3046.21,77.43,0.950012890094996
0,-1655.05,-908.97,-3041.08,86.35,0.9550129579375977
0,-1649.8,-907.19,-3040.1,84.44,0.9600130257802064
0,-1662.73,-914.7,-3049.5,71.04,0.9650130936228081
0,-1665.04,-914.17,-3053.07,72.02,0.9700131614654168
0,-1668.96,-920.62,-3053.71,72.35,0.9750132293080185
0,-1665.85,-924.79,-3058.91,68.83,0.9800132971506272
0,-1663.06,-923.01,-3053.85,71.19,0.9850133649932289
0,-1665.21,-919.22,-3055.6,74.72,0.9900134328358376
0,-1662.78,-908.03,-3044.52,79.96,0.9950135006784393
0,-1665.21,-917.54,-3051.74,72.71,1.000013568521048
0,-1660.5,-915.43,-3045.19,71.82,1.0050136363636497
0,-1666.01,-915.65,-3051.1,71.0,1.0100137042062585
0,-1658.96,-908.89,-3047.93,81.96,1.0150137720488601
0,-1665.23,-913.78,-3045.91,77.89,1.0200138398914689
0,-1654.37,-903.63,-3039.41,83.8,1.0250139077340705
0,-1655.76,-908.12,-3039.15,82.22,1.0300139755766793
0,-1661.11,-908.63,-3047.37,77.19,1.035014043419281
0,-1648.31,-885.74,-3033.2,84.42,1.0400141112618897
0,-1646.98,-901.45,-3038.36,81.96,1.0450141791044913
0,-1644.87,-906.95,-3036.48,82.07,1.0500142469471
0,-1640.5,-893.53,-3029.28,86.49,1.0550143147897018
0,-1633.94,-892.03,-3023.6,92.7,1.0600143826323105
0,-1640.79,-889.57,-3024.48,89.45,1.0650144504749122
0,-1640.97,-895.11,-3029.08,86.06,1.070014518317521
0,-1643.15,-896.51,-3025.91,87.81,1.0750145861601226
0,-1635.67,-891.72,-3025.16,92.13,1.0800146540027313
0,-1641.63,-893.74,-3031.97,88.67,1.085014721845333
0,-1643.4,-887.12,-3028.99,91.21,1.0900147896879417
0,-1642.14,-887.5,-3024.4,90.42,1.0950148575305434
0,-1634.51,-885.73,-3020.78,93.12,1.1000149253731522
0,-1638.38,-884.18,-3025.36,91.91,1.1050149932157538
0,-1639.78,-890.13,-3027.76,87.92,1.1100150610583626
0,-1635.81,-886.4,-3024.48,85.37,1.1150151289009642
0,-1640.05,-890.98,-3026.58,80.65,1.120015196743573
0,-1630.82,-890.37,-3025.92,87.63,1.1250152645861746
0,-1631.15,-888.64,-3023.77,92.02,1.1300153324287834
0,-1637.85,-889.7,-3024.53,88.3,1.135015400271385
0,-1635.57,-889.27,-3024.49,92.86,1.1400154681139938
0,-1638.45,-890.65,-3021.53,89.0,1.1450155359565954
0,-1629.92,-887.75,-3024.45,87.72,1.1500156037992042
0,-1632.07,-890.17,-3024.72,92.0,1.1550156716418059
0,-1634.0,-882.35,-3021.52,98.31,1.1600157394844146
0,-1630.43,-878.82,-3015.81,93.97,1.1650158073270163
0,-1638.12,-887.36,-3026.38,87.39,1.170015875169625
0,-1639.16,-878.96,-3021.23,92.14,1.1750159430122267
0,-1631.8,-889.42,-3027.62,91.17,1.1800160108548354
0,-1625.18,-884.13,-3017.35,94.22,1.185016078697437
0,-1625.28,-880.1,-3017.58,97.12,1.1900161465400458
0,-1638.99,-886.95,-3021.15,90.77,1.1950162143826475
0,-1638.62,-891.34,-3025.59,87.33,1.2000162822252562
0,-1640.05,-893.94,-3026.88,84.55,1.205016350067858
0,-1631.94,-886.94,-3023.1,86.23,1.2100164179104667
0,-1632.22,-885.86,-3022.71,89.94,1.2150164857530683
0,-1628.71,-882.2,-3021.34,92.67,1.220016553595677
0,-1627.97,-882.24,-3022.35,90.92,1.2250166214382787
0,-1628.48,-879.83,-3017.96,91.79,1.2300166892808875
0,-1628.96,-877.72,-3014.61,100.21,1.2350167571234891
0,-1628.45,-880.23,-3016.49,95.41,1.2400168249660979
0,-1633.85,-885.92,-3020.3,92.99,1.2450168928086995
0,-1635.08,-877.73,-3020.52,88.52,1.2500169606513083
0,-1637.11,-891.46,-3029.85,85.12,1.25501702849391
0,-1642.55,-887.13,-3025.15,82.47,1.2600170963365187
0,-1633.1,-891.02,-3022.27,87.4,1.2650171641791204
0,-1636.31,-896.04,-3026.44,89.97,1.2700172320217291
0,-1634.62,-898.21,-3022.4,98.46,1.2750172998643308
0,-1642.49,-901.98,-3035.93,76.29,1.2800173677069395
0,-1640.96,-902.98,-3039.18,80.87,1.2850174355495412
0,-1639.86,-897.05,-3037.66,85.01,1.29001750339215
0,-1640.4,-901.42,-3036.68,79.57,1.2950175712347516
0,-1639.19,-894.34,-3030.4,82.21,1.3000176390773603
0,-1641.58,-896.26,-3029.88,82.31,1.305017706919962
0,-1642.44,-896.58,-3032.74,80.01,1.3100177747625708
0,-1639.58,-898.7,-3036.08,79.39,1.3150178426051724
0,-1634.98,-900.6,-3029.98,79.47,1.3200179104477812
0,-1637.1,-894.29,-3032.8,82.31,1.3250179782903828
0,-1640.53,-896.13,-3031.26,78.11,1.3300180461329916
0,-1646.44,-896.06,-3031.84,75.84,1.3350181139755932
0,-1642.13,-890.08,-3029.07,78.92,1.340018181818202
0,-1637.35,-888.8,-3026.91,83.83,1.3450182496608036
0,-1630.53,-888.73,-3023.27,83.4,1.3500183175034124
0,-1639.2,-897.49,-3027.61,80.21,1.355018385346014
0,-1644.75,-899.06,-3030.85,84.18,1.3600184531886228
0,-1643.69,-897.87,-3029.46,85.69,1.3650185210312245
0,-1645.62,-896.49,-3035.38,78.82,1.3700185888738332
0,-1642.24,-898.23,-3030.63,83.1,1.3750186567164349
0,-1643.65,-900.43,-3033.48,82.11,1.3800187245590436
0,-1635.98,-899.1,-3030.22,86.86,1.3850187924016453
0,-1639.9,-898.47,-3026.33,92.18,1.390018860244254
0,-1641.81,-893.36,-3028.44,85.22,1.3950189280868557
0,-1634.89,-896.72,-3030.52,86.2,1.4000189959294644
0,-1636.31,-891.46,-3026.71,87.93,1.405019063772066
0,-1642.51,-890.73,-3028.3,83.23,1.4100191316146748
0,-1633.93,-887.82,-3025.19,86.74,1.4150191994572765
0,-1627.91,-888.19,-3018.41,96.0,1.4200192672998853
0,-1627.86,-880.7,-3022.96,94.9,1.425019335142487
0,-1632.94,-885.6,-3022.01,95.22,1.4300194029850957
0,-1630.54,-891.41,-3021.29,91.57,1.4350194708276973
0,-1625.56,-881.51,-3014.68,99.17,1.440019538670306
0,-1633.0,-889.83,-3021.12,92.49,1.4450196065129077
0,-1629.62,-886.23,-3021.62,93.77,1.4500196743555165
0,-1636.45,-885.44,-3026.8,88.17,1.4550197421981181
0,-1640.07,-879.9,-3024.83,87.13,1.460019810040727
0,-1635.35,-883.82,-3025.55,89.45,1.4650198778833285
0,-1632.72,-879.47,-3021.94,100.15,1.4700199457259373
0,-1632.2,-881.4,-3021.68,94.15,1.475020013568539
0,-1630.97,-881.02,-3019.56,96.3,1.4800200814111477
0,-1628.82,-888.32,-3022.44,93.75,1.4850201492537494
0,-1638.51,-894.31,-3025.13,90.3,1.4900202170963581
0,-1635.81,-891.2,-3025.6,88.92,1.4950202849389598
0,-1634.47,-887.93,-3022.86,89.91,1.5000203527815685
0,-1633.65,-891.31,-3026.97,82.39,1.5050204206241702
0,-1635.43,-888.43,-3023.87,85.6,1.510020488466779
0,-1627.92,-883.74,-3020.17,86.95,1.5150205563093806
0,-1622.77,-878.72,-3015.28,91.9,1.5200206241519894
0,-1631.09,-886.13,-3023.72,87.71,1.525020691994591
0,-1629.21,-881.62,-3022.58,93.64,1.5300207598371998
0,-1632.83,-885.27,-3024.57,95.15,1.5350208276798014
0,-1630.99,-884.01,-3019.88,88.6,1.5400208955224102
0,-1639.59,-896.67,-3028.87,82.64,1.5450209633650118
0,-1636.06,-889.37,-3025.87,85.57,1.5500210312076206
0,-1635.03,-882.33,-3023.61,89.26,1.5550210990502222
0,-1631.93,-879.68,-3021.78,94.09,1.560021166892831
0,-1635.51,-891.28,-3025.74,82.54,1.5650212347354326
0,-1635.21,-888.27,-3026.23,85.56,1.5700213025780414
0,-1643.45,-890.56,-3027.1,85.92,1.575021370420643
0,-1633.2,-892.27,-3023.03,85.62,1.5800214382632518
0,-1624.67,-883.62,-3021.4,94.05,1.5850215061058535
0,-1630.16,-884.99,-3015.77,96.64,1.5900215739484622
0,-1629.67,-890.3,-3020.66,96.02,1.5950216417910639
0,-1634.6,-894.31,-3024.59,86.17,1.6000217096336726
0,-1633.64,-889.78,-3023.38,87.23,1.6050217774762743
0,-1630.03,-883.49,-3017.33,89.27,1.610021845318883
0,-1630.27,-883.42,-3021.74,89.07,1.6150219131614847
0,-1635.41,-883.42,-3019.73,83.08,1.6200219810040934
0,-1625.04,-880.28,-3013.73,90.69,1.625022048846695
0,-1628.22,-891.85,-3022.83,88.87,1.6300221166893039
0,-1635.36,-893.82,-3027.15,85.46,1.6350221845319055
0,-1635.51,-887.7,-3023.85,95.86,1.6400222523745143
0,-1636.39,-885.22,-3021.54,90.24,1.645022320217116
0,-1635.83,-882.75,-3021.37,86.95,1.6500223880597247
0,-1629.48,-881.71,-3019.84,88.24,1.6550224559023263
0,-1632.19,-886.19,-3023.58,88.45,1.660022523744935
0,-1635.66,-882.35,-3027.26,93.28,1.6650225915875367
0,-1639.41,-888.2,-3028.2,83.81,1.6700226594301455
0,-1638.92,-893.22,-3032.16,86.44,1.6750227272727471
0,-1636.71,-891.97,-3028.09,86.35,1.680022795115356
0,-1634.65,-887.95,-3025.35,89.58,1.6850228629579576
0,-1636.1,-894.4,-3026.91,88.0,1.6900229308005663
0,-1636.66,-886.6,-3027.27,89.39,1.695022998643168
0,-1640.56,-890.97,-3028.58,88.45,1.7000230664857767
0,-1642.29,-889.19,-3027.55,87.26,1.7050231343283784
0,-1637.3,-887.52,-3029.51,88.1,1.7100232021709871
0,-1627.41,-878.86,-3022.94,96.46,1.7150232700135888
0,-1637.68,-890.07,-3027.24,96.18,1.7200233378561975
0,-1638.51,-888.49,-3028.63,91.48,1.7250234056987992
0,-1627.71,-882.83,-3019.83,91.84,1.730023473541408
0,-1625.41,-883.39,-3016.16,98.86,1.7350235413840096
0,-1634.97,-885.04,-3019.12,95.13,1.7400236092266184
0,-1632.01,-887.99,-3021.9,89.02,1.74502367706922
0,-1630.01,-885.02,-3018.18,93.73,1.7500237449118288
0,-1628.2,-879.72,-3015.51,93.12,1.7550238127544304
0,-1630.44,-877.42,-3011.7,93.66,1.7600238805970392
0,-1629.48,-880.62,-3014.66,92.61,1.7650239484396408
0,-1631.03,-882.8,-3017.49,91.81,1.7700240162822496
0,-1629.07,-883.33,-3022.52,90.92,1.7750240841248512
0,-1633.06,-885.13,-3020.58,83.7,1.78002415196746
0,-1630.67,-880.34,-3017.41,90.35,1.7850242198100617
0,-1637.63,-885.95,-3023.4,87.39,1.7900242876526704
0,-1640.77,-883.76,-3022.53,91.24,1.795024355495272
0,-1637.37,-886.26,-3029.02,82.7,1.8000244233378808
0,-1636.44,-882.55,-3022.31,86.64,1.8050244911804825
0,-1633.48,-882.93,-3022.08,85.15,1.8100245590230912
0,-1629.54,-876.5,-3018.27,95.15,1.8150246268656929
0,-1627.34,-878.11,-3020.67,90.57,1.8200246947083016
0,-1626.34,-877.78,-3019.1,90.67,1.8250247625509033
0,-1634.81,-890.54,-3028.58,83.38,1.830024830393512
0,-1634.98,-891.76,-3031.77,83.61,1.8350248982361137
0,-1637.48,-895.27,-3031.8,85.1,1.8400249660787225
0,-1638.16,-890.25,-3026.55,87.33,1.845025033921324
0,-1642.14,-885.83,-3023.47,87.04,1.8500251017639329
0,-1642.49,-891.47,-3029.27,84.35,1.8550251696065345
0,-1640.08,-894.21,-3032.72,82.53,1.8600252374491433
0,-1637.01,-886.98,-3029.98,84.42,1.865025305291745
0,-1639.56,-888.89,-3027.47,82.55,1.8700253731343537
0,-1642.6,-898.15,-3033.59,79.57,1.8750254409769553
0,-1642.83,-894.58,-3037.24,76.82,1.880025508819564
0,-1643.86,-892.18,-3036.96,80.94,1.8850255766621657
0,-1636.45,-892.35,-3030.59,82.25,1.8900256445047745
0,-1634.51,-892.35,-3027.87,90.52,1.8950257123473762
0,-1629.67,-885.1,-3016.86,102.52,1.900025780189985
0,-1642.05,-898.89,-3037.94,79.38,1.9050258480325866
0,-1647.4,-905.0,-3041.79,72.82,1.9100259158751953
0,-1646.55,-899.74,-3040.53,75.93,1.915025983717797
0,-1643.2,-895.95,-3033.31,82.54,1.9200260515604057
0,-1634.53,-897.2,-3033.22,77.54,1.9250261194030074
0,-1638.68,-896.57,-3029.93,78.72,1.9300261872456161
0,-1642.09,-898.59,-3036.84,72.29,1.9350262550882178
0,-1643.27,-899.97,-3033.19,81.11,1.9400263229308266
0,-1641.0,-896.23,-3033.12,81.62,1.9450263907734282
0,-1638.81,-896.42,-3028.4,82.25,1.950026458616037
0,-1642.86,-901.39,-3037.36,74.47,1.9550265264586386
0,-1649.17,-903.31,-3037.87,81.27,1.9600265943012474
0,-1652.21,-908.14,-3039.82,77.61,1.965026662143849
0,-1652.79,-904.99,-3041.18,76.16,1.9700267299864578
0,-1639.93,-897.4,-3034.39,83.09,1.9750267978290594
0,-1638.96,-893.68,-3027.27,79.43,1.9800268656716682
0,-1634.51,-888.59,-3023.84,90.52,1.9850269335142698
0,-1636.15,-888.93,-3024.46,89.67,1.9900270013568786
0,-1638.19,-896.21,-3027.39,86.46,1.9950270691994803
0,-1640.65,-896.69,-3030.64,86.51,2.000027137042089
0,-1635.19,-892.44,-3021.87,88.09,2.0050272048846907
0,-1633.65,-885.58,-3019.86,91.99,2.0100272727272994
0,-1627.99,-879.74,-3014.07,97.33,2.015027340569901
0,-1629.33,-877.4,-3013.49,99.0,2.02002740841251
0,-1624.54,-869.99,-3009.01,102.18,2.0250274762551115
0,-1631.92,-880.16,-3011.67,96.1,2.0300275440977202
0,-1628.76,-875.09,-3017.16,98.2,2.035027611940322
0,-1632.3,-884.22,-3020.0,93.87,2.0400276797829306
0,-1630.76,-884.72,-3020.82,93.25,2.0450277476255323
0,-1633.83,-886.46,-3020.1,86.33,2.050027815468141
0,-1631.05,-879.69,-3017.25,94.1,2.0550278833107427
0,-1636.93,-880.52,-3021.55,98.1,2.0600279511533515
0,-1635.43,-886.43,-3024.86,92.52,2.065028018995953
0,-1632.97,-887.3,-3021.55,91.81,2.070028086838562
0,-1632.92,-887.33,-3027.0,88.32,2.0750281546811635
0,-1631.08,-886.02,-3019.33,93.01,2.0800282225237723
0,-1630.84,-885.46,-3024.96,84.93,2.085028290366381
0,-1635.52,-886.19,-3030.08,84.0,2.0900283582089827
0,-1637.63,-888.76,-3028.58,86.56,2.0950284260515915
0,-1635.1,-893.28,-3025.26,92.15,2.100028493894193
0,-1641.95,-895.49,-3032.39,89.01,2.105028561736802
0,-1637.37,-882.22,-3025.95,93.45,2.1100286295794035
0,-1631.67,-881.47,-3021.3,91.78,2.1150286974220123
0,-1636.78,-889.07,-3023.31,85.59,2.120028765264614
0,-1643.48,-891.89,-3031.6,82.13,2.1250288331072227
0,-1636.16,-890.52,-3031.09,87.39,2.1300289009498243
0,-1628.84,-882.88,-3022.88,99.59,2.135028968792433
0,-1631.12,-880.82,-3024.2,92.1,2.1400290366350347
0,-1630.83,-881.01,-3020.45,95.47,2.1450291044776435
0,-1634.11,-884.87,-3022.0,90.41,2.150029172320245
0,-1633.07,-879.76,-3021.47,91.95,2.155029240162854
0,-1632.02,-880.58,-3022.62,93.12,2.1600293080054556
0,-1635.07,-886.46,-3027.09,87.3,2.1650293758480643
0,-1636.51,-886.43,-3023.07,94.35,2.170029443690666
0,-1637.35,-892.63,-3026.22,87.26,2.1750295115332747
0,-1638.0,-894.8,-3030.04,86.77,2.1800295793758764
0,-1639.68,-892.49,-3031.71,84.24,2.185029647218485
0,-1640.45,-894.95,-3032.06,86.24,2.190029715061087
0,-1648.04,-898.41,-3033.98,78.27,2.1950297829036955
0,-1644.15,-894.08,-3034.41,81.22,2.200029850746297
0,-1641.73,-891.01,-3032.88,83.53,2.205029918588906
0,-1643.06,-894.25,-3031.97,87.18,2.2100299864315076
0,-1636.66,-891.22,-3030.76,83.91,2.2150300542741164
0,-1639.48,-893.86,-3033.71,84.56,2.220030122116718
0,-1645.51,-903.58,-3039.97,77.34,2.2250301899593268
0,-1646.42,-901.29,-3042.88,77.82,2.2300302578019284
0,-1648.77,-900.75,-3042.49,78.17,2.235030325644537
0,-1642.15,-891.53,-3032.6,81.9,2.240030393487139
0,-1642.52,-891.5,-3034.42,77.41,2.2450304613297476
0,-1645.49,-895.09,-3037.01,71.05,2.2500305291723492
0,-1643.24,-892.66,-3033.0,79.52,2.255030597014958
0,-1636.84,-892.36,-3028.9,85.4,2.2600306648575597
0,-1634.7,-893.7,-3030.68,84.89,2.2650307327001684
0,-1637.48,-896.33,-3027.28,90.12,2.27003080054277
0,-1635.66,-890.68,-3024.4,99.5,2.275030868385379
0,-1629.69,-887.62,-3022.25,99.63,2.2800309362279805
0,-1633.51,-888.24,-3021.17,98.38,2.2850310040705892
0,-1628.51,-884.33,-3019.16,97.05,2.290031071913191
0,-1640.83,-888.17,-3025.84,87.83,2.2950311397557996
0,-1630.9,-888.44,-3020.65,91.21,2.3000312075984013
0,-1632.9,-886.04,-3021.16,91.21,2.30503127544101
0,-1629.76,-879.55,-3015.28,102.49,2.3100313432836117
0,-1638.72,-891.57,-3026.71,75.91,2.3150314111262205
0,-1637.55,-887.07,-3029.92,78.21,2.320031478968822
0,-1630.49,-886.03,-3020.82,85.31,2.325031546811431
0,-1637.72,-885.04,-3022.72,89.71,2.3300316146540325
0,-1636.76,-878.48,-3023.15,90.58,2.3350316824966413
0,-1633.36,-883.72,-3015.96,96.31,2.340031750339243
0,-1629.46,-880.43,-3011.61,99.65,2.3450318181818517
0,-1620.9,-876.81,-3009.57,100.36,2.3500318860244533
0,-1627.84,-883.41,-3017.06,97.19,2.355031953867062
0,-1629.3,-877.3,-3017.18,98.72,2.3600320217096638
0,-1628.47,-882.6,-3014.08,98.12,2.3650320895522725
0,-1636.67,-891.98,-3026.13,88.11,2.370032157394874
0,-1634.62,-888.38,-3023.94,89.5,2.375032225237483
0,-1638.58,-889.24,-3029.59,89.83,2.3800322930800846
0,-1628.27,-889.71,-3024.94,89.58,2.3850323609226933
0,-1633.55,-886.88,-3025.97,89.44,2.390032428765295
0,-1639.09,-888.57,-3026.82,87.89,2.3950324966079037
0,-1640.2,-892.35,-3032.05,83.25,2.4000325644505054
0,-1633.8,-885.57,-3028.27,89.93,2.405032632293114
0,-1638.02,-888.14,-3031.15,88.18,2.410032700135716
0,-1639.77,-892.19,-3033.55,82.91,2.4150327679783246
0,-1637.86,-889.98,-3032.92,86.32,2.420032835820926
0,-1640.59,-894.29,-3032.68,83.15,2.425032903663535
0,-1645.74,-898.27,-3034.6,85.92,2.4300329715061366
0,-1646.06,-888.22,-3033.87,85.14,2.4350330393487454
0,-1644.39,-893.35,-3028.82,83.39,2.440033107191347
0,-1641.56,-889.3,-3025.76,86.57,2.445033175033956
0,-1639.44,-891.38,-3028.71,85.93,2.4500332428765574
0,-1641.59,-889.66,-3028.83,82.91,2.455033310719166
0,-1635.95,-884.22,-3024.25,84.27,2.460033378561768
0,-1631.31,-881.95,-3022.5,86.77,2.4650334464043766
0,-1628.55,-883.66,-3018.44,88.22,2.4700335142469783
0,-1632.21,-877.66,-3018.66,88.63,2.475033582089587
0,-1635.83,-885.87,-3024.0,84.34,2.4800336499321887
0,-1632.61,-888.62,-3019.19,88.56,2.4850337177747974
0,-1633.92,-890.3,-3024.1,84.76,2.490033785617399
0,-1631.59,-882.35,-3020.73,82.35,2.495033853460008
0,-1629.58,-880.55,-3018.72,90.76,2.5000339213026095
0,-1633.95,-882.14,-3016.27,94.8,2.5050339891452182
0,-1633.79,-882.69,-3019.65,91.91,2.51003405698782
0,-1635.49,-886.88,-3021.39,88.46,2.5150341248304287
0,-1634.28,-883.92,-3021.83,96.41,2.5200341926730303
0,-1628.79,-881.18,-3022.24,94.63,2.525034260515639
0,-1630.3,-880.22,-3021.59,90.76,2.5300343283582407
0,-1633.42,-883.19,-3020.23,92.45,2.5350343962008495
1,-1631.23,-881.72,-3020.35,94.22,2.540034464043451
0,-1636.36,-885.68,-3021.72,93.24,2.54503453188606
0,-1635.18,-888.04,-3028.28,87.94,2.5500345997286615
0,-1638.47,-891.79,-3030.72,84.95,2.5550346675712703
0,-1634.14,-891.34,-3029.67,84.64,2.560034735413872
0,-1634.9,-894.28,-3027.87,85.12,2.5650348032564807
0,-1638.87,-894.3,-3034.56,79.94,2.5700348710990824
0,-1635.94,-896.01,-3031.89,77.74,2.575034938941691
0,-1632.11,-892.08,-3027.3,82.34,2.5800350067842928
0,-1635.74,-898.82,-3030.02,78.92,2.5850350746269015
0,-1634.48,-890.03,-3026.55,84.78,2.590035142469503
0,-1634.67,-887.38,-3020.54,92.18,2.595035210312112
0,-1633.49,-882.37,-3018.75,97.88,2.6000352781547136
0,-1629.18,-890.8,-3015.18,98.68,2.6050353459973223
0,-1629.95,-883.22,-3018.92,99.47,2.610035413839924
0,-1627.21,-877.87,-3010.63,101.14,2.6150354816825327
0,-1625.58,-875.48,-3012.51,104.84,2.6200355495251344
0,-1624.03,-875.71,-3012.06,100.82,2.625035617367743
0,-1626.17,-884.12,-3010.98,103.81,2.630035685210345
0,-1628.68,-884.38,-3013.94,101.83,2.6350357530529536
0,-1629.27,-881.61,-3011.51,100.28,2.640035820895555
0,-1626.86,-885.57,-3016.45,101.57,2.645035888738164
0,-1627.51,-881.38,-3017.28,93.81,2.6500359565807656
0,-1627.5,-879.77,-3014.99,103.12,2.6550360244233744
0,-1628.45,-885.99,-3015.83,105.29,2.660036092265976
0,-1632.42,-892.59,-3025.62,83.95,2.665036160108585
0,-1634.03,-887.85,-3020.41,90.91,2.6700362279511864
0,-1625.67,-885.8,-3016.86,92.45,2.675036295793795
0,-1632.92,-884.4,-3025.3,86.44,2.680036363636397
0,-1631.96,-885.02,-3019.9,88.32,2.6850364314790056
0,-1628.81,-887.18,-3020.55,88.33,2.6900364993216073
0,-1628.74,-884.57,-3019.79,91.32,2.695036567164216
0,-1634.84,-881.33,-3020.62,87.55,2.7000366350068177
0,-1635.95,-889.2,-3023.77,89.01,2.7050367028494264
0,-1635.23,-888.09,-3023.77,88.37,2.710036770692028
0,-1637.72,-886.6,-3026.57,87.97,2.715036838534637
0,-1633.33,-888.02,-3023.68,87.81,2.7200369063772385
0,-1630.23,-885.63,-3021.56,92.2,2.7250369742198473
0,-1631.7,-886.27,-3018.09,95.59,2.730037042062449
0,-1629.64,-879.94,-3020.16,99.09,2.7350371099050577
0,-1635.04,-883.21,-3023.7,97.24,2.7400371777476593
0,-1638.63,-890.18,-3025.77,95.69,2.745037245590268
0,-1637.26,-887.49,-3027.0,93.25,2.7500373134328697
0,-1638.56,-889.21,-3029.79,93.23,2.7550373812754785
0,-1635.99,-889.92,-3029.5,93.98,2.76003744911808
0,-1634.32,-886.31,-3026.94,92.42,2.765037516960689
0,-1636.55,-886.26,-3023.85,93.84,2.7700375848032905
0,-1639.11,-887.21,-3026.49,97.41,2.7750376526458993
0,-1636.86,-890.22,-3023.03,95.14,2.780037720488501
0,-1628.61,-888.47,-3020.79,93.79,2.7850377883311097
0,-1638.28,-883.93,-3023.66,96.11,2.7900378561737114
0,-1634.97,-880.85,-3017.24,100.39,2.79503792401632
0,-1628.88,-879.08,-3017.31,99.01,2.8000379918589218
0,-1624.86,-876.32,-3015.48,103.33,2.8050380597015305
0,-1623.86,-879.23,-3016.07,104.24,2.810038127544132
0,-1628.49,-878.37,-3016.35,100.62,2.815038195386741
0,-1628.24,-879.3,-3020.24,99.69,2.8200382632293426
0,-1632.58,-885.96,-3019.69,96.27,2.8250383310719513
0,-1631.34,-882.39,-3018.33,97.45,2.830038398914553
0,-1630.99,-881.81,-3018.65,100.55,2.8350384667571618
0,-1630.14,-877.92,-3021.23,95.07,2.8400385345997634
0,-1630.24,-884.81,-3017.76,95.42,2.845038602442372
0,-1631.24,-881.71,-3020.31,93.42,2.850038670284974
0,-1631.31,-881.46,-3017.93,91.88,2.8550387381275826
0,-1625.58,-886.34,-3021.6,90.47,2.8600388059701842
0,-1622.08,-873.37,-3012.39,101.97,2.865038873812793
0,-1624.9,-880.09,-3015.2,99.75,2.8700389416553946
0,-1630.79,-879.52,-3013.49,95.29,2.8750390094980034
0,-1630.08,-880.86,-3016.55,93.78,2.880039077340605
0,-1638.32,-888.75,-3024.42,88.73,2.885039145183214
0,-1632.43,-881.57,-3017.39,93.0,2.8900392130258155
0,-1634.43,-887.39,-3028.47,89.4,2.895039280868424
0,-1628.32,-884.96,-3024.39,91.87,2.900039348711026
0,-1639.2,-891.1,-3028.93,82.35,2.9050394165536346
0,-1646.4,-898.87,-3034.64,77.02,2.9100394843962363
0,-1646.4,-902.02,-3038.7,73.53,2.915039552238845
0,-1639.21,-895.86,-3033.25,80.59,2.9200396200814467
0,-1639.8,-894.26,-3032.45,76.89,2.9250396879240554
0,-1643.54,-895.69,-3033.87,74.96,2.930039755766657
0,-1651.31,-904.29,-3041.13,73.66,2.935039823609266
0,-1643.55,-897.42,-3035.04,79.8,2.9400398914518675
0,-1639.1,-895.19,-3030.23,83.76,2.9450399592944763
0,-1636.44,-894.69,-3026.81,85.85,2.950040027137078
0,-1638.03,-896.78,-3031.91,82.97,2.9550400949796867
0,-1638.03,-893.67,-3028.64,87.16,2.9600401628222883
0,-1641.28,-893.15,-3029.64,90.04,2.965040230664897
0,-1640.82,-892.35,-3028.47,89.05,2.9700402985074987
0,-1644.98,-892.11,-3032.86,86.57,2.9750403663501075
0,-1642.05,-893.03,-3028.72,89.25,2.980040434192709
0,-1636.34,-888.71,-3022.31,91.0,2.985040502035318
0,-1639.12,-881.73,-3018.91,89.24,2.9900405698779196
0,-1633.17,-879.44,-3022.11,88.96,2.9950406377205283
0,-1626.29,-884.41,-3022.36,93.83,3.00004070556313
0,-1629.93,-886.17,-3022.45,91.02,3.0050407734057387
0,-1632.13,-890.32,-3022.93,94.01,3.0100408412483404
0,-1637.16,-888.61,-3024.45,87.52,3.015040909090949
0,-1635.86,-886.1,-3027.31,83.2,3.020040976933551
0,-1628.46,-884.49,-3023.08,94.19,3.0250410447761595
0,-1632.24,-886.44,-3021.56,95.06,3.030041112618761
0,-1634.33,-890.73,-3026.36,90.77,3.03504118046137
0,-1635.91,-885.86,-3022.08,89.84,3.0400412483039716
0,-1631.96,-884.96,-3022.97,90.69,3.0450413161465804
0,-1632.34,-886.59,-3023.97,88.69,3.050041383989182
0,-1629.62,-878.47,-3018.77,92.7,3.0550414518317908
0,-1626.48,-881.8,-3018.51,95.05,3.0600415196743924
0,-1628.66,-882.48,-3015.55,91.31,3.065041587517001
0,-1628.41,-878.9,-3017.92,90.31,3.070041655359603
0,-1636.75,-887.58,-3024.63,83.18,3.0750417232022116
0,-1638.78,-890.58,-3028.3,84.59,3.0800417910448132
0,-1637.45,-893.4,-3027.34,82.82,3.085041858887422
0,-1629.4,-887.21,-3027.12,85.31,3.0900419267300236
0,-1644.08,-890.02,-3029.47,82.7,3.0950419945726324
0,-1642.48,-886.93,-3027.34,81.47,3.100042062415234
0,-1641.97,-890.38,-3029.1,85.19,3.105042130257843
0,-1637.55,-892.21,-3031.06,84.44,3.1100421981004445
0,-1640.55,-895.92,-3034.92,80.45,3.1150422659430532
0,-1637.87,-891.03,-3025.8,85.32,3.120042333785655
0,-1637.23,-896.53,-3029.43,87.14,3.1250424016282636
0,-1634.82,-892.65,-3031.22,90.32,3.1300424694708653
0,-1639.31,-887.93,-3025.42,89.05,3.135042537313474
0,-1627.07,-880.54,-3013.57,107.03,3.1400426051560757
0,-1635.51,-892.87,-3031.18,89.26,3.1450426729986845
0,-1638.19,-894.02,-3031.06,76.32,3.150042740841286
0,-1635.06,-887.98,-3023.55,89.48,3.155042808683895
0,-1632.3,-886.35,-3020.46,92.15,3.1600428765264965
0,-1633.89,-891.0,-3027.22,84.48,3.1650429443691053
0,-1629.32,-887.29,-3026.59,90.04,3.170043012211707
0,-1631.53,-889.98,-3025.07,91.47,3.1750430800543157
0,-1632.15,-888.5,-3026.73,84.67,3.1800431478969173
0,-1637.08,-889.62,-3031.02,85.58,3.185043215739526
0,-1634.42,-890.42,-3027.64,89.05,3.1900432835821277
0,-1634.14,-887.94,-3024.93,89.34,3.1950433514247365
0,-1632.32,-888.51,-3025.77,88.51,3.200043419267338
0,-1637.12,-889.67,-3027.42,85.95,3.205043487109947
0,-1629.35,-893.07,-3025.8,84.09,3.2100435549525486
0,-1635.09,-890.41,-3028.1,85.63,3.2150436227951573
0,-1639.47,-892.01,-3029.78,81.42,3.220043690637759
0,-1638.96,-895.6,-3031.5,83.73,3.2250437584803677
0,-1633.59,-889.54,-3026.35,91.59,3.2300438263229694
0,-1634.88,-895.24,-3028.76,83.93,3.235043894165578
0,-1636.89,-890.08,-3022.38,86.51,3.24004396200818
0,-1637.9,-889.38,-3027.61,87.44,3.2450440298507885
0,-1634.75,-888.99,-3023.71,89.02,3.25004409769339
0,-1640.16,-891.36,-3027.71,84.84,3.255044165535999
0,-1635.41,-897.17,-3027.84,78.94,3.2600442333786006
0,-1636.12,-898.77,-3033.73,74.74,3.2650443012212094
0,-1642.01,-900.33,-3032.23,77.31,3.270044369063811
0,-1642.28,-903.61,-3036.61,75.12,3.2750444369064198
0,-1637.17,-895.33,-3029.11,86.33,3.2800445047490214
0,-1638.06,-897.61,-3028.13,82.97,3.28504457259163
0,-1637.57,-885.23,-3019.83,89.8,3.290044640434232
0,-1630.15,-886.73,-3020.96,86.57,3.2950447082768406
0,-1634.8,-889.97,-3022.6,81.18,3.3000447761194494
0,-1638.05,-889.79,-3024.0,81.33,3.305044843962051
0,-1632.56,-886.86,-3019.75,88.89,3.3100449118046598
0,-1631.45,-885.79,-3024.12,88.63,3.3150449796472614
0,-1636.13,-887.1,-3021.76,93.26,3.32004504748987
0,-1636.28,-891.23,-3028.17,92.53,3.325045115332472
0,-1632.55,-893.56,-3024.17,90.67,3.3300451831750806
0,-1638.22,-889.53,-3023.84,87.56,3.3350452510176822
0,-1634.04,-881.63,-3019.44,95.69,3.340045318860291
0,-1634.33,-890.52,-3022.48,88.34,3.3450453867028926
0,-1637.57,-886.86,-3026.18,89.97,3.3500454545455014
0,-1634.33,-885.47,-3025.32,91.2,3.355045522388103
0,-1631.53,-888.93,-3024.79,90.13,3.360045590230712
0,-1632.08,-886.45,-3022.46,92.28,3.3650456580733135
0,-1631.94,-883.92,-3019.69,93.44,3.370045725915922
0,-1629.52,-888.25,-3020.75,87.7,3.375045793758524
0,-1628.93,-888.47,-3023.22,83.02,3.3800458616011326
0,-1635.96,-886.19,-3023.48,87.72,3.3850459294437343
0,-1634.99,-887.35,-3025.39,89.93,3.390045997286343
0,-1632.73,-884.07,-3023.03,89.98,3.3950460651289447
0,-1633.39,-886.33,-3017.66,95.36,3.4000461329715534
0,-1630.18,-889.38,-3019.63,95.63,3.405046200814155
0,-1637.15,-887.34,-3028.33,87.16,3.410046268656764
0,-1637.37,-883.19,-3027.19,84.99,3.4150463364993655
0,-1630.85,-878.52,-3020.37,91.49,3.4200464043419743
0,-1624.99,-877.84,-3011.45,92.34,3.425046472184576
0,-1625.37,-882.49,-3018.65,85.32,3.4300465400271847
0,-1622.44,-876.93,-3014.62,88.31,3.4350466078697863
0,-1624.47,-876.18,-3015.36,91.61,3.440046675712395
0,-1621.36,-872.8,-3011.91,96.15,3.4450467435549967
0,-1623.89,-877.3,-3013.9,99.09,3.4500468113976055
0,-1631.26,-887.6,-3016.95,88.63,3.455046879240207
0,-1637.45,-888.3,-3024.42,87.22,3.460046947082816
0,-1639.57,-888.91,-3024.38,86.01,3.4650470149254176
0,-1639.79,-889.46,-3025.21,89.96,3.4700470827680263
0,-1637.52,-888.62,-3025.69,88.47,3.475047150610628
0,-1634.62,-890.67,-3024.4,95.45,3.4800472184532367
0,-1634.87,-889.27,-3023.14,89.49,3.4850472862958384
0,-1640.87,-890.3,-3029.35,86.82,3.490047354138447
0,-1644.87,-892.4,-3029.9,91.0,3.495047421981049
0,-1637.83,-891.11,-3032.7,87.41,3.5000474898236575
0,-1634.72,-891.58,-3026.01,90.69,3.505047557666259
0,-1631.92,-886.03,-3020.33,94.93,3.510047625508868
0,-1635.19,-882.77,-3023.57,96.3,3.5150476933514696
0,-1633.95,-892.95,-3025.06,91.43,3.5200477611940784
0,-1635.91,-885.39,-3026.78,92.45,3.52504782903668
0,-1638.58,-891.78,-3027.77,87.33,3.5300478968792888
0,-1634.46,-888.08,-3027.98,89.12,3.5350479647218904
0,-1628.16,-885.4,-3024.39,98.88,3.540048032564499
0,-1628.59,-891.7,-3024.09,89.0,3.545048100407101
0,-1630.46,-892.01,-3024.81,91.85,3.5500481682497096
0,-1632.03,-884.67,-3023.32,97.99,3.5550482360923112
0,-1634.87,-883.79,-3017.47,98.96,3.56004830393492
0,-1629.75,-884.73,-3015.23,97.37,3.5650483717775217
0,-1631.25,-881.24,-3015.7,98.94,3.5700484396201304
0,-1631.09,-880.21,-3015.9,91.15,3.575048507462732
0,-1624.32,-878.6,-3010.79,99.15,3.580048575305341
0,-1624.05,-877.19,-3014.53,99.19,3.5850486431479425
0,-1623.3,-873.58,-3007.0,101.69,3.5900487109905512
0,-1623.31,-874.78,-3010.0,100.87,3.595048778833153
0,-1618.57,-872.81,-3006.97,99.73,3.6000488466757616
0,-1630.13,-879.26,-3016.06,95.02,3.6050489145183633
0,-1633.62,-883.83,-3021.53,89.84,3.610048982360972
0,-1631.92,-887.59,-3028.02,86.83,3.6150490502035737
0,-1636.44,-890.7,-3025.95,84.54,3.6200491180461825
0,-1632.66,-890.96,-3024.05,91.5,3.625049185888784
0,-1627.2,-891.75,-3023.1,85.16,3.630049253731393
0,-1632.13,-890.21,-3024.35,88.11,3.6350493215739945
0,-1639.65,-892.25,-3029.54,79.0,3.6400493894166033
0,-1636.15,-883.35,-3026.66,88.15,3.645049457259205
0,-1634.37,-889.42,-3023.79,86.97,3.6500495251018137
0,-1635.18,-893.62,-3026.44,88.23,3.6550495929444153
0,-1635.35,-890.78,-3027.48,86.17,3.660049660787024
0,-1632.71,-890.7,-3024.33,88.23,3.6650497286296257
0,-1633.16,-886.04,-3022.4,95.17,3.6700497964722345
0,-1642.68,-892.94,-3028.95,83.86,3.675049864314836
0,-1635.87,-887.01,-3024.27,88.65,3.680049932157445
0,-1632.3,-888.85,-3024.97,82.2,3.6850500000000466
0,-1634.37,-886.37,-3026.66,85.13,3.6900500678426553
0,-1633.25,-883.38,-3021.67,89.49,3.695050135685257
0,-1634.83,-882.08,-3021.44,98.25,3.7000502035278657
0,-1635.57,-889.19,-3023.22,94.04,3.7050502713704674
0,-1630.84,-882.39,-3018.57,89.85,3.710050339213076
0,-1635.89,-888.4,-3027.8,91.98,3.715050407055678
0,-1632.16,-890.4,-3025.34,87.51,3.7200504748982866
0,-1634.93,-891.08,-3026.77,92.05,3.725050542740888
0,-1637.73,-891.03,-3030.58,86.42,3.730050610583497
0,-1635.12,-886.88,-3025.4,88.35,3.7350506784260986
0,-1633.72,-890.09,-3026.4,86.03,3.7400507462687074
0,-1639.68,-889.89,-3029.05,83.28,3.745050814111309
0,-1632.95,-887.73,-3021.88,94.8,3.750050881953918
0,-1631.73,-884.22,-3023.3,91.13,3.7550509497965194
0,-1632.3,-881.9,-3024.08,90.7,3.760051017639128
0,-1635.92,-891.98,-3030.86,85.6,3.76505108548173
0,-1636.46,-893.41,-3027.74,91.37,3.7700511533243386
0,-1632.85,-883.39,-3018.94,110.27,3.7750512211669403
0,-1643.22,-890.38,-3031.5,85.48,3.780051289009549
0,-1641.5,-890.46,-3027.85,87.64,3.7850513568521507
0,-1648.1,-894.6,-3029.57,84.77,3.7900514246947594
0,-1646.83,-895.54,-3037.48,78.65,3.795051492537361
0,-1650.41,-901.41,-3041.01,68.39,3.80005156037997
0,-1653.74,-907.91,-3041.64,67.07,3.8050516282225715
0,-1653.17,-903.11,-3040.27,73.46,3.8100516960651802
0,-1646.6,-897.26,-3036.53,77.58,3.815051763907782
0,-1646.28,-893.61,-3031.72,81.99,3.8200518317503906
0,-1649.18,-897.25,-3031.89,82.0,3.8250518995929923
0,-1643.49,-894.75,-3033.6,85.94,3.830051967435601
0,-1642.24,-891.56,-3031.43,87.99,3.8350520352782027
0,-1639.97,-891.51,-3025.79,87.07,3.8400521031208115
0,-1641.55,-885.95,-3030.98,87.03,3.845052170963413
0,-1643.28,-888.09,-3025.24,88.84,3.850052238806022
0,-1633.06,-886.6,-3025.99,92.51,3.8550523066486235
0,-1634.13,-889.6,-3022.5,91.38,3.8600523744912323
0,-1631.34,-887.82,-3025.31,91.9,3.865052442333834
0,-1638.69,-891.55,-3028.91,85.4,3.8700525101764427
0,-1640.65,-883.72,-3021.6,82.98,3.8750525780190443
0,-1646.13,-896.13,-3034.24,75.41,3.880052645861653
0,-1641.32,-894.41,-3033.71,82.57,3.8850527137042548
0,-1642.73,-896.77,-3031.93,82.92,3.8900527815468635
0,-1639.82,-892.07,-3029.34,82.84,3.895052849389465
0,-1634.67,-884.76,-3026.92,84.75,3.900052917232074
0,-1637.02,-884.96,-3022.63,87.46,3.9050529850746756
0,-1633.63,-891.71,-3027.03,86.56,3.9100530529172843
0,-1631.25,-885.94,-3018.15,89.4,3.915053120759886
0,-1631.92,-881.13,-3022.04,89.48,3.9200531886024947
0,-1631.33,-879.97,-3021.19,93.16,3.9250532564450964
0,-1633.32,-886.98,-3025.3,90.6,3.930053324287705
0,-1632.46,-888.44,-3022.13,97.0,3.935053392130307
0,-1631.81,-883.14,-3018.02,96.04,3.9400534599729156
0,-1634.67,-888.94,-3017.93,97.65,3.945053527815517
0,-1635.3,-887.5,-3024.38,90.59,3.950053595658126
0,-1636.32,-889.61,-3024.92,90.21,3.9550536635007276
0,-1638.5,-895.76,-3024.17,82.82,3.9600537313433364
0,-1633.27,-890.6,-3029.15,84.57,3.965053799185938
0,-1640.75,-896.71,-3029.11,82.62,3.970053867028547
0,-1641.65,-897.92,-3029.86,82.78,3.9750539348711484
0,-1642.24,-900.39,-3033.19,73.37,3.980054002713757
0,-1651.18,-908.73,-3040.39,73.54,3.985054070556359
0,-1644.94,-903.02,-3038.58,75.81,3.9900541383989676
0,-1635.13,-894.71,-3027.82,88.02,3.9950542062415693
0,-1639.63,-896.03,-3028.07,88.23,4.000054274084178
0,-1639.36,-893.86,-3029.37,88.85,4.00505434192678
0,-1640.77,-891.2,-3022.92,85.84,4.010054409769388
0,-1636.6,-893.33,-3027.18,86.16,4.01505447761199
0,-1638.29,-892.04,-3028.05,85.22,4.020054545454599
0,-1636.77,-895.07,-3026.81,86.13,4.0250546132972005
0,-1633.42,-891.78,-3026.17,90.01,4.030054681139809
0,-1633.06,-889.82,-3023.84,90.76,4.035054748982411
0,-1633.54,-884.09,-3017.84,92.96,4.04005481682502
0,-1636.34,-888.33,-3027.3,85.32,4.045054884667621
0,-1639.6,-892.29,-3026.22,89.44,4.05005495251023
0,-1642.15,-890.36,-3030.51,89.11,4.055055020352832
0,-1642.17,-890.21,-3028.24,85.98,4.0600550881954405
0,-1639.59,-888.1,-3033.64,83.84,4.065055156038042
0,-1637.15,-885.26,-3030.6,85.03,4.070055223880651
0,-1638.01,-888.31,-3027.58,83.93,4.0750552917232525
0,-1640.0,-888.21,-3031.14,91.6,4.080055359565861
0,-1646.22,-893.65,-3032.81,89.54,4.085055427408463
0,-1643.83,-892.34,-3032.13,88.01,4.090055495251072
0,-1634.89,-892.16,-3025.91,97.51,4.095055563093673
0,-1630.01,-887.77,-3021.38,101.7,4.100055630936282
0,-1639.91,-892.8,-3030.07,84.69,4.105055698778884
0,-1637.18,-892.47,-3033.56,77.62,4.1100557666214925
0,-1643.13,-893.08,-3034.57,83.5,4.115055834464094
0,-1640.79,-895.79,-3031.84,79.42,4.120055902306703
0,-1637.41,-890.82,-3026.02,82.68,4.125055970149305
0,-1635.14,-885.91,-3022.19,79.05,4.130056037991913
0,-1634.25,-888.62,-3026.53,85.83,4.135056105834515
0,-1627.6,-882.19,-3015.27,91.94,4.140056173677124
0,-1628.63,-885.51,-3020.15,91.43,4.145056241519725
0,-1634.91,-888.01,-3018.49,88.57,4.150056309362334
0,-1635.32,-885.62,-3022.29,83.58,4.155056377204936
0,-1636.34,-885.53,-3025.75,80.27,4.160056445047545
0,-1633.53,-883.16,-3018.23,86.45,4.165056512890146
0,-1631.89,-884.28,-3024.85,87.65,4.170056580732755
0,-1621.44,-881.31,-3017.35,94.99,4.175056648575357
0,-1626.38,-875.87,-3013.69,98.58,4.180056716417965
0,-1625.02,-871.72,-3010.14,100.08,4.185056784260567
0,-1632.4,-880.59,-3017.33,96.32,4.190056852103176
0,-1630.56,-889.42,-3023.06,88.31,4.1950569199457775
0,-1644.75,-898.75,-3035.14,81.14,4.200056987788386
0,-1646.16,-902.39,-3041.06,82.07,4.205057055630988
0,-1647.41,-896.35,-3032.37,89.32,4.210057123473597
0,-1643.55,-894.14,-3031.03,86.11,4.215057191316198
0,-1637.67,-895.29,-3032.97,83.23,4.220057259158807
0,-1640.65,-901.27,-3039.58,81.14,4.225057327001409
0,-1638.75,-897.73,-3030.65,86.33,4.230057394844017
0,-1649.39,-906.02,-3041.22,79.48,4.235057462686619
0,-1644.5,-895.19,-3035.35,83.47,4.240057530529228
0,-1644.48,-899.07,-3038.82,78.6,4.2450575983718295
0,-1643.87,-894.67,-3037.42,79.87,4.250057666214438
0,-1641.84,-891.03,-3030.79,79.72,4.25505773405704
0,-1634.48,-889.23,-3024.56,85.83,4.260057801899649
0,-1638.67,-891.7,-3025.04,87.19,4.26505786974225
0,-1637.82,-894.17,-3029.47,84.88,4.270057937584859
0,-1643.35,-895.93,-3030.38,79.04,4.275058005427461
0,-1637.81,-894.17,-3028.0,84.82,4.2800580732700695
0,-1640.95,-891.11,-3026.65,86.22,4.285058141112671
0,-1643.41,-889.72,-3028.76,85.4,4.29005820895528
0,-1635.14,-882.4,-3020.92,94.18,4.2950582767978815
0,-1637.23,-882.59,-3019.5,85.33,4.30005834464049
0,-1634.63,-889.04,-3025.16,83.64,4.305058412483092
0,-1635.67,-888.45,-3023.0,81.26,4.310058480325701
0,-1635.75,-887.72,-3026.76,82.96,4.315058548168302
0,-1643.07,-890.95,-3026.22,89.86,4.320058616010911
0,-1636.81,-889.83,-3024.76,89.68,4.325058683853513
0,-1631.37,-890.78,-3021.97,87.24,4.3300587516961215
0,-1629.19,-886.88,-3019.35,90.86,4.335058819538723
0,-1639.61,-887.56,-3025.86,84.21,4.340058887381332
0,-1634.84,-883.92,-3025.74,90.04,4.345058955223934
0,-1631.28,-881.98,-3023.95,91.3,4.350059023066542
0,-1630.79,-880.98,-3022.01,91.34,4.355059090909144
0,-1633.94,-883.07,-3024.44,91.83,4.360059158751753
0,-1630.88,-880.81,-3021.42,93.27,4.365059226594354
0,-1632.61,-883.39,-3021.81,91.47,4.370059294436963
0,-1634.58,-887.6,-3025.68,94.64,4.375059362279565
0,-1634.7,-886.34,-3027.78,83.78,4.380059430122174
0,-1631.07,-888.19,-3023.7,76.98,4.385059497964775
0,-1635.78,-890.52,-3031.11,79.09,4.390059565807384
0,-1634.41,-887.15,-3026.8,88.42,4.395059633649986
0,-1632.42,-888.66,-3022.77,87.81,4.400059701492594
0,-1641.9,-897.09,-3032.36,82.29,4.405059769335196
0,-1640.8,-897.27,-3033.63,80.35,4.410059837177805
0,-1638.29,-891.51,-3029.2,83.12,4.4150599050204065
0,-1642.05,-897.01,-3033.93,83.55,4.420059972863015
0,-1634.84,-892.53,-3027.51,85.47,4.425060040705617
0,-1635.5,-895.62,-3025.94,86.4,4.430060108548226
0,-1632.68,-891.07,-3028.04,84.78,4.435060176390827
0,-1632.06,-889.66,-3028.71,84.18,4.440060244233436
0,-1636.99,-889.6,-3027.94,87.82,4.445060312076038
0,-1638.17,-884.99,-3027.15,85.11,4.4500603799186464
0,-1637.16,-891.01,-3028.44,88.32,4.455060447761248
0,-1637.7,-892.73,-3028.04,87.19,4.460060515603857
0,-1637.76,-890.27,-3028.93,90.81,4.4650605834464585
0,-1637.98,-889.39,-3028.48,86.29,4.470060651289067
0,-1637.19,-887.78,-3027.24,90.21,4.475060719131669
0,-1632.69,-891.33,-3028.63,88.1,4.480060786974278
0,-1632.97,-889.05,-3026.01,93.62,4.485060854816879
0,-1633.68,-886.06,-3022.98,94.91,4.490060922659488
0,-1634.42,-891.09,-3027.75,88.91,4.49506099050209
0,-1640.39,-887.99,-3024.81,96.58,4.5000610583446985
0,-1639.0,-889.58,-3021.84,94.52,4.5050611261873
0,-1629.51,-884.39,-3017.92,95.32,4.510061194029909
0,-1626.27,-879.09,-3020.01,95.48,4.515061261872511
0,-1623.29,-874.41,-3011.97,100.26,4.520061329715119
0,-1624.46,-875.59,-3012.42,99.42,4.525061397557728
0,-1625.99,-880.54,-3008.64,102.39,4.53006146540033
0,-1627.99,-879.3,-3014.0,93.64,4.5350615332429385
0,-1629.41,-876.26,-3016.98,97.28,4.54006160108554
0,-1626.96,-880.03,-3016.7,93.73,4.545061668928149
0,-1626.7,-880.3,-3020.68,95.82,4.5500617367707505
0,-1631.22,-880.04,-3016.98,98.6,4.555061804613359
0,-1632.5,-881.09,-3020.09,98.62,4.560061872455961
0,-1634.47,-886.1,-3025.51,86.04,4.56506194029857
0,-1632.7,-888.1,-3020.98,86.8,4.570062008141171
0,-1632.38,-891.84,-3024.36,87.64,4.57506207598378
0,-1642.29,-896.55,-3025.4,82.39,4.580062143826382
0,-1644.6,-892.49,-3026.73,85.89,4.5850622116689905
0,-1647.23,-901.98,-3032.54,77.1,4.590062279511592
0,-1646.17,-892.41,-3034.23,78.1,4.595062347354201
0,-1641.07,-889.13,-3024.96,87.12,4.600062415196803
0,-1634.99,-890.37,-3023.18,88.57,4.605062483039411
0,-1637.78,-892.24,-3027.84,88.03,4.610062550882013
0,-1637.7,-892.89,-3029.4,86.99,4.615062618724622
0,-1639.82,-895.25,-3033.82,83.34,4.620062686567223
0,-1640.27,-890.93,-3029.11,89.21,4.625062754409832
0,-1640.07,-891.29,-3029.97,86.74,4.630062822252434
0,-1636.13,-890.8,-3031.59,83.85,4.635062890095043
0,-1638.74,-891.23,-3028.77,91.46,4.640062957937644
0,-1640.42,-895.2,-3033.05,90.78,4.645063025780253
0,-1642.02,-893.42,-3032.97,82.19,4.650063093622855
0,-1640.21,-893.84,-3031.66,77.94,4.655063161465463
0,-1636.4,-888.78,-3025.38,87.68,4.660063229308065
0,-1636.91,-897.57,-3030.07,85.95,4.665063297150674
0,-1637.26,-893.12,-3024.56,86.71,4.6700633649932755
0,-1634.61,-891.39,-3025.92,84.86,4.675063432835884
0,-1635.71,-892.26,-3027.02,86.94,4.680063500678486
0,-1639.77,-896.05,-3029.55,80.86,4.685063568521095
0,-1633.67,-884.51,-3024.28,91.28,4.690063636363696
0,-1632.77,-886.31,-3022.18,89.07,4.695063704206305
0,-1635.62,-892.77,-3028.56,87.57,4.700063772048907
0,-1641.25,-898.14,-3032.8,79.89,4.705063839891515
0,-1640.38,-893.92,-3029.12,86.29,4.710063907734117
0,-1638.76,-896.84,-3029.8,89.32,4.715063975576726
0,-1641.72,-898.54,-3034.93,84.89,4.7200640434193275
0,-1641.99,-897.53,-3030.2,85.3,4.725064111261936
0,-1635.99,-884.71,-3023.93,87.72,4.730064179104538
0,-1638.6,-888.08,-3027.04,90.4,4.735064246947147
0,-1636.15,-884.5,-3025.01,87.89,4.740064314789748
0,-1636.97,-885.09,-3026.72,90.57,4.745064382632357
0,-1635.56,-894.08,-3028.67,87.12,4.750064450474959
0,-1631.6,-885.55,-3021.55,93.67,4.7550645183175675
0,-1632.33,-886.17,-3023.84,90.0,4.760064586160169
0,-1633.65,-888.38,-3026.68,87.12,4.765064654002778
0,-1630.58,-885.35,-3017.92,98.58,4.7700647218453796
0,-1636.2,-885.56,-3021.74,95.63,4.775064789687988
0,-1640.15,-889.54,-3028.09,81.31,4.78006485753059
0,-1637.52,-888.9,-3025.37,81.93,4.785064925373199
0,-1633.01,-888.38,-3022.12,85.65,4.7900649932158
0,-1630.37,-889.61,-3023.96,91.46,4.795065061058409
0,-1630.14,-890.94,-3021.26,91.15,4.800065128901011
0,-1627.67,-885.39,-3017.39,91.89,4.8050651967436195
0,-1627.79,-881.06,-3011.7,98.2,4.810065264586221
0,-1627.22,-878.55,-3013.74,101.53,4.81506533242883
0,-1623.29,-875.74,-3013.03,107.68,4.820065400271432
0,-1622.44,-872.62,-3008.2,110.94,4.82506546811404
0,-1631.25,-879.91,-3012.69,105.82,4.830065535956642
0,-1633.7,-889.98,-3023.61,98.21,4.835065603799251
0,-1633.7,-889.27,-3023.55,98.16,4.840065671641852
0,-1642.32,-892.3,-3029.69,85.77,4.845065739484461
0,-1646.61,-898.6,-3034.98,82.13,4.850065807327063
0,-1652.16,-901.07,-3039.98,73.61,4.855065875169672
0,-1648.54,-895.66,-3036.88,80.53,4.860065943012273
0,-1651.33,-902.75,-3039.22,75.52,4.865066010854882
0,-1650.55,-901.09,-3042.06,75.92,4.870066078697484
0,-1642.87,-893.58,-3034.47,78.39,4.875066146540092
0,-1638.29,-893.22,-3029.31,87.05,4.880066214382694
0,-1641.66,-895.67,-3030.46,89.39,4.885066282225303
0,-1642.66,-892.02,-3028.43,86.32,4.8900663500679045
0,-1635.95,-886.51,-3027.06,90.08,4.895066417910513
0,-1634.17,-884.53,-3027.23,88.43,4.900066485753115
0,-1633.32,-884.92,-3020.75,92.91,4.905066553595724
0,-1629.66,-883.75,-3020.01,93.26,4.910066621438325
0,-1625.79,-879.95,-3020.69,91.06,4.915066689280934
0,-1619.1,-883.64,-3020.42,93.13,4.920066757123536
0,-1626.24,-880.93,-3018.98,88.44,4.9250668249661445
0,-1630.92,-883.65,-3022.01,86.66,4.930066892808746
0,-1630.23,-882.58,-3022.09,90.72,4.935066960651355
0,-1627.92,-881.0,-3018.57,84.91,4.9400670284939565
0,-1618.43,-876.51,-3015.68,91.11,4.945067096336565
0,-1630.25,-884.75,-3024.13,89.27,4.950067164179167
0,-1638.79,-887.74,-3023.72,84.0,4.955067232021776
0,-1633.13,-879.95,-3022.01,86.96,4.960067299864377
0,-1631.25,-879.53,-3022.96,89.26,4.965067367706986
0,-1628.29,-885.05,-3022.08,91.84,4.970067435549588
0,-1626.57,-875.77,-3016.99,97.7,4.9750675033921965
0,-1625.2,-879.34,-3021.03,93.76,4.980067571234798
0,-1624.46,-876.4,-3016.93,94.59,4.985067639077407
0,-1622.14,-876.99,-3011.54,95.16,4.990067706920009
0,-1610.45,-866.53,-3008.9,95.97,4.995067774762617
0,-1603.11,-854.58,-2996.09,104.2,5.000067842605219
0,-1597.56,-846.98,-2988.89,108.24,5.005067910447828
0,-1576.99,-832.37,-2978.0,108.55,5.010067978290429
0,-1568.63,-824.14,-2967.2,114.44,5.015068046133038
0,-1559.88,-819.62,-2962.08,118.28,5.02006811397564
0,-1567.14,-825.91,-2968.32,112.44,5.0250681818182485
0,-1583.85,-830.02,-2978.51,108.96,5.03006824966085
0,-1585.95,-839.47,-2985.1,107.09,5.035068317503459
0,-1598.11,-847.38,-2991.18,103.59,5.040068385346061
0,-1597.15,-853.54,-2995.51,105.28,5.045068453188669
0,-1602.21,-856.08,-2996.45,106.12,5.050068521031271
0,-1606.68,-868.87,-3007.75,101.81,5.05506858887388
0,-1609.9,-868.64,-3002.35,104.61,5.060068656716481
0,-1623.83,-873.41,-3010.76,93.18,5.06506872455909
0,-1634.8,-890.71,-3021.05,85.57,5.070068792401692
0,-1641.68,-892.58,-3028.16,83.49,5.075068860244301
0,-1637.63,-899.74,-3033.51,77.87,5.080068928086902
0,-1648.94,-902.8,-3037.17,75.11,5.085068995929511
0,-1654.96,-904.27,-3039.7,76.53,5.090069063772113
0,-1653.36,-898.42,-3038.04,83.65,5.095069131614721
0,-1655.74,-900.78,-3040.83,86.37,5.100069199457323
0,-1662.64,-907.93,-3043.07,80.19,5.105069267299932
0,-1667.55,-914.14,-3049.31,74.33,5.1100693351425335
0,-1666.0,-919.17,-3054.59,70.98,5.115069402985142
0,-1662.03,-913.76,-3047.77,75.88,5.120069470827744
0,-1667.41,-916.07,-3048.26,78.89,5.125069538670353
0,-1662.88,-916.82,-3050.46,79.5,5.130069606512954
0,-1655.0,-912.81,-3045.55,80.26,5.135069674355563
0,-1656.92,-911.6,-3046.67,79.38,5.140069742198165
0,-1663.82,-912.92,-3050.96,76.66,5.1450698100407735
0,-1656.68,-905.2,-3045.45,86.49,5.150069877883375
0,-1657.68,-911.01,-3044.89,84.44,5.155069945725984
0,-1651.78,-908.47,-3043.16,83.63,5.1600700135685855
0,-1654.69,-912.65,-3047.65,80.07,5.165070081411194
0,-1661.84,-910.41,-3047.78,73.58,5.170070149253796
0,-1652.48,-907.02,-3040.11,80.56,5.175070217096405
0,-1646.99,-897.93,-3035.67,82.72,5.180070284939006
0,-1648.93,-905.91,-3039.93,79.89,5.185070352781615
0,-1654.16,-903.84,-3037.98,77.78,5.190070420624217
0,-1651.35,-899.58,-3037.74,76.73,5.1950704884668255
0,-1647.55,-902.84,-3038.59,78.07,5.200070556309427
0,-1644.19,-899.03,-3035.56,78.59,5.205070624152036
0,-1641.65,-896.9,-3029.62,81.63,5.210070691994638
0,-1645.0,-892.31,-3034.19,78.12,5.215070759837246
0,-1647.59,-900.45,-3033.6,76.83,5.220070827679848
0,-1648.02,-904.12,-3034.03,77.93,5.225070895522457
0,-1646.14,-900.25,-3032.48,78.21,5.230070963365058
0,-1647.03,-901.3,-3037.4,78.46,5.235071031207667
0,-1644.72,-903.4,-3032.28,81.44,5.240071099050269
0,-1640.77,-901.02,-3031.64,82.93,5.245071166892878
0,-1640.71,-904.18,-3035.36,83.81,5.250071234735479
0,-1641.46,-897.99,-3031.0,90.45,5.255071302578088
0,-1637.03,-895.83,-3024.96,86.09,5.26007137042069
0,-1636.52,-893.07,-3021.6,89.93,5.265071438263298
0,-1636.18,-886.59,-3022.15,97.4,5.2700715061059
0,-1634.07,-886.16,-3021.46,94.44,5.275071573948509
0,-1638.23,-884.76,-3024.14,94.16,5.28007164179111
0,-1635.35,-887.54,-3022.42,100.36,5.285071709633719
0,-1632.33,-889.57,-3021.39,97.1,5.290071777476321
0,-1639.3,-894.99,-3024.03,93.16,5.29507184531893
0,-1634.37,-887.42,-3022.57,96.1,5.300071913161531
0,-1632.18,-882.91,-3024.25,96.01,5.30507198100414
0,-1626.19,-882.62,-3016.92,101.13,5.310072048846742
0,-1632.36,-879.92,-3021.11,94.52,5.31507211668935
0,-1631.7,-883.45,-3018.65,95.47,5.320072184531952
0,-1630.42,-882.14,-3016.74,92.67,5.325072252374561
0,-1632.94,-879.21,-3016.9,95.33,5.3300723202171625
0,-1632.04,-887.95,-3023.63,89.28,5.335072388059771
0,-1638.9,-885.88,-3025.7,88.45,5.340072455902373
0,-1634.13,-889.49,-3027.46,88.39,5.345072523744982
0,-1640.32,-889.86,-3028.78,90.0,5.350072591587583
0,-1638.31,-887.04,-3024.77,89.09,5.355072659430192
0,-1634.21,-884.1,-3021.01,88.9,5.360072727272794
0,-1639.0,-891.27,-3021.5,87.44,5.3650727951154025
0,-1634.64,-894.04,-3026.94,87.58,5.370072862958004
0,-1642.9,-899.04,-3031.88,89.13,5.375072930800613
0,-1637.59,-901.61,-3035.85,80.95,5.3800729986432145
0,-1641.18,-893.79,-3024.8,89.08,5.385073066485823
0,-1638.66,-893.29,-3028.48,90.63,5.390073134328425
0,-1633.8,-885.02,-3022.99,90.77,5.395073202171034
0,-1638.45,-882.04,-3024.95,83.27,5.400073270013635
0,-1635.08,-892.71,-3026.26,82.59,5.405073337856244
0,-1640.45,-901.03,-3035.53,85.08,5.410073405698846
0,-1645.12,-904.2,-3039.09,80.36,5.4150734735414545
0,-1646.2,-900.84,-3037.63,82.96,5.420073541384056
0,-1633.39,-892.92,-3029.4,97.04,5.425073609226665
0,-1642.77,-894.7,-3025.9,92.19,5.430073677069267
0,-1638.71,-898.72,-3030.84,84.24,5.435073744911875
0,-1638.78,-901.32,-3037.73,76.6,5.440073812754477
0,-1640.8,-896.35,-3040.82,80.99,5.445073880597086
0,-1633.93,-891.98,-3031.99,82.72,5.450073948439687
0,-1636.57,-891.23,-3025.8,83.1,5.455074016282296
0,-1634.41,-884.17,-3022.63,91.65,5.460074084124898
0,-1637.16,-891.39,-3022.36,84.01,5.465074151967507
0,-1624.99,-885.22,-3016.55,96.65,5.470074219810108
0,-1632.3,-892.53,-3020.69,93.38,5.475074287652717
0,-1634.35,-887.53,-3020.81,91.4,5.480074355495319
0,-1634.38,-886.44,-3022.25,92.4,5.485074423337927
0,-1639.06,-890.62,-3022.25,88.43,5.490074491180529
0,-1644.66,-893.47,-3029.96,83.15,5.495074559023138
0,-1645.34,-895.42,-3031.86,87.07,5.5000746268657394
0,-1638.39,-889.55,-3029.74,93.63,5.505074694708348
0,-1641.06,-897.99,-3030.42,84.92,5.51007476255095
0,-1640.42,-895.62,-3031.73,85.19,5.515074830393559
0,-1639.32,-896.57,-3030.63,86.09,5.52007489823616
0,-1640.28,-886.69,-3023.87,90.73,5.525074966078769
0,-1637.45,-888.1,-3026.19,84.32,5.530075033921371
0,-1635.25,-899.71,-3035.45,80.85,5.535075101763979
0,-1637.72,-898.22,-3035.85,84.53,5.540075169606581
0,-1641.09,-897.74,-3034.83,82.05,5.54507523744919
0,-1635.42,-892.01,-3030.84,86.72,5.5500753052917915
0,-1634.48,-885.3,-3025.36,91.01,5.5550753731344
0,-1634.19,-889.87,-3027.05,88.04,5.560075440977002
0,-1633.56,-888.31,-3023.16,86.75,5.565075508819611
0,-1631.81,-886.58,-3026.84,88.13,5.570075576662212
0,-1633.75,-884.01,-3021.52,93.24,5.575075644504821
0,-1632.95,-882.6,-3020.87,91.59,5.580075712347423
0,-1634.24,-887.25,-3021.33,93.22,5.5850757801900315
0,-1635.94,-890.24,-3025.05,92.18,5.590075848032633
0,-1635.19,-889.16,-3023.94,92.8,5.595075915875242
0,-1631.47,-879.7,-3019.03,94.65,5.6000759837178435
0,-1630.96,-887.98,-3019.12,96.38,5.605076051560452
0,-1634.9,-891.4,-3029.55,88.26,5.610076119403054
0,-1638.77,-884.16,-3020.9,93.86,5.615076187245663
0,-1639.7,-889.07,-3026.56,90.01,5.620076255088264
0,-1634.73,-894.89,-3026.82,88.67,5.625076322930873
0,-1641.72,-893.9,-3027.45,88.04,5.630076390773475
0,-1638.09,-887.45,-3026.24,84.41,5.6350764586160835
0,-1636.03,-888.3,-3021.69,81.54,5.640076526458685
0,-1631.16,-886.03,-3023.76,89.24,5.645076594301294
0,-1641.98,-886.94,-3026.3,83.9,5.650076662143896
0,-1641.49,-890.47,-3022.72,88.74,5.655076729986504
0,-1639.4,-888.55,-3025.0,87.27,5.660076797829106
0,-1637.33,-891.06,-3025.21,89.51,5.665076865671715
0,-1637.33,-887.08,-3019.94,93.32,5.670076933514316
0,-1628.52,-886.49,-3018.55,95.94,5.675077001356925
0,-1633.49,-886.6,-3022.36,93.19,5.680077069199527
0,-1634.26,-886.47,-3028.3,90.36,5.685077137042136
0,-1632.66,-884.59,-3023.39,90.43,5.690077204884737
0,-1632.59,-887.61,-3023.8,87.3,5.695077272727346
0,-1630.28,-888.71,-3024.33,86.82,5.700077340569948
0,-1634.92,-892.08,-3029.06,81.16,5.705077408412556
0,-1644.59,-890.08,-3030.78,78.21,5.710077476255158
0,-1647.07,-888.92,-3033.59,79.41,5.715077544097767
0,-1636.43,-888.21,-3028.34,86.23,5.7200776119403685
0,-1646.84,-894.52,-3035.28,79.02,5.725077679782977
0,-1644.91,-895.71,-3031.89,83.03,5.730077747625579
0,-1641.77,-889.95,-3029.91,82.93,5.735077815468188
0,-1641.5,-889.35,-3027.67,83.25,5.740077883310796
0,-1630.48,-889.58,-3025.48,87.72,5.745077951153398
0,-1634.42,-890.46,-3028.03,87.3,5.750078018996007
0,-1638.04,-896.0,-3032.72,87.43,5.755078086838608
0,-1638.59,-891.09,-3028.85,87.75,5.760078154681217
0,-1646.08,-896.41,-3034.59,80.64,5.765078222523819
0,-1640.34,-890.07,-3033.74,87.49,5.770078290366428
0,-1635.78,-888.71,-3028.79,84.3,5.775078358209029
0,-1637.52,-893.71,-3031.67,81.03,5.780078426051638
0,-1635.17,-881.83,-3021.79,89.5,5.78507849389424
0,-1632.32,-882.86,-3017.99,95.69,5.790078561736848
0,-1625.29,-875.1,-3015.22,99.83,5.79507862957945
0,-1631.36,-882.57,-3014.87,97.31,5.800078697422059
0,-1629.21,-885.92,-3019.44,98.73,5.8050787652646605
0,-1631.8,-887.04,-3018.21,96.53,5.810078833107269
0,-1632.71,-887.18,-3024.92,91.71,5.815078900949871
0,-1629.46,-883.74,-3020.62,91.31,5.82007896879248
0,-1629.74,-879.9,-3018.19,93.51,5.825079036635081
0,-1638.34,-886.1,-3024.13,83.52,5.83007910447769
0,-1636.38,-886.91,-3022.11,86.9,5.835079172320292
0,-1640.66,-885.95,-3021.61,87.42,5.8400792401629005
0,-1639.66,-893.19,-3022.59,86.93,5.845079308005502
0,-1639.43,-890.1,-3024.95,92.31,5.850079375848111
0,-1636.15,-884.78,-3020.08,93.08,5.8550794436907125
0,-1628.33,-883.49,-3019.35,92.41,5.860079511533321
0,-1627.98,-886.39,-3019.38,92.76,5.865079579375923
0,-1634.18,-890.54,-3021.7,92.98,5.870079647218532
0,-1629.8,-890.74,-3023.07,91.29,5.875079715061133
0,-1628.72,-889.67,-3021.61,82.69,5.880079782903742
0,-1629.14,-887.04,-3021.0,88.89,5.885079850746344
0,-1633.11,-883.16,-3019.04,98.75,5.8900799185889525
0,-1633.45,-887.33,-3024.55,96.31,5.895079986431554
0,-1636.17,-888.72,-3019.88,91.58,5.900080054274163
0,-1631.05,-887.47,-3020.89,88.53,5.905080122116765
0,-1629.31,-888.9,-3021.21,92.99,5.910080189959373
0,-1624.67,-887.31,-3015.18,96.76,5.915080257801975
0,-1626.25,-885.9,-3020.85,95.41,5.920080325644584
0,-1631.02,-886.59,-3021.01,94.46,5.925080393487185
0,-1636.49,-890.78,-3025.34,90.07,5.930080461329794
0,-1636.6,-890.71,-3026.12,94.28,5.935080529172396
0,-1639.7,-887.06,-3023.19,90.83,5.940080597015005
0,-1639.35,-885.96,-3023.39,90.06,5.945080664857606
0,-1634.89,-886.0,-3019.48,84.81,5.950080732700215
0,-1631.95,-887.95,-3022.54,87.44,5.955080800542817
0,-1639.45,-887.53,-3025.05,86.92,5.960080868385425
0,-1639.81,-896.27,-3032.73,76.27,5.965080936228027
0,-1643.57,-896.15,-3030.78,85.14,5.970081004070636
0,-1644.0,-893.76,-3030.25,81.56,5.9750810719132375
0,-1643.24,-902.07,-3035.05,76.4,5.980081139755846
0,-1645.74,-897.92,-3035.29,76.71,5.985081207598448
0,-1643.77,-898.13,-3032.7,76.64,5.990081275441057
0,-1642.63,-896.63,-3028.61,78.22,5.995081343283658
0,-1644.09,-893.61,-3035.13,78.15,6.000081411126267
0,-1648.64,-895.65,-3032.76,77.04,6.005081478968869
0,-1642.95,-893.11,-3029.66,82.72,6.010081546811477
0,-1630.72,-888.49,-3028.48,96.8,6.015081614654079
0,-1639.06,-897.93,-3036.3,88.41,6.020081682496688
0,-1633.87,-889.63,-3026.13,87.76,6.0250817503392895
0,-1634.61,-889.36,-3020.79,90.06,6.030081818181898
0,-1633.36,-884.97,-3020.37,92.64,6.0350818860245
0,-1626.71,-877.06,-3016.45,93.13,6.040081953867109
0,-1621.99,-879.14,-3015.44,100.61,6.04508202170971
0,-1626.36,-874.01,-3011.86,97.41,6.050082089552319
0,-1624.55,-880.95,-3016.74,91.31,6.055082157394921
0,-1626.88,-879.98,-3015.79,94.63,6.0600822252375295
0,-1630.77,-888.77,-3027.46,87.45,6.065082293080131
0,-1638.67,-889.92,-3028.78,86.94,6.07008236092274
0,-1636.95,-891.35,-3024.81,89.61,6.0750824287653415
0,-1627.86,-882.69,-3020.59,88.21,6.08008249660795
0,-1637.56,-879.22,-3022.05,88.43,6.085082564450552
0,-1641.34,-886.3,-3024.68,88.95,6.090082632293161
0,-1644.46,-894.95,-3030.02,83.94,6.095082700135762
0,-1640.37,-894.92,-3030.74,89.72,6.100082767978371
0,-1633.35,-889.1,-3024.86,92.86,6.105082835820973
0,-1640.17,-886.14,-3026.76,87.02,6.1100829036635815
0,-1632.07,-893.01,-3022.8,86.57,6.115082971506183
0,-1635.63,-891.14,-3028.3,87.91,6.120083039348792
0,-1642.29,-898.22,-3032.87,84.12,6.125083107191394
0,-1644.44,-891.3,-3032.86,80.96,6.130083175034002
0,-1645.39,-889.23,-3037.12,84.17,6.135083242876604
0,-1638.59,-894.83,-3031.98,88.32,6.140083310719213
0,-1637.78,-891.05,-3027.43,91.99,6.145083378561814
0,-1636.06,-891.86,-3025.43,87.09,6.150083446404423
0,-1634.25,-885.31,-3022.93,90.11,6.155083514247025
0,-1630.07,-887.19,-3020.92,93.16,6.160083582089634
0,-1636.95,-886.96,-3026.0,87.38,6.165083649932235
0,-1637.08,-881.31,-3018.08,87.39,6.170083717774844
0,-1629.24,-882.32,-3013.25,91.36,6.175083785617446
0,-1633.12,-884.17,-3022.66,86.12,6.180083853460054
0,-1634.61,-878.47,-3021.27,90.65,6.185083921302656
0,-1630.98,-880.91,-3013.53,94.15,6.190083989145265
0,-1625.78,-882.89,-3016.85,93.09,6.1950840569878665
0,-1631.04,-891.01,-3026.78,92.5,6.200084124830475
0,-1630.29,-884.69,-3021.96,96.87,6.205084192673077
0,-1634.64,-888.14,-3021.15,95.55,6.210084260515686
0,-1631.57,-881.6,-3020.09,92.63,6.215084328358287
0,-1628.14,-885.48,-3009.71,110.95,6.220084396200896
0,-1631.13,-884.13,-3018.9,96.11,6.225084464043498
0,-1631.76,-889.26,-3025.66,82.26,6.2300845318861064
0,-1635.59,-894.1,-3032.27,87.34,6.235084599728708
0,-1634.61,-894.14,-3028.25,91.28,6.240084667571317
0,-1632.6,-891.0,-3030.44,87.53,6.2450847354139185
0,-1628.28,-889.06,-3026.84,88.02,6.250084803256527
0,-1635.87,-892.81,-3029.32,89.16,6.255084871099129
0,-1640.99,-901.16,-3038.6,78.01,6.260084938941738
0,-1643.7,-903.89,-3039.12,78.81,6.265085006784339
0,-1638.38,-894.04,-3031.83,81.83,6.270085074626948
0,-1638.36,-901.19,-3032.27,76.44,6.27508514246955
0,-1637.59,-901.12,-3034.57,83.49,6.2800852103121585
0,-1639.62,-891.74,-3033.82,87.46,6.28508527815476
0,-1639.43,-894.46,-3029.53,85.02,6.290085345997369
0,-1645.93,-899.38,-3036.36,78.36,6.295085413839971
0,-1649.54,-896.84,-3035.4,82.86,6.300085481682579
0,-1645.79,-895.12,-3036.25,79.36,6.305085549525181
0,-1647.82,-901.03,-3037.42,84.14,6.31008561736779
0,-1646.64,-900.25,-3035.21,86.29,6.315085685210391
0,-1639.6,-894.13,-3031.8,83.41,6.320085753053
0,-1637.16,-898.3,-3029.79,85.08,6.325085820895602
0,-1638.79,-888.63,-3028.88,91.61,6.3300858887382105
0,-1637.25,-885.39,-3023.08,93.73,6.335085956580812
0,-1632.69,-884.52,-3019.78,93.49,6.340086024423421
0,-1634.58,-882.18,-3019.4,93.47,6.345086092266023
0,-1640.87,-886.48,-3026.68,92.21,6.350086160108631
0,-1632.52,-882.75,-3019.69,93.02,6.355086227951233
0,-1633.65,-884.03,-3022.34,89.92,6.360086295793842
0,-1632.53,-882.31,-3016.76,89.23,6.365086363636443
0,-1631.43,-878.63,-3016.76,95.89,6.370086431479052
0,-1632.0,-882.69,-3023.56,87.88,6.375086499321654
0,-1635.09,-887.97,-3027.56,87.8,6.380086567164263
0,-1641.17,-891.68,-3029.1,84.82,6.385086635006864
0,-1635.85,-885.21,-3023.47,89.6,6.390086702849473
0,-1631.63,-884.58,-3023.57,89.28,6.395086770692075
0,-1631.04,-882.6,-3023.56,89.9,6.400086838534683
0,-1632.64,-882.03,-3019.52,92.86,6.405086906377285
0,-1629.42,-882.7,-3022.54,89.23,6.410086974219894
0,-1633.1,-886.84,-3023.95,84.53,6.4150870420624955
0,-1632.57,-888.53,-3019.74,92.13,6.420087109905104
0,-1633.54,-887.1,-3021.38,94.39,6.425087177747706
0,-1632.31,-891.77,-3022.44,91.75,6.430087245590315
0,-1637.64,-886.41,-3022.21,89.72,6.435087313432916
0,-1632.34,-886.95,-3022.77,85.63,6.440087381275525
0,-1632.6,-889.4,-3019.94,90.51,6.445087449118127
0,-1629.01,-886.6,-3021.72,95.71,6.4500875169607355
0,-1626.91,-889.68,-3016.06,96.97,6.455087584803337
0,-1632.89,-891.18,-3019.89,93.31,6.460087652645946
0,-1635.97,-890.3,-3028.69,88.15,6.4650877204885475
0,-1633.99,-891.57,-3027.17,92.17,6.470087788331156
0,-1637.57,-885.16,-3018.51,96.63,6.475087856173758
0,-1637.49,-886.53,-3022.84,95.94,6.480087924016367
0,-1642.38,-894.63,-3026.63,85.75,6.485087991858968
0,-1638.55,-895.21,-3028.84,84.69,6.490088059701577
0,-1637.53,-893.55,-3023.49,78.33,6.495088127544179
0,-1629.15,-887.42,-3023.32,83.41,6.5000881953867875
0,-1636.24,-890.03,-3027.83,80.56,6.505088263229389
0,-1644.38,-894.99,-3030.7,76.61,6.510088331071998
0,-1632.96,-891.75,-3030.48,87.41,6.5150883989146
0,-1640.06,-892.56,-3030.48,84.22,6.520088466757208
0,-1638.37,-889.94,-3025.55,82.89,6.52508853459981
0,-1634.05,-889.67,-3020.98,83.71,6.530088602442419
0,-1635.3,-892.97,-3026.72,89.25,6.53508867028502
0,-1634.35,-896.73,-3031.39,83.83,6.540088738127629
0,-1632.86,-891.56,-3027.67,92.23,6.545088805970231
0,-1636.6,-892.91,-3024.52,89.59,6.5500888738128396
0,-1631.54,-882.63,-3022.05,94.63,6.555088941655441
0,-1630.26,-881.15,-3018.86,95.64,6.56008900949805
0,-1625.32,-877.25,-3013.19,98.65,6.565089077340652
0,-1626.4,-880.76,-3014.57,95.51,6.57008914518326
0,-1627.39,-881.76,-3015.4,99.6,6.575089213025862
0,-1633.49,-888.23,-3022.49,89.03,6.580089280868471
0,-1629.9,-880.54,-3019.98,95.87,6.585089348711072
0,-1634.37,-891.26,-3023.29,94.81,6.590089416553681
0,-1636.41,-887.76,-3023.52,89.65,6.595089484396283
0,-1634.47,-883.19,-3020.35,92.81,6.600089552238892
0,-1629.47,-881.33,-3018.65,94.28,6.605089620081493
0,-1633.84,-892.61,-3021.31,90.26,6.610089687924102
0,-1632.22,-888.26,-3025.42,92.23,6.615089755766704
0,-1639.57,-882.92,-3026.28,87.45,6.620089823609312
0,-1634.93,-887.25,-3026.96,92.1,6.625089891451914
0,-1633.64,-891.08,-3023.11,94.05,6.630089959294523
0,-1634.73,-891.36,-3025.47,88.7,6.6350900271371245
0,-1641.05,-894.79,-3029.74,86.64,6.640090094979733
0,-1632.68,-886.87,-3028.19,87.73,6.645090162822335
0,-1631.86,-882.94,-3019.07,87.22,6.650090230664944
0,-1633.01,-883.71,-3018.98,86.98,6.655090298507545
0,-1634.76,-884.83,-3019.83,90.2,6.660090366350154
0,-1635.21,-885.9,-3023.6,89.3,6.665090434192756
0,-1634.92,-886.09,-3026.28,87.75,6.6700905020353645
0,-1635.05,-883.34,-3021.83,89.1,6.675090569877966
0,-1634.77,-887.8,-3026.09,86.07,6.680090637720575
0,-1633.44,-889.08,-3026.78,90.64,6.6850907055631765
0,-1632.63,-893.95,-3028.09,82.47,6.690090773405785
0,-1636.1,-891.06,-3025.17,86.06,6.695090841248387
0,-1637.3,-893.17,-3028.71,86.92,6.700090909090996
0,-1633.98,-891.77,-3026.11,90.19,6.705090976933597
0,-1632.4,-889.25,-3023.03,90.06,6.710091044776206
0,-1635.46,-889.02,-3024.74,87.87,6.715091112618808
0,-1639.02,-886.58,-3024.87,91.55,6.7200911804614165
0,-1643.81,-887.02,-3024.45,86.88,6.725091248304018
0,-1643.46,-897.06,-3038.41,83.58,6.730091316146627
0,-1639.43,-893.93,-3032.06,85.01,6.735091383989229
0,-1645.33,-894.95,-3032.15,86.32,6.740091451831837
0,-1636.02,-887.08,-3028.68,90.31,6.745091519674439
0,-1633.09,-891.69,-3029.47,91.81,6.750091587517048
0,-1635.29,-891.07,-3029.71,84.76,6.755091655359649
0,-1631.46,-888.65,-3019.57,86.97,6.760091723202258
0,-1636.3,-893.14,-3021.34,86.73,6.76509179104486
0,-1638.91,-885.04,-3021.86,93.7,6.770091858887469
0,-1634.04,-880.96,-3013.84,106.74,6.77509192673007
0,-1642.64,-890.73,-3026.06,87.56,6.780091994572679
0,-1646.13,-898.42,-3034.5,77.4,6.785092062415281
0,-1639.89,-899.56,-3035.66,83.63,6.790092130257889
0,-1641.41,-896.38,-3030.93,83.37,6.795092198100491
0,-1645.56,-892.28,-3030.56,82.83,6.8000922659431
0,-1644.03,-891.67,-3030.2,81.59,6.805092333785701
0,-1641.64,-890.33,-3029.05,90.02,6.81009240162831
0,-1636.23,-882.93,-3025.31,87.4,6.815092469470912
0,-1636.74,-886.16,-3021.9,90.08,6.820092537313521
0,-1638.18,-884.83,-3025.04,90.79,6.825092605156122
0,-1632.14,-884.39,-3023.33,94.0,6.830092672998731
0,-1636.64,-886.51,-3028.7,89.33,6.835092740841333
0,-1639.24,-891.96,-3032.97,82.24,6.840092808683941
0,-1642.87,-896.3,-3033.29,83.48,6.845092876526543
0,-1642.73,-897.03,-3036.04,85.02,6.850092944369152
0,-1650.39,-897.46,-3037.21,84.26,6.8550930122117535
0,-1642.7,-900.68,-3035.0,82.06,6.860093080054362
0,-1644.78,-896.93,-3040.41,78.04,6.865093147896964
0,-1641.89,-887.67,-3029.45,85.24,6.870093215739573
0,-1640.66,-894.21,-3029.18,89.93,6.875093283582174
0,-1638.69,-892.16,-3029.18,89.59,6.880093351424783
0,-1640.09,-892.61,-3032.28,90.38,6.885093419267385
0,-1639.75,-886.76,-3026.5,95.25,6.8900934871099935
0,-1636.72,-887.79,-3029.46,89.36,6.895093554952595
0,-1632.47,-877.24,-3023.96,94.95,6.900093622795204
0,-1632.95,-888.57,-3024.75,90.58,6.9050936906378055
0,-1632.53,-890.62,-3026.21,88.68,6.910093758480414
0,-1626.58,-882.84,-3024.03,97.94,6.915093826323016
0,-1632.1,-885.15,-3024.54,96.55,6.920093894165625
0,-1633.24,-883.2,-3019.74,97.73,6.925093962008226
0,-1637.47,-889.18,-3018.71,95.96,6.930094029850835
0,-1631.45,-885.88,-3021.73,96.94,6.935094097693437
0,-1629.66,-878.55,-3019.67,100.17,6.9400941655360455
0,-1629.81,-881.44,-3017.1,96.85,6.945094233378647
0,-1627.63,-877.8,-3020.09,95.23,6.950094301221256
0,-1627.97,-879.38,-3017.12,94.02,6.955094369063865
0,-1631.53,-884.77,-3015.18,104.86,6.960094436906466
0,-1627.41,-882.64,-3015.31,100.92,6.965094504749075
0,-1627.64,-884.41,-3018.04,98.19,6.970094572591677
0,-1635.9,-886.35,-3020.15,95.52,6.9750946404342855
0,-1627.64,-878.24,-3013.97,102.08,6.980094708276887
0,-1626.18,-880.76,-3016.75,97.8,6.985094776119496
0,-1630.44,-890.55,-3022.54,88.88,6.990094843962098
0,-1636.1,-886.21,-3029.31,86.25,6.995094911804706
0,-1643.45,-894.68,-3033.74,79.03,7.000094979647308
0,-1650.19,-900.04,-3035.26,77.89,7.005095047489917
0,-1645.19,-902.08,-3039.03,75.32,7.010095115332518
0,-1646.98,-903.74,-3044.19,70.85,7.015095183175127
0,-1647.95,-907.28,-3041.99,73.03,7.020095251017729
0,-1652.3,-905.43,-3043.44,75.99,7.025095318860338
0,-1643.02,-902.07,-3039.12,81.99,7.030095386702939
0,-1643.51,-900.1,-3026.44,92.73,7.035095454545548
0,-1644.42,-899.5,-3037.67,84.33,7.04009552238815
0,-1649.82,-895.43,-3043.46,66.04,7.045095590230758
0,-1637.5,-894.15,-3034.78,70.02,7.05009565807336
0,-1639.91,-893.51,-3029.17,72.31,7.055095725915969
0,-1623.69,-879.55,-3013.95,91.13,7.06009579375857
0,-1620.54,-874.02,-3009.42,99.66,7.065095861601179
0,-1622.85,-874.54,-3011.15,99.98,7.070095929443781
0,-1626.62,-875.73,-3012.63,95.5,7.07509599728639
0,-1623.84,-873.76,-3008.78,97.04,7.080096065128991
0,-1626.15,-880.68,-3009.32,97.81,7.0850961329716
0,-1630.04,-883.96,-3018.24,97.02,7.090096200814202
0,-1631.74,-880.58,-3016.15,98.24,7.09509626865681
0,-1634.52,-886.51,-3022.59,89.14,7.100096336499412
0,-1638.75,-886.33,-3023.76,91.02,7.105096404342021
0,-1638.82,-889.12,-3025.0,89.96,7.1100964721846225
0,-1634.48,-889.0,-3024.76,85.31,7.115096540027231
0,-1639.33,-891.7,-3027.52,87.55,7.120096607869833
0,-1640.52,-891.65,-3032.26,86.17,7.125096675712442
0,-1641.65,-897.06,-3030.48,85.68,7.130096743555043
0,-1632.43,-892.28,-3026.36,91.09,7.135096811397652
0,-1635.25,-888.62,-3024.85,93.17,7.140096879240254
0,-1638.85,-886.77,-3026.06,90.05,7.1450969470828625
0,-1634.36,-885.47,-3026.06,93.24,7.150097014925464
0,-1630.77,-885.89,-3021.83,92.21,7.155097082768073
0,-1637.06,-882.35,-3023.0,90.98,7.1600971506106745
0,-1633.4,-876.81,-3020.81,85.45,7.165097218453283
0,-1632.24,-876.62,-3019.4,87.75,7.170097286295885
0,-1636.3,-883.93,-3019.42,92.85,7.175097354138494
0,-1628.75,-883.73,-3018.2,93.67,7.180097421981095
0,-1633.64,-889.13,-3023.81,91.8,7.185097489823704
0,-1632.97,-886.99,-3020.68,91.49,7.190097557666306
0,-1633.67,-882.18,-3018.26,95.08,7.1950976255089145
0,-1634.73,-886.72,-3025.34,95.48,7.200097693351516
0,-1633.35,-885.92,-3014.94,93.26,7.205097761194125
0,-1638.54,-892.51,-3022.66,85.88,7.210097829036727
0,-1638.75,-891.49,-3026.84,82.49,7.215097896879335
0,-1635.14,-887.9,-3026.35,84.74,7.220097964721937
0,-1627.98,-883.6,-3022.55,88.43,7.225098032564546
0,-1633.53,-891.48,-3028.24,88.43,7.230098100407147
0,-1636.0,-889.37,-3027.02,87.6,7.235098168249756
0,-1640.49,-893.08,-3034.79,79.38,7.240098236092358
0,-1644.19,-896.83,-3034.81,78.46,7.245098303934967
0,-1641.79,-896.56,-3031.7,82.65,7.250098371777568
0,-1644.94,-895.95,-3035.27,75.82,7.255098439620177
0,-1643.95,-891.87,-3029.43,78.07,7.260098507462779
0,-1640.53,-888.41,-3028.29,84.96,7.265098575305387
0,-1634.42,-888.75,-3024.21,90.78,7.270098643147989
0,-1636.57,-887.21,-3022.75,90.06,7.275098710990598
0,-1636.92,-889.76,-3028.71,93.22,7.2800987788331994
0,-1639.54,-892.44,-3032.14,87.71,7.285098846675808
0,-1637.2,-884.82,-3026.38,95.91,7.29009891451841
0,-1644.22,-894.88,-3027.42,89.98,7.295098982361019
0,-1643.33,-888.78,-3031.06,92.21,7.30009905020362
0,-1646.78,-887.68,-3024.0,91.94,7.305099118046229
0,-1635.94,-886.36,-3025.13,96.49,7.310099185888831
0,-1635.97,-879.01,-3022.71,96.05,7.315099253731439
0,-1633.74,-881.17,-3021.12,98.36,7.320099321574041
0,-1632.96,-881.66,-3019.76,100.6,7.32509938941665
0,-1634.53,-884.68,-3021.29,96.47,7.3300994572592515
0,-1636.49,-886.42,-3022.56,98.24,7.33509952510186
0,-1642.71,-888.69,-3027.88,86.58,7.340099592944462
0,-1639.97,-890.09,-3027.81,87.38,7.345099660787071
0,-1634.93,-883.39,-3023.76,94.44,7.350099728629672
0,-1630.14,-884.23,-3022.32,96.45,7.355099796472281
0,-1631.82,-888.62,-3021.12,85.97,7.360099864314883
0,-1630.33,-886.46,-3024.55,86.62,7.3650999321574915
0,-1628.65,-885.69,-3023.85,88.99,7.370100000000093
0,-1632.58,-892.79,-3024.59,87.64,7.375100067842702
0,-1631.16,-894.15,-3026.01,87.53,7.3801001356853035
0,-1636.44,-890.85,-3026.13,84.85,7.385100203527912
0,-1637.01,-888.41,-3026.51,86.66,7.390100271370514
0,-1640.35,-889.61,-3028.94,85.56,7.395100339213123
0,-1642.97,-895.95,-3029.55,88.89,7.400100407055724
0,-1640.98,-894.64,-3033.51,84.83,7.405100474898333
0,-1645.03,-901.07,-3034.81,80.31,7.410100542740935
0,-1648.85,-901.75,-3037.63,79.16,7.4151006105835435
0,-1640.33,-896.87,-3033.68,87.43,7.420100678426145
0,-1635.05,-889.01,-3024.25,91.58,7.425100746268754
0,-1628.84,-877.51,-3014.68,94.97,7.430100814111356
0,-1628.37,-880.69,-3019.28,93.02,7.435100881953964
0,-1632.36,-887.24,-3025.39,89.51,7.440100949796566
0,-1641.31,-896.38,-3027.33,88.33,7.445101017639175
0,-1642.48,-893.0,-3032.26,81.7,7.450101085481776
0,-1643.59,-892.57,-3030.64,81.34,7.455101153324385
0,-1636.82,-887.31,-3026.04,84.96,7.460101221166987
0,-1631.79,-883.29,-3023.84,85.57,7.465101289009596
0,-1637.5,-884.8,-3024.36,86.57,7.470101356852197
0,-1631.28,-881.1,-3024.2,86.63,7.475101424694806
0,-1634.92,-888.57,-3025.05,85.13,7.480101492537408
0,-1634.28,-879.83,-3018.53,94.19,7.485101560380016
0,-1631.38,-877.97,-3015.57,99.82,7.490101628222618
0,-1629.15,-884.21,-3017.1,95.98,7.495101696065227
0,-1627.65,-883.7,-3021.23,93.79,7.5001017639078285
0,-1628.64,-886.37,-3022.2,90.05,7.505101831750437
0,-1637.42,-886.86,-3023.08,94.02,7.510101899593039
0,-1625.37,-879.35,-3016.11,98.34,7.515101967435648
0,-1626.57,-877.94,-3012.48,101.42,7.520102035278249
0,-1635.99,-885.95,-3023.56,87.66,7.525102103120858
0,-1638.52,-897.28,-3032.94,76.86,7.53010217096346
0,-1637.59,-896.21,-3032.72,74.87,7.535102238806068
0,-1640.01,-893.93,-3027.52,79.85,7.54010230664867
0,-1641.95,-891.24,-3029.44,83.59,7.545102374491279
0,-1640.92,-894.24,-3032.62,82.24,7.5501024423338805
0,-1636.06,-887.62,-3031.1,79.5,7.555102510176489
0,-1637.19,-893.17,-3026.91,84.03,7.560102578019091
0,-1638.54,-895.18,-3034.72,79.44,7.5651026458617
0,-1638.94,-899.89,-3033.4,82.51,7.570102713704301
0,-1638.82,-896.79,-3034.19,83.45,7.57510278154691
0,-1642.13,-900.08,-3034.52,81.06,7.580102849389512
0,-1640.25,-896.27,-3030.64,89.33,7.5851029172321205
0,-1631.91,-887.79,-3022.4,97.12,7.590102985074722
0,-1629.04,-883.29,-3015.84,97.52,7.595103052917331
0,-1638.35,-888.25,-3021.85,95.11,7.6001031207599326
0,-1638.26,-895.21,-3029.22,90.93,7.605103188602541
0,-1635.91,-895.09,-3028.48,90.92,7.610103256445143
0,-1634.25,-888.5,-3024.03,95.18,7.615103324287752
0,-1639.36,-889.68,-3027.17,91.29,7.620103392130353
0,-1635.66,-887.47,-3023.84,93.41,7.625103459972962
0,-1638.59,-888.13,-3026.31,88.76,7.630103527815564
0,-1637.15,-891.43,-3028.3,85.89,7.6351035956581725
0,-1633.92,-890.54,-3025.51,88.35,7.640103663500774
0,-1634.23,-892.01,-3024.71,82.79,7.645103731343383
0,-1625.9,-885.39,-3019.08,94.04,7.650103799185985
0,-1625.18,-878.87,-3017.54,94.48,7.655103867028593
0,-1623.79,-881.1,-3016.11,91.52,7.660103934871195
0,-1613.57,-867.19,-3005.89,98.25,7.665104002713804
0,-1607.21,-859.48,-2996.72,98.46,7.670104070556405
0,-1599.21,-849.14,-2988.89,105.79,7.675104138399014
0,-1589.77,-838.56,-2981.87,104.37,7.680104206241616
0,-1587.39,-834.46,-2978.76,106.01,7.685104274084225
0,-1585.88,-833.14,-2980.35,104.76,7.690104341926826
0,-1583.32,-835.12,-2977.29,106.83,7.695104409769435
0,-1587.35,-838.97,-2977.6,107.76,7.700104477612037
0,-1589.47,-842.57,-2983.54,103.22,7.705104545454645
0,-1590.18,-846.27,-2987.72,105.86,7.710104613297247
0,-1602.3,-861.65,-3002.23,100.2,7.715104681139856
0,-1619.33,-872.11,-3008.77,102.8,7.7201047489824575
0,-1633.47,-883.27,-3018.64,93.33,7.725104816825066
0,-1640.48,-885.35,-3022.37,91.71,7.730104884667668
0,-1644.24,-886.33,-3023.36,95.87,7.735104952510277
0,-1647.16,-891.88,-3027.72,84.33,7.740105020352878
0,-1645.95,-902.31,-3033.18,87.79,7.745105088195487
0,-1646.1,-901.67,-3031.41,93.79,7.750105156038089
0,-1655.57,-909.07,-3040.11,84.48,7.7551052238806975
0,-1654.6,-912.54,-3045.09,87.47,7.760105291723299
0,-1650.27,-911.11,-3039.65,81.91,7.765105359565908
0,-1647.94,-903.17,-3040.52,88.14,7.7701054274085095
0,-1654.22,-905.15,-3039.57,94.51,7.775105495251118
0,-1662.05,-905.32,-3039.48,90.22,7.78010556309372
0,-1653.9,-905.76,-3041.71,90.31,7.785105630936329
0,-1656.04,-906.8,-3040.75,86.52,7.79010569877893
0,-1651.51,-901.43,-3037.52,88.78,7.795105766621539
0,-1646.03,-901.64,-3035.36,85.53,7.800105834464141
0,-1647.53,-907.0,-3035.16,86.82,7.8051059023067495
0,-1651.18,-916.79,-3041.07,81.0,7.810105970149351
0,-1652.56,-909.92,-3042.01,77.95,7.81510603799196
0,-1655.25,-909.77,-3046.29,81.14,7.820106105834562
0,-1647.28,-904.71,-3038.89,85.53,7.82510617367717
0,-1649.44,-905.54,-3035.24,81.46,7.830106241519772
0,-1649.74,-898.38,-3036.84,87.63,7.835106309362381
0,-1641.51,-894.2,-3028.4,94.78,7.840106377204982
0,-1645.19,-892.96,-3027.8,90.73,7.845106445047591
0,-1649.08,-900.62,-3036.47,83.39,7.850106512890193
0,-1648.61,-898.43,-3032.56,90.35,7.8551065807328015
0,-1644.76,-895.76,-3032.62,87.82,7.860106648575403
0,-1645.98,-894.36,-3032.65,89.5,7.865106716418012
0,-1650.64,-901.93,-3044.55,77.74,7.870106784260614
0,-1651.81,-886.89,-3029.51,83.73,7.875106852103222
0,-1644.69,-894.82,-3034.6,82.53,7.880106919945824
0,-1653.55,-900.2,-3038.33,82.64,7.885106987788433
0,-1652.04,-892.75,-3032.97,88.87,7.890107055631034
0,-1640.63,-892.6,-3034.79,87.7,7.895107123473643
0,-1643.66,-889.77,-3029.08,88.7,7.900107191316245
0,-1642.13,-887.53,-3023.3,90.32,7.905107259158854
0,-1635.28,-885.81,-3019.87,90.01,7.910107327001455
0,-1635.24,-884.53,-3024.95,93.81,7.915107394844064
0,-1636.04,-891.46,-3031.87,91.34,7.920107462686666
0,-1641.76,-892.94,-3027.19,87.67,7.925107530529274
0,-1638.36,-881.9,-3023.69,95.2,7.930107598371876
0,-1634.89,-887.6,-3024.31,91.9,7.935107666214485
0,-1639.76,-892.14,-3025.99,90.55,7.9401077340570865
0,-1636.49,-893.92,-3024.44,89.4,7.945107801899695
0,-1632.83,-884.05,-3018.7,92.07,7.950107869742297
0,-1630.81,-880.47,-3017.23,92.18,7.955107937584906
0,-1634.04,-885.95,-3025.09,89.82,7.960108005427507
0,-1641.34,-891.14,-3030.03,86.28,7.965108073270116
0,-1641.61,-889.26,-3029.29,82.43,7.970108141112718
0,-1634.57,-887.8,-3025.25,84.29,7.9751082089553265
0,-1637.6,-891.67,-3029.28,87.71,7.980108276797928
0,-1636.08,-891.55,-3032.47,84.6,7.985108344640537
0,-1631.28,-886.47,-3021.14,89.11,7.9901084124831385
0,-1631.56,-888.61,-3022.71,92.31,7.995108480325747
0,-1639.58,-895.76,-3034.36,82.88,8.000108548168349
0,-1638.09,-897.78,-3031.98,75.35,8.005108616010958
0,-1649.15,-903.67,-3040.33,68.61,8.01010868385356
0,-1647.37,-910.5,-3041.92,68.05,8.015108751696168
0,-1643.31,-910.27,-3041.2,69.61,8.02010881953877
0,-1642.72,-903.42,-3038.22,70.5,8.025108887381379
0,-1641.27,-904.11,-3038.93,74.14,8.03010895522398
0,-1636.34,-900.24,-3039.26,75.88,8.035109023066589
0,-1641.72,-900.59,-3037.34,78.79,8.04010909090919
0,-1645.77,-904.24,-3038.01,79.93,8.0451091587518
0,-1641.26,-902.13,-3037.51,72.79,8.050109226594401
0,-1640.83,-889.82,-3034.64,73.07,8.05510929443701
0,-1639.94,-893.24,-3033.47,75.7,8.060109362279611
0,-1641.64,-896.46,-3031.64,81.85,8.06510943012222
0,-1639.72,-899.6,-3032.27,83.55,8.070109497964822
0,-1642.32,-898.1,-3027.71,89.95,8.07510956580743
0,-1638.24,-891.21,-3028.03,88.12,8.080109633650032
0,-1640.65,-887.98,-3025.01,95.5,8.085109701492641
0,-1643.94,-898.7,-3034.66,84.76,8.090109769335243
0,-1640.06,-897.12,-3030.17,89.95,8.095109837177851
0,-1640.17,-897.49,-3032.3,87.05,8.100109905020453
0,-1631.87,-890.58,-3023.04,96.15,8.105109972863062
0,-1631.08,-886.69,-3026.62,90.97,8.110110040705663
0,-1630.68,-884.22,-3024.04,95.16,8.115110108548272
0,-1634.22,-890.79,-3024.63,90.86,8.120110176390874
0,-1635.14,-884.44,-3021.58,93.1,8.125110244233483
0,-1631.2,-880.63,-3011.87,96.87,8.130110312076084
0,-1625.25,-876.81,-3006.05,98.04,8.135110379918693
0,-1638.51,-892.68,-3026.01,91.78,8.140110447761295
0,-1643.16,-895.9,-3033.49,83.76,8.145110515603903
0,-1640.05,-895.03,-3028.97,85.97,8.150110583446505
0,-1638.53,-891.2,-3023.4,88.16,8.155110651289114
0,-1630.5,-886.59,-3029.32,92.58,8.160110719131715
0,-1634.92,-887.81,-3023.59,92.3,8.165110786974324
0,-1629.99,-881.43,-3019.44,100.02,8.170110854816926
0,-1636.83,-895.08,-3027.37,92.62,8.175110922659535
0,-1638.14,-891.76,-3024.13,94.33,8.180110990502143
0,-1635.09,-892.99,-3023.81,92.73,8.185111058344745
0,-1636.0,-887.72,-3020.99,93.29,8.190111126187354
0,-1631.79,-885.99,-3017.25,100.9,8.195111194029955
0,-1630.51,-885.09,-3024.49,94.8,8.200111261872564
0,-1632.91,-889.26,-3026.16,91.43,8.205111329715166
0,-1637.08,-885.32,-3024.84,91.05,8.210111397557775
0,-1637.7,-887.03,-3026.39,89.9,8.215111465400376
0,-1633.29,-888.42,-3028.92,91.62,8.220111533242985
0,-1641.51,-893.29,-3025.84,86.34,8.225111601085587
0,-1644.37,-893.84,-3026.68,82.45,8.230111668928195
0,-1634.49,-891.67,-3030.41,82.91,8.235111736770797
0,-1637.41,-890.29,-3030.13,86.44,8.240111804613406
0,-1640.76,-892.36,-3032.85,83.13,8.245111872456008
0,-1637.91,-884.23,-3022.67,87.52,8.250111940298616
0,-1638.84,-886.31,-3027.18,88.51,8.255112008141218
0,-1635.71,-886.81,-3025.6,87.98,8.260112075983827
0,-1625.26,-881.26,-3020.13,90.55,8.265112143826428
0,-1632.12,-887.98,-3022.09,92.46,8.270112211669037
0,-1624.61,-884.95,-3020.21,94.2,8.275112279511639
0,-1631.59,-886.87,-3024.68,90.86,8.280112347354248
0,-1635.75,-883.64,-3023.68,90.45,8.28511241519685
0,-1635.56,-891.24,-3024.83,84.65,8.290112483039458
0,-1641.61,-894.11,-3028.69,80.93,8.29511255088206
0,-1643.35,-889.47,-3034.17,82.31,8.300112618724668
0,-1644.11,-895.29,-3027.62,83.73,8.30511268656727
0,-1648.08,-894.94,-3029.92,81.44,8.310112754409879
0,-1645.28,-898.07,-3038.36,78.62,8.31511282225248
0,-1647.11,-904.32,-3034.64,83.98,8.32011289009509
0,-1649.39,-902.07,-3037.28,81.58,8.32511295793769
0,-1642.67,-893.01,-3033.09,83.61,8.3301130257803
0,-1641.8,-888.2,-3031.18,89.01,8.335113093622901
0,-1643.03,-891.74,-3028.33,87.03,8.34011316146551
0,-1644.13,-894.26,-3034.74,79.08,8.345113229308112
0,-1648.28,-896.37,-3034.18,81.6,8.35011329715072
0,-1642.88,-885.19,-3031.16,82.55,8.355113364993322
0,-1638.06,-886.11,-3028.85,85.62,8.36011343283593
0,-1634.71,-887.6,-3026.58,92.69,8.365113500678532
0,-1632.52,-893.13,-3028.24,93.58,8.370113568521141
0,-1632.28,-893.54,-3025.62,89.51,8.375113636363743
0,-1632.35,-887.5,-3019.65,92.76,8.380113704206352
0,-1623.6,-881.44,-3011.28,103.87,8.385113772048953
0,-1632.89,-882.17,-3011.45,97.69,8.390113839891562
0,-1635.22,-889.51,-3018.59,94.75,8.395113907734164
0,-1624.04,-875.13,-3013.51,101.91,8.400113975576772
0,-1627.4,-876.81,-3011.1,96.52,8.405114043419374
0,-1631.35,-880.2,-3017.41,96.81,8.410114111261983
0,-1630.96,-877.89,-3019.94,99.13,8.415114179104584
0,-1637.43,-884.59,-3027.27,88.93,8.420114246947193
0,-1635.77,-886.24,-3024.42,89.72,8.425114314789795
0,-1635.97,-879.99,-3022.4,88.65,8.430114382632404
0,-1634.71,-878.96,-3022.82,88.65,8.435114450475005
0,-1631.5,-880.78,-3022.0,87.7,8.440114518317614
0,-1638.32,-887.97,-3028.75,89.25,8.445114586160216
0,-1635.07,-892.01,-3027.37,83.8,8.450114654002824
0,-1630.47,-895.56,-3026.69,80.32,8.455114721845426
0,-1632.26,-893.74,-3029.06,83.88,8.460114789688035
0,-1636.75,-894.84,-3031.82,80.58,8.465114857530637
0,-1633.18,-891.82,-3023.57,84.95,8.470114925373245
0,-1638.01,-889.4,-3025.5,89.26,8.475114993215847
0,-1640.27,-890.09,-3032.09,86.4,8.480115061058456
0,-1636.61,-892.81,-3027.9,88.99,8.485115128901057
0,-1630.65,-887.94,-3021.94,93.21,8.490115196743666
0,-1635.29,-888.57,-3023.21,88.48,8.495115264586268
0,-1636.1,-890.03,-3032.23,85.68,8.500115332428877
0,-1631.16,-889.12,-3026.56,88.0,8.505115400271478
0,-1635.28,-888.98,-3020.89,97.45,8.510115468114087
0,-1631.13,-885.69,-3020.32,96.46,8.515115535956689
0,-1633.47,-882.04,-3022.72,95.53,8.520115603799297
0,-1635.89,-892.48,-3027.98,88.04,8.525115671641899
0,-1634.91,-891.97,-3025.99,93.35,8.530115739484508
0,-1641.4,-892.37,-3024.86,87.04,8.53511580732711
0,-1637.91,-891.62,-3026.13,85.47,8.540115875169718
0,-1634.8,-891.61,-3028.65,84.68,8.54511594301232
0,-1638.11,-894.19,-3030.04,87.06,8.550116010854929
0,-1639.74,-889.94,-3028.13,92.81,8.55511607869753
0,-1640.31,-892.25,-3031.17,86.94,8.560116146540139
0,-1643.93,-893.35,-3034.97,79.19,8.56511621438274
0,-1641.66,-890.86,-3032.62,79.77,8.57011628222535
0,-1644.84,-893.42,-3031.76,78.16,8.575116350067951
0,-1642.78,-893.04,-3028.57,82.01,8.58011641791056
0,-1636.51,-891.57,-3028.6,85.56,8.585116485753161
0,-1639.79,-892.02,-3032.32,81.93,8.59011655359577
0,-1635.99,-886.64,-3030.74,89.37,8.595116621438372
0,-1640.87,-889.17,-3032.33,81.69,8.60011668928098
0,-1631.23,-887.06,-3025.79,82.7,8.605116757123582
0,-1629.9,-887.22,-3023.66,89.23,8.610116824966191
0,-1630.13,-888.37,-3022.67,83.61,8.615116892808793
0,-1635.26,-891.55,-3028.49,81.15,8.620116960651401
0,-1633.75,-882.89,-3022.36,89.58,8.625117028494003
0,-1634.07,-882.43,-3025.54,87.09,8.630117096336612
0,-1631.27,-885.2,-3023.56,93.71,8.635117164179213
0,-1635.19,-888.09,-3023.7,92.17,8.640117232021822
0,-1635.81,-888.0,-3021.01,90.62,8.645117299864424
0,-1630.12,-880.23,-3015.12,94.46,8.650117367707033
0,-1632.48,-882.78,-3021.98,86.58,8.655117435549634
0,-1634.94,-879.45,-3021.52,90.79,8.660117503392243
0,-1643.84,-892.93,-3029.89,84.06,8.665117571234845
0,-1645.55,-901.44,-3035.94,80.28,8.670117639077453
0,-1640.11,-901.2,-3030.91,84.28,8.675117706920055
0,-1645.33,-899.55,-3033.9,86.36,8.680117774762664
0,-1650.38,-894.44,-3035.72,85.49,8.685117842605266
0,-1644.21,-895.89,-3036.4,79.55,8.690117910447874
0,-1641.79,-899.61,-3033.29,80.59,8.695117978290476
0,-1641.56,-890.77,-3030.8,82.78,8.700118046133085
0,-1641.51,-886.68,-3031.27,85.72,8.705118113975686
0,-1641.14,-889.44,-3032.22,81.97,8.710118181818295
0,-1633.36,-887.81,-3026.0,89.08,8.715118249660897
0,-1633.89,-885.47,-3027.91,93.51,8.720118317503506
0,-1637.66,-890.4,-3024.95,88.32,8.725118385346107
0,-1630.71,-887.1,-3024.78,93.46,8.730118453188716
0,-1634.66,-880.11,-3020.58,89.35,8.735118521031318
0,-1628.41,-879.27,-3016.9,97.5,8.740118588873926
0,-1628.04,-872.05,-3012.24,102.22,8.745118656716528
0,-1628.42,-885.82,-3022.51,95.84,8.750118724559137
0,-1638.63,-885.69,-3018.57,96.45,8.755118792401738
0,-1638.96,-888.25,-3022.93,96.73,8.760118860244347
0,-1637.63,-881.21,-3021.95,95.23,8.765118928086949
0,-1629.9,-880.36,-3022.3,96.68,8.770118995929558
0,-1633.27,-885.39,-3019.87,94.3,8.77511906377216
0,-1636.68,-884.41,-3024.5,88.34,8.780119131614768
0,-1636.51,-879.13,-3022.88,95.09,8.78511919945737
0,-1630.09,-882.68,-3025.39,88.97,8.790119267299978
0,-1635.07,-885.94,-3024.9,85.36,8.79511933514258
0,-1636.89,-886.56,-3021.08,82.05,8.800119402985189
0,-1634.66,-885.15,-3021.86,87.44,8.80511947082779
0,-1637.52,-889.14,-3028.09,88.06,8.8101195386704
0,-1636.48,-891.18,-3028.73,84.93,8.815119606513
0,-1639.82,-891.96,-3029.23,85.17,8.82011967435561
0,-1631.44,-892.75,-3026.79,86.41,8.825119742198211
0,-1634.08,-889.48,-3022.48,84.93,8.83011981004082
0,-1636.64,-884.58,-3024.76,84.49,8.835119877883422
0,-1639.06,-892.09,-3030.57,87.13,8.84011994572603
0,-1632.42,-896.96,-3028.53,86.51,8.845120013568632
0,-1637.51,-901.62,-3031.23,77.8,8.85012008141124
0,-1632.81,-897.07,-3026.16,80.14,8.855120149253842
0,-1640.28,-890.29,-3028.54,81.65,8.860120217096451
0,-1643.41,-896.14,-3030.01,82.58,8.865120284939053
0,-1639.92,-891.96,-3031.15,84.13,8.870120352781662
0,-1638.54,-893.87,-3028.28,92.34,8.875120420624263
0,-1637.95,-897.23,-3026.04,88.45,8.880120488466872
0,-1639.34,-897.71,-3030.78,88.36,8.885120556309474
0,-1646.53,-893.25,-3031.64,84.26,8.890120624152082
0,-1638.03,-887.35,-3025.02,92.52,8.895120691994684
0,-1638.93,-888.62,-3025.76,91.6,8.900120759837293
0,-1631.34,-889.36,-3024.7,96.43,8.905120827679895
0,-1630.04,-889.16,-3021.66,91.43,8.910120895522503
0,-1630.63,-884.97,-3017.75,93.19,8.915120963365105
0,-1636.47,-890.63,-3029.43,86.95,8.920121031207714
0,-1629.94,-883.15,-3025.32,95.11,8.925121099050315
0,-1638.63,-885.42,-3027.21,89.49,8.930121166892924
0,-1629.96,-884.7,-3023.22,94.58,8.935121234735526
0,-1636.63,-888.97,-3022.77,92.78,8.940121302578135
0,-1627.92,-882.54,-3021.28,94.56,8.945121370420736
0,-1625.42,-885.72,-3020.73,98.67,8.950121438263345
0,-1626.17,-883.99,-3017.6,100.64,8.955121506105947
0,-1621.26,-873.78,-3005.78,111.98,8.960121573948555
0,-1623.75,-874.78,-3007.57,114.3,8.965121641791157
0,-1626.97,-876.25,-3014.41,96.64,8.970121709633766
0,-1631.15,-882.32,-3018.66,97.63,8.975121777476367
0,-1626.61,-880.3,-3018.66,98.57,8.980121845318976
0,-1623.59,-874.37,-3009.45,101.24,8.985121913161578
0,-1628.32,-875.45,-3011.48,97.85,8.990121981004187
0,-1630.37,-876.86,-3014.59,92.53,8.995122048846788
0,-1627.88,-877.17,-3014.48,93.29,9.000122116689397
0,-1633.38,-882.69,-3019.79,93.45,9.005122184531999
0,-1627.11,-876.86,-3012.49,95.84,9.010122252374607
0,-1632.79,-878.55,-3017.12,94.46,9.015122320217209
0,-1631.9,-877.79,-3016.74,91.08,9.020122388059818
0,-1635.79,-879.2,-3019.04,88.69,9.02512245590242
0,-1641.84,-889.8,-3027.17,86.3,9.030122523745028
0,-1642.74,-891.29,-3027.32,84.91,9.03512259158763
0,-1641.39,-895.18,-3027.84,81.86,9.040122659430239
0,-1637.74,-885.55,-3024.28,84.79,9.04512272727284
0,-1640.77,-889.94,-3029.12,86.49,9.050122795115449
0,-1642.0,-897.78,-3029.97,87.39,9.05512286295805
0,-1640.65,-890.54,-3031.1,83.52,9.06012293080066
0,-1639.94,-896.49,-3039.81,77.97,9.065122998643261
0,-1646.2,-899.14,-3041.1,74.53,9.07012306648587
0,-1642.84,-893.51,-3036.83,78.4,9.075123134328472
0,-1637.81,-895.63,-3033.57,81.56,9.08012320217108
0,-1639.56,-895.45,-3028.43,88.87,9.085123270013682
0,-1642.22,-889.39,-3036.77,85.4,9.09012333785629
0,-1645.39,-896.95,-3032.82,79.74,9.095123405698892
0,-1646.05,-896.7,-3034.16,85.51,9.100123473541501
0,-1646.64,-896.53,-3034.24,87.65,9.105123541384103
0,-1634.62,-892.87,-3031.62,87.53,9.110123609226711
0,-1634.84,-893.03,-3032.97,87.07,9.115123677069313
0,-1639.18,-893.7,-3026.52,83.05,9.120123744911922
0,-1638.18,-893.47,-3029.11,92.66,9.125123812754524
0,-1633.82,-892.12,-3028.97,87.17,9.130123880597132
0,-1640.57,-892.4,-3029.76,78.36,9.135123948439734
0,-1644.51,-890.84,-3029.8,86.27,9.140124016282343
0,-1648.37,-895.19,-3033.4,85.68,9.145124084124944
0,-1642.23,-890.34,-3027.51,87.08,9.150124151967553
0,-1636.0,-892.91,-3027.82,89.53,9.155124219810155
0,-1639.24,-891.98,-3027.53,93.79,9.160124287652764
0,-1639.61,-893.6,-3033.72,93.2,9.165124355495365
0,-1636.77,-887.38,-3027.12,91.2,9.170124423337974
0,-1631.92,-887.23,-3023.34,93.87,9.175124491180576
0,-1629.55,-886.42,-3023.88,92.82,9.180124559023184
0,-1635.63,-883.76,-3024.46,88.65,9.185124626865786
0,-1630.4,-887.95,-3022.47,88.99,9.190124694708395
0,-1640.52,-890.46,-3027.77,87.72,9.195124762550996
0,-1635.62,-894.1,-3029.4,85.09,9.200124830393605
0,-1635.58,-890.38,-3031.01,82.55,9.205124898236207
0,-1634.68,-886.76,-3023.8,83.4,9.210124966078816
0,-1632.77,-879.11,-3019.21,89.96,9.215125033921417
0,-1629.83,-877.16,-3015.32,94.09,9.220125101764026
0,-1629.0,-887.8,-3018.69,90.37,9.225125169606628
0,-1632.8,-890.1,-3025.81,90.73,9.230125237449236
0,-1639.07,-891.95,-3029.35,79.05,9.235125305291838
0,-1643.87,-893.3,-3030.77,81.54,9.240125373134447
0,-1640.89,-896.33,-3035.01,78.2,9.245125440977048
0,-1638.98,-888.74,-3030.41,86.89,9.250125508819657
0,-1642.55,-888.87,-3030.19,86.26,9.255125576662259
0,-1644.75,-893.36,-3034.83,82.16,9.260125644504868
0,-1631.37,-888.96,-3023.38,83.96,9.26512571234747
0,-1634.39,-887.58,-3021.6,91.25,9.270125780190078
0,-1640.46,-886.66,-3024.42,90.91,9.27512584803268
0,-1634.81,-879.27,-3020.08,105.76,9.280125915875288
0,-1642.83,-893.93,-3027.62,97.35,9.28512598371789
0,-1642.51,-895.07,-3036.21,90.1,9.290126051560499
0,-1645.88,-895.67,-3037.04,87.99,9.2951261194031
0,-1636.51,-892.91,-3029.42,93.61,9.30012618724571
0,-1628.8,-891.53,-3025.74,92.57,9.305126255088311
0,-1632.68,-896.6,-3031.01,91.39,9.31012632293092
0,-1639.25,-897.91,-3035.36,84.35,9.315126390773521
0,-1645.56,-901.03,-3040.62,79.21,9.32012645861613
0,-1648.29,-897.88,-3038.48,79.3,9.325126526458732
0,-1647.5,-894.82,-3035.08,79.54,9.33012659430134
0,-1646.0,-900.05,-3035.29,75.0,9.335126662143942
0,-1640.49,-893.48,-3030.19,87.11,9.340126729986551
0,-1639.45,-893.25,-3028.74,78.64,9.345126797829153
0,-1629.16,-892.97,-3024.44,81.11,9.350126865671761
0,-1630.36,-889.8,-3021.42,88.61,9.355126933514363
0,-1633.05,-891.79,-3024.41,90.32,9.360127001356972
0,-1636.1,-894.51,-3027.33,87.34,9.365127069199573
0,-1633.13,-891.51,-3028.09,86.9,9.370127137042182
0,-1633.64,-889.67,-3027.94,89.02,9.375127204884784
0,-1639.77,-886.98,-3027.14,90.1,9.380127272727393
0,-1639.47,-888.79,-3027.56,90.45,9.385127340569994
0,-1626.02,-879.53,-3017.63,98.58,9.390127408412603
0,-1624.89,-880.25,-3016.95,97.15,9.395127476255212
0,-1621.36,-877.64,-3014.03,96.18,9.400127544097813
0,-1627.58,-882.32,-3014.17,97.11,9.405127611940422
0,-1631.62,-884.38,-3018.83,97.28,9.410127679783024
0,-1634.21,-880.77,-3018.57,99.01,9.415127747625633
0,-1638.9,-883.61,-3022.33,93.5,9.420127815468234
0,-1641.54,-890.22,-3029.5,87.66,9.425127883310843
0,-1645.49,-895.01,-3033.46,87.11,9.430127951153445
0,-1644.03,-895.97,-3028.44,81.14,9.435128018996053
0,-1637.2,-887.21,-3022.24,88.54,9.440128086838655
0,-1640.45,-883.42,-3024.32,90.14,9.445128154681264
0,-1640.22,-884.85,-3025.18,87.76,9.450128222523865
0,-1639.39,-888.34,-3024.86,89.06,9.455128290366474
0,-1642.47,-894.2,-3028.55,85.17,9.460128358209076
0,-1640.48,-893.93,-3029.71,87.55,9.465128426051685
0,-1646.23,-896.81,-3030.86,78.48,9.470128493894286
0,-1643.27,-894.45,-3031.11,81.4,9.475128561736895
