labels,F4,F3,Fz,Cz,timestamps
0,-3.6090842714194826,-0.0008134581306696864,1.4567992200613908,3.4547931669467378,-2.0000278978937445
0,1.0315570912521095,0.07913501735077952,-2.712921229070669,-0.7752605208908274,-1.9950278281490128
0,5.802195113271399,10.329081014541707,6.007354740783129,9.42468254643272,-1.9900277584042776
0,8.10282978467901,2.899024530387557,10.597627122466413,18.25462236858538,-1.9850276886595424
0,-8.44653890484474,-7.781034438569151,-1.7921040915881974,4.794558944413782,-1.9800276189148072
0,-15.735910965762145,-10.891095895886986,-14.091838909334893,-13.155507728161918,-1.9750275491700755
0,-3.415286408054919,-3.8611598446856177,0.26842266138452475,-1.415577651572842,-1.9700274794253403
0,-9.704665240832814,-6.511226287381231,-0.431319386782282,0.2743491720387139,-1.965027409680605
0,-8.104047472358468,-3.9812952257537972,-1.6310650608215767,1.3642727408569437,-1.9600273399358699
0,-4.563433110137958,-1.1213666610815742,-2.2008143675728817,1.5041930531278258,-1.9550272701911382
0,-10.102822160950115,-3.471440594265997,-8.220567313703778,0.14411010701213206,-1.950027200446403
0,-0.7022146309018454,-2.6315170259310214,-7.210323905512904,-4.045976099397834,-1.9450271307016678
0,-6.231610525512981,-7.061595956414555,-6.410084148723709,-6.496065567921798,-1.9400270609569326
0,-3.2210098498351543,-5.02167738566584,-8.509848048371111,-8.906158300031608,-1.935026991212201
0,-1.8904126085219244,-0.9017613131617201,-5.2496156087942785,-4.826254296619339,-1.9300269214674657
0,-6.11981880587097,-6.061847737949484,-11.059386833624046,-10.606353557885429,-1.9250268517227305
0,-6.999228445802734,-6.111936658693313,-1.7991617257751424,-9.036456083284497,-1.9200267819779953
0,-4.42864153175094,3.967971926341903,-2.158940287519183,-7.096561871449293,-1.91502671223326
0,0.07194193337471944,2.457878019155046,-5.578722520675908,-11.17667092015338,-1.9100266424885284
0,-6.367478052929666,-10.142218378211986,-9.63850842668044,-5.786783226320533,-1.9050265727437932
0,-14.136901492778424,-16.07231726352116,-16.418298006364783,-13.126898786014756,-1.900026502999058
0,-5.106328387653234,-12.372418633781873,-10.478091259597967,-9.417017594398537,-1.8950264332543227
0,-12.215758738165805,0.0074775151172917775,-2.667888185108042,-3.997139645691466,-1.890026363509591
0,-10.515192543996267,1.367371188184277,-4.5276887806899175,-11.14726493324908,-1.8850262937648559
0,-3.814629803890162,-1.6027376091974637,0.6525069564219605,-2.6773934496830316,-1.8800262240201207
0,-2.2440705157726972,-4.932848871551215,-8.54730097067886,-3.147525186961524,-1.8750261542753854
0,-5.823514677009132,-7.472962593208194,-4.917112558556492,-2.9976601365605995,-1.8700260845306538
0,0.527037715412416,-7.62307876806148,-4.586927803304964,-1.0377982896317242,-1.8650260147859186
0,0.9775866647746456,2.0168026105733556,4.103253299454318,-1.6779396370874213,-1.8600259450411833
0,0.4281321744727783,10.176681549759213,6.563430754298121,0.8619158303252235,-1.8550258752964481
0,-0.6213257521207772,5.2865580564365855,2.4236045656194314,0.46176812194076966,-1.8500258055517165
0,7.519212888295358,3.226432137023621,2.5537747374270587,7.591617247051973,-1.8450257358069813
0,2.3597480988297916,5.636303797371546,5.4639412733607715,11.241463214669697,-1.840025666062246
0,2.760279882256364,3.806173042863483,4.084104176707808,8.281306033187168,-1.8350255963175108
0,-11.299191758917107,-3.0039601215091305,-7.575736549571849,-3.548854289779412,-1.8300255265727792
0,-6.478666822070681,-10.41409569091391,-7.105580902590623,-4.299017747125469,-1.825025456828044
0,2.4618546958891843,-5.364233660249527,-7.635428879095085,-1.2691843317744844,-1.8200253870833087
0,-6.28762720147053,-13.704374023770242,-8.455280475175893,-9.809354036364041,-1.8150253173385735
0,1.002887489700399,-4.894516774899102,1.4348643137697068,1.2204731468699568,-1.8100252475938419
0,-4.306601226536759,-2.1046619062322276,-4.5849945071215465,-1.6797027739117538,-1.8050251778491067
0,-10.126093345852135,-4.834809409740081,-6.954856932360967,-7.399881790261056,-1.8000251081043714
0,-6.4855888634599825,-10.104959276934423,-6.704722956065518,-11.900063893384054,-1.7950250383596362
0,1.3449122260452144,4.224888501151085,-5.0745925718005065,-1.5802490738845436,-1.790024968614901
0,-1.8745900714428039,5.534733933846207,2.6355342274184377,0.7995626782914658,-1.7850248988701694
0,-0.1840957498134933,-7.035422969490224,-4.424342551070856,-0.5906286264253519,-1.7800248291254341
0,5.646395197089789,-1.1855821995649654,3.335777100226297,6.949177022452311,-1.775024759380699
0,4.386882775301046,1.0442562530353985,2.525893188834555,7.498979635204325,-1.7700246896359637
0,2.9473669905427173,-0.7759076021165174,1.856005722175765,4.838779221657858,-1.765024619891232
0,4.577847848138714,5.7339262445697,2.42611470746609,6.548575791040923,-1.7600245501464968
0,0.9383253530477396,3.3837578025346646,5.296220151680479,2.2783693520073385,-1.7550244804017616
0,1.6287995099298755,3.1835870809201086,1.8663220615038525,0.9281599127462514,-1.7500244106570264
0,-6.080729676720935,-10.716585911403175,-3.7135795566646315,-3.7320525188248364,-1.7450243409122947
0,3.8097377976031144,-4.576761165508857,-2.643484696531326,-4.2122679348007726,-1.7400242711675595
0,-3.0397980624864167,-0.6869386720623484,-2.7633933516642437,-6.652486327034506,-1.7350242014228243
0,5.490662747660212,-4.237118421276718,-1.993305515376361,-4.3327076869495205,-1.730024131678089
0,7.1311202325723455,1.2726995969315975,5.356778819223819,1.137067994494442,-1.7250240619333574
0,11.561574396383692,3.2925153927941966,3.596859659031545,3.5768407266378754,-1.7200239921886222
0,-1.8479747574159264,3.6523289765020834,1.2869370107168479,0.6966105188312746,-1.715023922443887
0,2.862472774059913,1.2121403580235064,-0.5829891193286898,1.9363773802651623,-1.7100238526991518
0,7.072916993327522,2.0719495470635314,-1.1129187248595556,-0.18385868003425443,-1.7050237829544201
0,10.643357902538046,10.18175655306202,5.517148200331936,12.065902346780057,-1.700023713209685
0,1.2337955032565842,-1.638438614907291,5.677211662331421,3.9456604691923793,-1.6950236434649497
0,-0.18577020355798118,-1.2286359481522489,0.5272716669108131,2.835415695126198,-1.6900235737202145
0,-2.4753392172735476,7.021164561804947,-0.7526717804988283,3.0451680319794887,-1.6850235039754793
0,-6.814911537246089,2.2809629232803905,-1.592618674631125,2.024917486791762,-1.6800234342307476
0,5.665512837388686,8.96075914426355,3.517430989777087,4.084664066323365,-1.6750233644860124
0,5.905933907630272,8.830553232224625,9.83747721791941,11.44440777700078,-1.6700232947412772
0,-0.623648325686746,6.41034519395516,2.5275200146463113,11.554148624682737,-1.665023224996542
0,2.146766137961628,5.60013503550017,3.047559384295319,6.833886614377447,-1.6600231552518103
0,5.157177298860305,4.8299227622366026,-0.08240466922532597,5.723621750164333,-1.655023085507075
0,-0.4224148429280476,6.459708378969903,2.777627857747805,5.963354035348082,-1.65002301576234
0,3.247989712412454,-0.6605081100007104,-0.4023430312766214,4.163083472614999,-1.6450229460176047
0,3.3183909644768566,4.989273299223614,3.3876826670831366,0.03281006415326826,-1.640022876272873
0,-0.1712110873617606,3.819052610233167,4.037704956047777,1.4325338118072717,-1.6350228065281378
0,-2.6008164439057517,3.5788298262979854,0.39772383860927185,-4.1677452827250985,-1.6300227367834026
0,8.709574893956875,2.9586049503268566,0.6877393175139652,4.421972782248196,-1.6250226670386674
0,5.309962925173229,3.3683779848806936,9.11775139530627,-0.02831199156926556,-1.6200225972939357
0,2.950347648289808,1.568148932211539,4.81776007421801,-0.11859960254293095,-1.6150225275492005
0,0.9907290613835562,-1.132082205677313,4.877765355981692,-0.9688900491091731,-1.6100224578044653
0,1.4111071622106672,-8.242315426862012,-5.612232758155835,-1.129183329696859,-1.60502238805973
0,2.951481948332487,2.057449270751912,1.6177657328253745,-3.089479442650164,-1.6000223183149984
0,-4.108146582828697,-0.7827881104673738,4.207760829941158,-6.349778386133227,-1.5950222485702632
0,0.3222215660991129,4.976972431969894,6.927752534107651,-0.0900801580081737,-1.590022178825528
0,2.6425863925334436,3.306730900440722,-0.5622591540831022,-0.8503847558172438,-1.5850221090807928
0,-1.3170521060940792,-5.513512702900192,1.387725765602597,-5.140692176872711,-1.5800220393360611
0,5.99330606756378,0.5362416239954668,2.0177072931759694,-4.631002418262419,-1.575021969591326
0,11.023660910623644,5.42599388322099,3.3176854285024593,1.3886845232393066,-1.5700218998465907
0,-5.175987580238269,3.8957440768078753,1.3776601712530299,1.1783686511174007,-1.5650218301018555
0,-1.6056394087495047,-0.4545077934825805,0.0076315208854482175,-0.22195003107733569,-1.5600217603571203
0,4.264705421258232,0.1452382738450574,-0.43240052328148837,2.557728480146751,-1.5550216906123886
0,3.265046905947866,1.9249822801577627,-3.062435961956009,0.5474041881853092,-1.5500216208676534
0,-5.6446149586478445,1.474724226749828,-8.652474795710065,1.797077096317513,-1.5450215511229182
0,-3.004280176554977,-0.2955358851897204,-11.512517024712839,-5.763252792269984,-1.540021481378183
0,-3.8239487516006885,-2.995798054548484,-2.95256264844314,-0.21358547434095995,-1.5350214116334513
0,-6.693620687251663,-8.746062280124447,-3.1726116656372843,-5.593920946458824,-1.530021341888716
0,1.806704013424476,-5.816328560359351,-6.372664074475783,-0.9542592049063087,-1.5250212721439809
0,-7.272974652283009,-9.696596893101114,-7.65271987267826,-3.984600245674355,-1.5200212023992457
0,-6.262656686751213,-10.57686727545216,-7.122779057407744,-10.494944064420975,-1.515021132654514
0,-9.622342091880725,-4.887139703679266,-10.692841625134205,-10.06529065628378,-1.5100210629097788
0,-10.352030868883288,-7.317414173226956,-8.162907571531282,-13.175640015588924,-1.5050209931650436
0,-4.551723018140517,-3.0576906788486045,-3.1629768914453256,-9.335992135638508,-1.5000209234203083
0,-2.3914185392570495,-1.3079692147638893,-3.283049579023725,-7.426347008669386,-1.4950208536755767
0,11.328882568625666,5.851750225122929,6.09687437200931,-3.5467046259953454,-1.4900207839308415
0,-1.6608196936358286,-3.158532353048587,-4.073205031946941,-3.757064978241417,-1.4850207141861063
0,-3.430525325452308,-2.4588169432106675,-3.1932877845003693,1.9625719444150354,-1.480020644441371
0,1.7697656736375027,-0.2991035392524479,0.9866261208358003,0.22220615201555316,-1.4750205746966394
0,-2.5799466958359534,2.0606078650623263,1.7265366906902484,0.7618376546339112,-1.4700205049519042
0,1.4103375667411213,-1.4596827239810382,1.6064439317081103,3.3214664622708945,-1.465020435207169
0,-0.17938153797850426,1.4500246998761726,4.75634785039825,6.311092584763471,-1.4600203654624337
0,1.0008959906577364,2.5197301428471497,7.476248453000462,9.550716031595481,-1.4550202957176985
0,9.801170153203621,5.069433611022676,10.096145745289027,8.16033681165205,-1.4500202259729669
0,8.191440949886731,10.29913511018952,7.016039732350584,10.62995493303384,-1.4450201562282317
0,12.151708380276805,11.538834645557552,11.355930418452095,12.299570402935958,-1.4400200864834964
0,18.171972442995262,19.048532221424612,15.415817806941252,16.459183227510046,-1.4350200167387612
0,5.892233135480989,8.178227840872017,10.565701900080942,9.72879341169028,-1.4300199469940296
0,2.282490454007363,1.887921505730353,0.14558269899082493,3.3384009591868273,-1.4250198772492944
0,3.8227443940347516,0.5176132169487618,8.865460203904442,6.09800587276118,-1.4200198075045591
0,-4.417005049377617,-1.8526970249086512,1.1753344144763058,0.35760815456524353,-1.415019737759824
0,-13.316757881214901,-2.2730092193348184,-2.7847946700444908,-1.5227921936120699,-1.4100196680150923
0,-2.126514106069264,3.3566766342568095,3.2650729493813038,0.5268048298707091,-1.405019598270357
0,3.3637262720674,-1.6736394634938758,0.234937271730976,-7.453600773304268,-1.4000195285256218
0,-2.3860367504336013,-1.743957511951499,-5.335201704052435,-15.264009001163059,-1.3950194587808866
0,-3.0858031771151895,3.8557224895311593,0.5046560210331951,-7.3244198510474865,-1.390019389036155
0,-0.6255730114220623,1.3754005415832569,-1.5954895538465323,-2.654833319368858,-1.3850193192914197
0,-6.675346256593761,-5.504923355254415,-7.895638429326809,-14.905249401697672,-1.3800192495466845
0,-1.1651229155861258,3.504750799538396,-1.725790605761472,-6.225668092836314,-1.3750191798019493
0,-2.4349029910362856,-11.465576993389309,-7.855946083091501,-11.496089386711756,-1.3700191100572177
0,-4.964686485281112,-9.465906733054611,-12.486104860725113,-7.816513276316496,-1.3650190403124824
0,-5.544473400345025,-7.396238417831554,-6.9262669373467745,-6.926939753748401,-1.3600189705677472
0,-9.804263737811057,-7.84657204526242,-8.316432310764322,-7.81736881028518,-1.355018900823012
0,-5.564057498650125,-2.206907612115735,-0.29660097797684115,-1.0078004364954163,-1.3500188310782804
0,-0.6938546831710268,-0.9572451145743684,-2.9667729354076715,-8.078234622371184,-1.3450187613335451
0,0.4263447088084954,8.00241545146861,2.6930518208295453,3.8813286425360003,-1.34001869158881
0,4.8965406776495275,6.282074090024578,5.822873294685529,6.860889368908293,-1.3350186218440747
0,-2.603266776353782,2.3417308046816108,3.692691489925829,2.5304475673044484,-1.3300185520993395
0,-5.453077652995493,-0.17861440144650836,1.8225064099504475,0.46000324792340397,-1.3250184823546078
0,4.437108048008548,7.781038474423465,3.1723180578057497,3.239556420649207,-1.3200184126098726
0,4.247290327041297,2.920689434778956,0.9221264362621266,6.059107095131855,-1.3150183428651374
0,0.9074691843647018,3.7803384817188412,1.9119315478726957,5.768655280691862,-1.3100182731204022
0,-6.092355379976165,-6.920014383002515,-3.6682666049545967,5.338200986174553,-1.3050182033756705
0,-5.442183365917183,-2.6603691577027364,-5.048468019803543,-0.17225578008143644,-1.3000181336309353
0,0.8279852269080328,1.409274159499863,-0.7286726940496404,2.3772849898791586,-1.2950180638862
0,-3.54184960079193,-3.641084429283485,-3.02888062476943,0.7168233037915519,-1.290017994141465
0,-4.121687848057289,-1.4514449217875287,0.9309081912001147,-1.5736408307331757,-1.2850179243967332
0,-0.6715295136824168,-5.411807315564285,-2.2393062428269763,-3.6341074061063074,-1.280017854651998
0,-5.191374596180406,-1.6121716078909707,5.460476076527972,4.805423585346055,-1.2750177849072628
0,1.5587769061979952,0.12746220424867216,3.510255152566595,-2.4050478486377678,-1.2700177151625276
0,0.7889249953909556,1.2070941240602338,-0.4599690116410485,0.9144782996565655,-1.265017645417796
0,-0.5709303266052358,-1.5732758452030762,-4.7301964132352055,-5.095997962056843,-1.2600175756730607
0,0.6492109421782617,5.456352299679746,1.3895729506518628,-6.096476625904585,-1.2550175059283255
0,-0.730651196305524,-0.6240214381720287,1.4093390830051427,-7.686957683640527,-1.2500174361835903
0,-0.2505167401009208,-5.404397055759951,-4.87089801312505,-8.457441126439143,-1.2450173664388586
0,-7.830385687184426,-5.924774550017341,-5.881138334593685,-0.6179269448033778,-1.2400172966941234
0,-1.7602580353063448,-4.6951539175259995,-5.831381877939027,-1.2984151286808445,-1.2350172269493882
0,0.40986621811857304,-1.5355351543920917,-3.3916286392138293,-5.258905667680559,-1.230017157204653
0,-4.970012924048527,2.4040817436496913,-0.7918786139953248,0.2006014488290324,-1.2250170874599178
0,-0.7798954587430376,0.40369678100988204,-0.5821317975384188,1.6701062316934432,-1.2200170177151861
0,-2.7597813826834723,3.953309962043898,4.917611815033282,-1.2103913081479127,-1.215016947970451
0,2.5803293076104317,-1.2270787090460287,-2.022647771447779,-2.2908911597453425,-1.2100168782257157
0,6.660436615666832,3.9025307717797233,3.627089447715446,8.598606687856549,-1.2050168084809805
0,4.910540544796183,-5.1378615915570105,-0.4931765229078517,4.098102245480893,-1.2000167387362488
0,6.070641097865864,-2.7582557951293794,1.72655432114128,6.507595523562165,-1.1950166689915136
0,8.440738277186814,7.691348165110368,3.896281984196844,7.0970865319863226,-1.1900165992467784
0,7.8208320844331665,11.630950293153845,10.656006470359554,5.766575280042761,-1.1850165295020432
0,0.810922520598742,-1.2194494074660107,-0.024272216708391525,-1.6139382235527577,-1.1800164597573115
0,-0.1989904138692496,-11.049850933713763,-3.224554073821042,-5.964453970432233,-1.1750163900125763
0,0.35109328120658656,4.259745717402334,5.905160901968228,-3.0849719521888397,-1.170016320267841
0,-0.5888263940594948,4.5793405491057895,7.144872713472869,1.534507839873413,-1.1650162505231059
0,-3.358749439533472,-0.9110664353650476,3.2445813631736216,5.233985414648633,-1.1600161807783742
0,-4.298675854957857,-4.171475232927647,-3.745713146888145,-2.256539219029088,-1.155016111033639
0,-12.328605639761117,-7.471885840457372,-7.776010814861024,-5.757066052442528,-1.1500160412889038
0,-6.438538792789155,3.347701745479425,-4.8063116386625255,-6.997595076747304,-1.1450159715441686
0,2.321524687829445,2.167287528601132,0.6033843842599045,-2.8681262826798037,-1.140015901799437
0,4.021584804446688,-0.09312848734047435,1.573077256824035,-3.8686596604696915,-1.1350158320547017
0,3.90164155944054,5.216453701260608,5.272766982016476,-3.429195199923721,-1.1300157623099665
0,-0.17830504506971373,7.836034097767494,1.9824535626424642,0.5502671094846114,-1.1250156925652313
0,0.10174499278469695,2.835612705133081,1.032137001216796,2.829727278489894,-1.1200156228204996
0,7.001791674714368,9.415189525770664,6.011817299982968,5.519185317810804,-1.1150155530757644
0,2.3618350022223913,8.624764561486005,5.221494460888729,5.138641237904038,-1.1100154833310292
0,-2.06812502349226,2.2343378134001215,7.191168485452905,8.298095048776414,-1.105015413586294
0,-2.198088401422419,-6.336090717942259,4.520839374648794,3.267546759875218,-1.1000153438415587
0,-4.0480551305074455,-1.6565210321822794,1.500507128903906,-0.08300361989564697,-1.095015274096827
0,-2.058025209459767,-4.936953128765095,1.9101717482263525,3.7764439179948086,-1.0900152043520919
0,3.0220013632542173,4.912612993154711,1.709833232356245,6.155889381823085,-1.0850151346073567
0,10.882024589215758,5.55217733452904,3.7594915808388336,9.545332779498464,-1.0800150648626214
0,6.852044469662027,7.07173989608198,3.62914679298425,7.764774118337048,-1.0750149951178898
0,5.412061005174798,8.311300678022835,3.428798867805112,6.994213404900231,-1.0700149253731546
0,3.1820741956476755,5.720859679900013,-1.2715521959973257,8.853650644971484,-1.0650148556284194
0,-3.027915959513775,1.6004169006032518,-1.7919063999163645,-2.2269141563698023,-1.0600147858836841
0,4.582090538851588,-1.1900276614647016,1.5577362545300093,-0.907480994524964,-1.0550147161389525
0,2.752093689778092,8.849525991827457,7.80737576581377,4.87195013491778,-1.0500146463942173
0,-4.827906507852396,-2.7209221416198366,0.23701213221010703,3.9413792362646225,-1.045014576649482
0,2.902089944748491,8.118627935807595,4.556645351647105,6.630806313540242,-1.0400145069047468
0,-0.4679169536164346,0.7381762214120845,-0.013724578263813042,1.490231370343223,-1.0350144371600152
0,13.592072795778396,6.227722712156492,4.825902339837754,5.859654409831313,-1.03001436741528
0,8.562059191251059,4.867267404614313,4.345526103056971,3.6290754347587946,-1.0250142976705447
0,1.442042230401714,3.456810294923875,-3.3648532917892267,-3.9615055524770084,-1.0200142279258095
0,-0.037978089849340424,-2.0536486211810763,-5.945235848043865,-4.7220885496351235,-1.0150141581810779
0,1.8319982270681696,1.1758906517925052,-1.8856215689035434,-0.1726735543405897,-1.0100140884363427
0,4.061971177567346,1.9654281092582824,-2.6360104572324348,1.6667394360248038,-1.0050140186916074
0,-3.2680592420929164,-5.03503625340077,-3.3264025155743773,-2.7938495758010173,-1.0000139489468722
0,2.2219069642205733,-0.7755024407626346,-1.8767977462035306,-2.6244405870222507,-0.995013879202137
0,0.841869792589491,-1.0159704572508412,-7.167196151106568,-2.685033594701689,-0.9900138094574054
0,-7.488170760902639,-5.766440307090842,-8.177597731881516,-6.465628595643198,-0.9850137397126701
0,-0.8882147000525411,-9.616911994222013,-8.738002489544494,-2.59622558629698,-0.9800136699679349
0,-1.3282620283854383,-5.197385522077832,-4.358410424389703,-6.366824562696294,-0.9750136002231997
0,0.8416872508081952,-6.147860893429555,-4.258821536016274,-5.877425520413276,-0.9700135304784681
0,-2.2883668656514193,-8.34833811038963,-5.8392358234619595,-2.728028454525016,-0.9650134607337328
0,-1.4084243808735886,-9.258817174400548,-2.6896532852916364,2.961366640324135,-0.9600133909889976
0,-1.3984852978532383,-5.829298086157048,-5.660073919626469,-2.6892402302828162,-0.9550133212442624
0,-0.7585496194438379,-3.6797808456117527,-2.4704977241682857,-7.919849060656142,-0.9500132514995308
0,-4.868617348352921,2.6397345478466283,-2.1909246962371123,-8.50045984481876,-0.9450131817547955
0,-3.908688487074275,-1.050751904896524,-1.6813548328467787,-3.26107257623013,-0.9400131120100603
0,-10.538763037738796,-2.561240202885788,-2.051788130780518,-5.331687247716247,-0.9350130422653251
0,-11.098841001884772,-1.911730345094785,-7.812224586595411,-0.2323038516007057,-0.9300129725205935
0,6.251077619688936,7.687777669604648,5.677335803435083,11.807077620055214,-0.9250129027758582
0,-3.9190071732571843,-0.12271615770566736,-1.8231069567419893,-0.5935428249368161,-0.920012833031123
0,-8.839095380708274,-7.593211826114794,-8.733552863086933,-11.47416517907327,-0.9150127632863878
0,-9.739187002316235,-5.353709334664501,-8.114001911323651,-4.594789434807954,-0.9100126935416561
0,-9.359282037058104,-2.1142086820202146,-10.614454096583449,-4.045415584096469,-0.9050126237969209
0,-3.6193804830677583,-3.7547098663913645,-4.544909413191863,-2.946043618327277,-0.9000125540521857
0,-4.79948233772564,-1.765212885631866,-4.41536785469836,-4.99667352845747,-0.8950124843074505
0,-4.329587597853685,-4.035717737306308,-8.49582941401858,-8.917305305032336,-0.8900124145627188
0,-9.289696259787661,-1.4662244187040994,-12.626294083449025,-12.267938938028095,-0.8850123448179836
0,-1.2298083193341962,-1.406732926856068,-3.4567618545114627,-2.1885744166434664,-0.8800122750732484
0,0.17007622820275958,-1.1472432585903432,3.792767282028673,-2.1992117293135793,-0.8750122053285132
0,-4.070042612161883,1.1922445893981999,-1.437706664193,-1.029850863982199,-0.870012135583778
0,-1.9801648352231385,-0.4382693795270907,-1.8281836834716336,-1.660491808348679,-0.8650120658390463
0,-9.200290435516889,-1.4087851619897889,-1.5686637660667029,-4.421134549941037,-0.8600119960943111
0,-15.050419407096665,-3.5893027545649283,-10.689146902057619,-11.921779076007661,-0.8550119263495759
0,-7.440551743191876,-3.529822153662664,-3.1696330811303786,-4.832425373268438,-0.8500118566048407
0,-4.590687436038355,-2.8803433554210827,-4.360122292429984,-7.523073427727702,-0.845011786860109
0,-4.190826477040882,2.7291336442987357,-4.560614524582045,-1.1137232247049607,-0.8400117171153738
0,-1.9609688570489354,-6.681391150175773,-0.7711097657930468,1.0256252509645338,-0.8350116473706386
0,-4.46111456652677,-4.451917734336404,-0.38160800395754174,1.8649720146658502,-0.8300115776259034
0,1.6787364043615125,2.0975538966168865,-1.902109226782915,5.19431708173858,-0.8250115078811717
0,-2.9714159343359032,7.147023747696636,1.1373865781229666,7.493660467266158,-0.8200114381364365
0,7.488428427516002,11.76649182374387,4.97687942317703,9.8830021858482,-0.8150113683917013
0,7.908269499916612,9.645958128969069,9.926369320624499,10.302342251367662,-0.8100112986469661
0,3.688107292439228,8.785422666676451,8.095856282217891,11.811680676811411,-0.8050112289022344
0,4.187941814088004,9.174885439219242,9.115340318968881,9.131017474159266,-0.8000111591574992
0,4.647773073364847,5.904346448063507,10.73482144103272,10.57035265436191,-0.795011089412764
0,4.107601078340938,6.923805693881256,12.984299657634404,9.219686227372726,-0.7900110196680288
0,6.907425836652104,8.593263176630964,11.493774976949297,11.269018202172242,-0.7850109499232971
0,12.277247355402555,12.432718895533885,11.09324740601408,11.968348586742648,-0.7800108801785619
0,14.18706564093039,11.882172848917863,10.682716950728459,12.997677387996553,-0.7750108104338267
0,9.036880698531903,7.281625034071039,5.6921836159339865,6.627004611720403,-0.7700107406890915
0,5.566692532389708,5.951075447279403,7.151647405558081,8.936330262650399,-0.7650106709443563
0,10.106501145738958,-3.679475915925007,5.511108322786508,5.9556543446385755,-0.7600106011996246
0,8.256306541008543,-8.310029060337307,4.760566370176739,5.264976860791702,-0.7550105314548894
0,-0.32389128013102,-2.6605839905878,-0.21997845023958948,5.884297813577015,-0.7500104617101542
0,1.6959076834059243,1.2388592891060295,4.459473863197581,3.9736172049034915,-0.745010391965419
0,4.495703432386903,4.878300774790104,6.168923311858386,1.3629350361941233,-0.7400103222206873
0,7.595495967318952,5.4977404624268305,7.8083698967299995,8.702251308467208,-0.7350102524759521
0,4.655285288291665,4.9471783476235585,8.17781361822748,7.571566022297956,-0.7300101827312169
0,7.285071394839287,5.786614425504274,7.06725447605987,3.1408791776854614,-0.7250101129864817
0,0.8748542859326227,6.036048690671253,6.4766924692000725,2.4301907740395676,-0.72001004324175
0,11.77463396002237,4.315481137187761,1.4661275959469624,1.1895008103512563,-0.7150099734970148
0,-0.10558958496523049,3.694911758598324,1.165559854101318,-0.5311907146241858,-0.7100099037522796
0,7.004183648362864,7.994340547968867,8.724989241124629,5.128116197726449,-0.7050098340075444
0,2.3739536569243476,-2.706232502089759,5.054415754119788,-2.722578454114782,-0.7000097642628127
0,-2.096279562732738,-1.1568073993015087,1.2438393897027433,2.52672532820306,-0.6950096945180775
0,5.343483985701165,-0.2873841514799701,3.113260144034233,1.976027542934696,-0.6900096247733423
0,8.15324429833393,7.532037233582999,4.982678012949683,8.545328188178996,-0.685009555028607
0,3.97300137088906,4.901456747937109,1.2220929919803667,3.224627261687326,-0.6800094852838754
0,2.6327551985642943,5.650874383217043,1.0115050763541598,2.9839247607411528,-0.6750094155391402
0,0.9725057761100522,0.9802901305535516,3.2509142610716815,1.2332206822024463,-0.670009345794405
0,1.1122530980053555,3.2497039806618853,2.620320540941699,0.8625150226597962,-0.6650092760496698
0,-4.218002841398759,2.3291159239608046,2.8497239105393875,-1.4981922214497436,-0.6600092063049381
0,-6.438262047686388,3.248525950615134,-2.7408756357932247,-0.07890105372913306,-0.6550091365602029
0,0.7514754738281748,-2.732065949442311,-1.6214781038246835,-0.40961147775271733,-0.6500090668154677
0,-3.7887902818298875,-9.512659786350019,-3.4120834992490026,-4.970323497020237,-0.6450089970707324
0,-4.829059319361552,-12.333255569932955,-2.992691827550397,-3.4010371148618215,-0.6400089273259972
0,-4.409331643163432,0.7261466906744838,-3.61330309393629,-4.631752334307838,-0.6350088575812656
0,-7.039607257215539,-1.5844530129722383,-2.11391730331268,-6.502469157985511,-0.6300087878365304
0,-6.019886164991326,-7.515054688901134,-8.274534460256952,-4.873187588053202,-0.6250087180917951
0,-7.300168369377871,-12.195658344767022,-15.705154568865705,-4.973907626149642,-0.6200086483470599
0,-11.240453872598131,-10.596263987555934,-12.885777632399696,-7.744629273379281,-0.6150085786023283
0,-15.700742676048376,-5.806871623320673,-10.766403652952414,-6.005352530282643,-0.6100085088575931
0,-16.081034780020588,-6.747481257203351,-13.747032631366599,-7.136077396776347,-0.6050084391128578
0,-7.111330183481701,-11.128092893568402,-10.297664567286857,-10.836803872099695,-0.6000083693681226
0,-10.761628884118533,-8.838706536004006,-10.638299459197283,-8.167531954723572,-0.595008299623391
0,-4.231930878585667,-7.949322187227592,-5.638937304513813,-4.458261642287241,-0.5900082298786558
0,-3.5922361627478314,0.07006015087064554,-4.239578099764777,-2.288992931701091,-0.5850081601339205
0,-4.492544731894421,-3.590559523005668,-2.850221840830993,-2.299725819377932,-0.5800080903891853
0,-2.752856580888946,-0.9311812098143466,-6.95086852312518,-2.2004603014200805,-0.5750080206444537
0,-0.183171704250371,0.1581950896852372,-4.86151814161789,-5.661196373674103,-0.5700079508997185
0,-0.6834900962558161,-7.762430625101049,-5.652170690780108,-4.791934031670012,-0.5650078811549832
0,-3.383811751045596,-5.673058354505097,-2.7328261645613274,-3.8026732705225808,-0.560007811410248
0,-8.524136662578972,-4.283688098409757,-5.893484556443237,-1.9434140849174455,-0.5550077416655164
0,-8.524464824414093,-5.144319856166219,-5.794145859462137,-6.914156469158595,-0.5500076719207811
0,-9.704796229444733,-3.4549536266380265,-2.5348100661808433,-3.204900417171371,-0.5450076021760459
0,2.524869130197077,-4.345589408251024,2.054522831259863,-2.385645922463915,-0.5400075324313107
0,5.584531262896271,2.9937728009340767,6.873852840894741,2.0636070217972233,-0.5350074626865755
0,7.24419017705421,8.45313300300667,10.943179970548265,13.662858422519964,-0.5300073929418438
0,3.093845880670492,2.3524911998528952,-0.057495772507872855,2.0421082862694373,-0.5250073231971086
0,4.663498381225012,6.761847392905248,4.081825618396358,5.661356618991102,-0.5200072534523734
0,8.52314768570827,8.841201583068147,6.801144149481275,3.580603426051614,-0.5150071837076382
0,9.362793800559007,4.520553770646846,6.130459826552434,0.6698487123855899,-0.5100071139629065
0,9.032436731485294,14.049903955250027,8.759772654863939,4.689092482602588,-0.5050070442181713
0,3.422076483378447,9.089252135666172,7.2090826389982405,1.8283347410411264,-0.5000069744734361
0,-0.008286939562830997,1.1685983097790367,2.878389782835525,0.09757549178371844,-0.4950069047287009
0,0.6713464664527167,2.7979424747244734,-1.9923059103180616,-6.7631852612322785,-0.49000683498396924
0,0.5609767050605801,4.297284627194678,-2.703004437423827,-2.7439475139639655,-0.48500676523923403
0,1.3606037798279556,-1.8933752363965994,-5.053705795388007,-5.324711262037458,-0.4800066954944988
0,-2.3097723057339676,-7.634037119776361,-6.814409980823402,-8.155476500634574,-0.4750066257497636
0,2.919848451857895,-3.724701026514794,-5.225116989881712,-5.60624322440176,-0.47000655600503194
0,-6.0005339439014875,-8.195366959742472,-11.225826818131097,-11.787011427333187,-0.4650064862602967
0,0.7090805105672369,-3.3560349220373342,-3.0365394604600606,-3.85778110267529,-0.4600064165155615
0,1.708691818977746,0.10329508454102149,1.71274508888603,-3.2885522429460914,-0.4550063467708263
0,4.488299985076578,0.3526230582727055,-0.6579731639610072,-3.429324840097645,-0.45000627702609464
0,3.85790501243448,-1.188051002435063,1.0913057872200351,0.9199011142787177,-0.4450062072813594
0,-5.36249309564885,-5.03872709911138,-6.029418051338814,-4.410874371172901,-0.4400061375366242
0,-4.02289433597886,-7.4394052330823115,-3.7501446732687853,-4.521651287604986,-0.435006067791889
0,-1.5932987051788063,-2.6500854052661866,4.199125928060398,-0.4724296258966739,-0.43000599804715733
0,-10.07370619951835,-12.530767616038496,-5.471606240511754,-10.693209376583171,-0.4250059283024221
0,-10.854116814767156,-6.881451865119243,-9.072341171982211,-1.5739905297771881,-0.4200058585576869
0,-6.4945305459584155,-5.332138151461115,-9.083078858951556,-6.044773075084104,-0.4150057888129517
0,-1.304947387308764,-5.152826473282073,-6.033819293324304,0.26444299835489504,-0.4100057190682165
0,-4.575367332412695,-2.703516828220515,-3.804562466247887,-10.76634229821608,-0.4050056493234848
0,-2.3757903744650624,-0.9342092134827487,-1.865308368268502,-9.627128953087196,-0.4000055795787496
0,-7.296216506321326,-1.0049036259893818,-10.506056989482966,-6.837916953847507,-0.3950055098340144
0,1.8733542795346598,-4.585600062477553,0.8631916804603945,-6.438706287267273,-0.3900054400892792
0,-1.907078009060632,-5.816298519461879,-2.127562347641831,-3.5494969393909916,-0.3850053703445475
0,-0.16751336410161521,-7.606998993070228,-4.258319062680253,-4.290288895688515,-0.3800053005998123
0,4.5120482224641245,-1.1277014789092346,-1.6990784533111283,0.6189178587988478,-0.3750052308550771
0,5.991606758582198,-1.9884059720979863,-1.2798405079381538,-0.3518766607012369,-0.3700051611103419
0,6.241162251866586,-1.4691124674360814,0.159394785243122,-0.0026724388490869666,-0.3650050913656102
0,5.470714709417108,4.700179040429276,3.2386274381269193,-1.9034694602692137,-0.360005021620875
0,4.000264137775744,4.679468556818927,0.8278574625606885,-1.8642677095230615,-0.3550049518761398
0,0.40981054299423014,-1.4312439131775503,2.137084870243266,-2.3150671710418917,-0.35000488213140457
0,-2.4306460691862384,6.918041635247101,-2.523690327273431,-1.3958678290767317,-0.3450048123866729
0,-3.161105693091347,3.7873252066181973,-1.3744681184837866,-4.016669667678986,-0.3400047426419377
0,-0.20156832291676702,-4.323393194852263,-3.5952484917938246,2.622527329301428,-0.3350046728972025
0,6.6579660472821764,-0.3541135651415183,-0.06603143542244039,4.501723178115422,-0.33000460315246727
0,10.587497423319181,-0.09483590019496091,2.7231830625775326,-2.929082105063037,-0.3250045334077356
0,2.3770258105178765,-3.955560195835605,4.36239501415759,-4.779888504167587,-0.3200044636630004
0,6.396551213558671,0.8637135522421273,1.8516044310758852,1.119303996961523,-0.3150043939182652
0,12.116073636504687,3.2329853484526407,5.730811324786014,8.11849541462532,-0.31000432417352997
0,4.785593082742195,3.652255197174462,3.5500157063906954,3.0276857650021234,-0.30500425442879475
0,10.295109554861455,10.161523102520093,10.769217586557057,8.466875063850246,-0.3000041846840631
0,6.264623054659319,2.640789068121379,9.688416975352862,6.556063326366324,-0.2950041149393279
0,12.694133583132626,8.530053097014488,13.637613882010639,8.535250567102835,-0.29000404519459266
0,9.333641140405721,9.239315191604351,13.256808314713892,9.59443679988266,-0.28500397544985745
0,10.973145725628696,5.008575353604226,7.076000280479308,6.813622037730195,-0.2800039057051258
0,10.152647336935642,7.877833583994104,6.835189785234478,3.022806292887376,-0.2750038359603906
0,1.312145971499656,4.4470898830770125,3.3943768340554277,3.4919895769667146,-0.27000376621565536
0,-2.018358374221461,0.956344250574866,0.7035614314288683,2.5211719011452924,-0.26500369647092015
0,-3.4388657040603277,-0.9144033141923832,-0.7272564185039859,4.320353276270334,-0.2600036267261885
0,-2.249376021773783,-2.2151528120605075,-4.598076711708326,4.17953371286146,-0.25500355698145327
0,-0.0598893308966186,-1.3259042438204864,-3.138899444026184,0.48871322109563,-0.25000348723671806
0,-3.6304056347602396,3.6133423898450974,7.480275388908993,9.777891810803427,-0.24500341749198284
0,-0.9609249365259871,6.7425870882316365,10.509447791451763,14.117069491345177,-0.24000334774725118
0,1.8685527608070212,-0.11817014961458092,-1.5413822324610122,0.9362462713387574,-0.23500327800251597
0,8.468027454263895,7.531070674983696,4.957785320568772,6.765422158579693,-0.23000320825778076
0,7.017499140598824,9.920309560277214,13.026950453495166,12.014597160188286,-0.22500313851304554
0,4.676967816019846,9.419546503905892,11.896113168672866,13.00377128255794,-0.22000306876831388
0,2.306433476129309,2.748781502717135,6.505273467542688,7.142944531112521,-0.21500299902357867
0,2.12589611607051,2.3780145528458903,4.35443135057546,1.0821169102859534,-0.21000292927884345
0,5.465355730658911,-2.3527543500063084,4.883586817502439,10.041288423774782,-0.20500285953410824
0,9.14481231435967,7.636474789661321,11.382739867474873,12.080459074664295,-0.20000278978937303
0,-1.5057341388413237,-1.2442980328174593,0.31189049904138394,7.019628865265949,-0.19500272004464136
0,-10.306283635338287,1.4249271776763257,-6.408961289779024,-1.6312022029624136,-0.19000265029990615
0,-11.436836181407202,-2.3558495838840976,-7.089815501085858,-4.382034129106274,-0.18500258055517094
0,-10.367391782622516,-9.556628322479247,-8.88067213659557,-5.402866912299355,-0.18000251081043572
0,-10.067950443569432,-10.017409042735869,-10.921531197328523,-7.143700551341551,-0.17500244106570406
0,-5.898512167830979,-0.4181917486370312,-3.832392683479372,-1.6845350445346239,-0.17000237132096885
0,-11.969076958083706,-8.338976443492292,-9.813256594431449,-6.275370389681305,-0.16500230157623363
0,-11.889644816116517,-9.369763130032636,-10.724122928804032,-6.436206584125646,-0.16000223183149842
0,-10.410215742724104,-7.9505518103378705,-7.534991684391368,-6.047043624703662,-0.15500216208676676
0,-15.03078973759391,-9.801342485685462,-9.905862858089705,-3.5078815076829626,-0.15000209234203155
0,-3.5213667992820934,0.11786484345351061,-2.396736445942351,1.661279771157154,-0.14500202259729633
0,-1.5119469253774551,0.927070177208587,-2.397612443310177,0.09044021631255428,-0.14000195285256112
0,-1.9325301128598888,5.136273515938281,3.3115091548590314,4.349599832312171,-0.13500188310782946
0,-6.343116358392616,5.705474859864062,1.6006283537343506,6.078758623519123,-0.13000181336309424
0,2.556294341630584,6.764674208816684,-2.2102548415900163,4.557916593949432,-0.12500174361835903
0,-3.8742980089356736,5.243871562090217,1.9188595738985983,-0.23292625281803783,-0.12000167387362382
0,-5.09489340604033,5.483066918401526,3.297971605167212,4.446230086431559,-0.11500160412889215
0,-11.1054918453192,1.5822602759320534,-7.632918742876532,-1.484614385323505,-0.11000153438415694
0,-10.566093321811369,-3.4185483675222,-1.5438114652847268,-0.11545966525436911,-0.10500146463942173
0,-2.026697829731385,-4.449359014279602,-1.3447065568748344,2.343694249404411,-0.10000139489468651
0,0.7826946374377473,-1.8601716664847854,3.764395987766652,1.2228473613666364,-0.09500132514995485
0,0.6220840865888584,3.3490136739782375,3.433496174072328,0.34199967324075586,-0.09000125540521964
0,-1.1985294753074722,5.038197005310553,1.2825940072912307,-2.9488488124558203,-0.08500118566048442
0,-7.309146041237128,7.557378325493712,-5.6483105075357525,-2.50969809317599,-0.08000111591574921
0,-4.3297656039568935,-1.7134423679175899,-1.1792173653745972,4.059451833757057,-0.075001046171014
0,-3.920388155801919,-0.2742650777446394,-1.230126561003369,-1.0613990289126867,-0.07000097642628234
0,-6.601013688629812,-2.645089806938427,0.528961911002165,-3.7022506784601843,-0.06500090668154712
0,-8.971642193787806,-1.2759165583712273,1.8880480561478858,-0.40310311211424643,-0.06000083693681191
0,-8.812273661988757,-1.2167453347642887,-2.4928681200722016,0.6660436730393632,-0.055000767192076694
0,-5.612908083183171,-2.8175761386783478,0.39621338781806614,-0.6648103199862774,-0.05000069744734503
0,-2.7035454465912405,-0.6684089725101919,-7.7547074146229855,3.1743349118276196,-0.04500062770260982
0,-0.24418574088775657,1.1207561614930426,-0.3856305216134188,2.1934793714180105,-0.040000557957874605
0,-5.984828954418031,-3.2800807388225195,-4.3165559270446305,-3.6873769384111283,-0.03500048821313939
0,-5.395475075239436,-2.4609196755237788,-6.427483624466353,0.75176598507514,-0.03000041846840773
0,-7.336124090992352,-9.121760650465141,-3.588413607032411,-0.7490918553406448,-0.025000348723672516
0,0.013224011205140274,-1.1126036651090225,2.20065413251687,5.530049543159803,-0.020000278978937303
0,-6.337430755289481,-6.773448720436512,1.1697196016969575,-0.05080981671105528,-0.015000209234202089
0,-2.6880883767379444,-1.4542958169778768,-1.9812171919490347,-0.7716699324209981,-0.010000139489470428
0,-3.66874883903858,-4.955144954866514,0.917843759090673,0.13746919845158756,-0.005000069744735214
0,-3.4594121277263774,-5.445996133857865,-4.373097537636325,-6.053392421642743,0.0
0,2.8599217719684775,2.653150646666355,1.2059589255233611,-11.594254790021013,0.005000069744735214
0,-6.180747124984389,-6.347704612372144,-3.304986843636632,-13.94511790341197,0.010000139489466875
0,-6.3914188034235035,-11.158561909763957,-4.4059348371586164,-14.405981757545304,0.015000209234202089
0,-8.302093247803565,-7.999421243778683,-11.216885046790372,-17.25684634686744,0.020000278978937303
0,-6.8327704419699,-5.820282611909362,-11.647837463703306,-12.767711664388964,0.025000348723672516
0,-6.733450369063961,-2.7311460108880183,-6.67879207820467,-7.808577701698388,0.03000041846840773
0,-3.7941330115491363,1.6679885630844646,-3.5197488796959453,-3.3794444491954265,0.03500048821313939
0,2.8251816486502177,0.06712111405711951,4.689292143078012,-0.15031189649852866,0.040000557957874605
0,0.13449362988285185,-5.88374835384695,0.6583310016136192,-0.16118003282947396,0.04500062770260982
0,5.58380295049195,2.015380163601307,5.827367707313463,-2.1720488472566153,0.05000069744734503
0,-0.016890371368087687,4.834506670754459,0.6764022713153481,1.817081671222529,0.055000767192076694
0,3.2724136822156433,2.00363117190501,0.5154347044807766,3.666211533629741,0.06000083693681191
0,6.351715128901254,1.0227536711006866,-0.9355349825061967,1.4853407508749696,0.06500090668154712
0,3.321013986016033,2.091874172147482,5.8234932209535755,4.36446933363948,0.07000097642628234
0,2.910310270480789,-4.85900732128428,4.332519325311449,6.733597292303241,0.075001046171014
0,2.1896039988331566,7.470109194434464,6.251543340679506,7.092724636822192,0.08000111591574921
0,-5.071104812635419,1.4192237228619802,-0.7694347232712088,4.631851376588876,0.08500118566048442
0,-5.75181614764758,-6.651663732604031,-8.280414857169937,-8.239022479515683,0.09000125540521964
0,-3.6725299896477037,-2.702553168591799,-1.7613970515830115,-5.239896922761755,0.0950013251499513
0,-7.163246321628534,-7.093444581457965,-5.972381296715696,-3.2507719441263623,0.10000139489468651
0,3.5960348738766372,-3.5643379671121562,-0.2233675823554197,-2.8516475341260223,0.10500146463942173
0,2.935313614613177,1.644766678977938,0.025644102027687743,-1.452523682903763,0.11000153438415694
0,-0.8454100816725841,-1.4361306383673182,2.264653767112293,-4.8434003803213,0.1150016041288886
0,9.7438638025744,11.102970085709945,7.05366142352104,3.3957223840001274,0.12000167387362382
0,-1.4468647153804972,2.402068855816225,4.852667081592108,2.674844620566891,0.12500174361835903
0,1.382404381399929,-1.3088343238723517,-0.9083292487598404,1.0339663398203642,0.13000181336309424
0,0.46167110963812674,-5.439739449464901,-6.959327557921185,-1.4369124479679352,0.1350018831078259
0,0.25093548596949444,-2.920646516997756,-4.72032783620666,-0.8777917326100271,0.14000195285256112
0,0.3701975269787816,-3.271555522201363,-3.641330073547098,-1.4686715038748748,0.14500202259729633
0,3.2394572491933307,6.747533539480728,0.5876657405589369,-1.1895517514285658,0.15000209234203155
0,6.518714669000736,5.196620672631955,6.046659616852603,-4.590432464797094,0.15500216208676676
0,1.927969802486294,-2.094294118426725,5.215651565991699,-0.08131363330855546,0.16000223183149842
0,5.397222665339149,-1.815210829646119,-0.9153584017008551,3.0378047538982895,0.16500230157623363
0,3.2564732728461223,-6.216129456986954,-5.186370276188731,1.9269227077196147,0.17000237132096885
0,0.12572163993274432,-5.577049996138337,-0.6373840474370255,-2.443959761060208,0.17500244106570406
0,5.124967781225163,-1.667972442359638,0.3016002947838602,5.295157358225327,0.18000251081043572
0,-0.6957882888858359,-3.708896790481027,-1.9194172391378415,3.5642740761178215,0.18500258055517094
0,4.2834534437708065,2.210176964979364,1.2395633612621513,5.3633904028926995,0.19000265029990615
0,3.3026929931418083,4.31924882963238,5.158542106453621,6.772506348408337,0.19500272004464136
0,-1.7480696270675389,9.418318808946864,5.947519006742677,0.14162192204281687,0.20000278978937303
0,-0.8288344033238357,-2.962613092008606,-2.2535059279014886,0.7107371327689848,0.20500285953410824
0,-6.079601322079562,-6.6735468685163815,-4.694532687777102,-0.19014801066262424,0.21000292927884345
0,-4.35037036956024,-11.554482515771998,-4.555561263134182,-1.9110334995531915,0.21500299902357867
0,-10.76114153156702,-13.58542002834931,-10.346591643858087,-1.3219193251629624,0.22000306876831033
0,2.288085206660169,-6.146359399850706,-2.947623819271531,0.46719452135043105,0.22500313851304554
0,-2.14269013962787,-3.547300622889439,-1.9486577780942298,1.4163080489020234,0.23000320825778076
0,-6.363467554881539,-4.8682436893372945,-2.70969350859552,-3.2845787335784817,0.23500327800251597
0,-2.324247023294806,-4.719188590555732,-4.340730998745881,2.084534182849899,0.24000334774724763
0,0.6949714712598998,-7.580135317444834,-2.3917702362308804,4.093646807134887,0.24500341749198284
0,1.0741879451416851,-3.6810838603844775,-4.412811208416454,6.122759148082932,0.25000348723671806
0,-2.8365975852317806,-0.3920342092404836,-4.193853902323815,-5.408128785795778,0.25500355698145327
0,4.132614896562313,4.727013646449022,8.635101695320108,1.960983013791414,0.2600036267261885
0,4.721825406887799,-1.713940282808437,0.30405559785242064,3.8900945550900525,0.26500369647092015
0,2.051033961894635,3.9151040133720088,3.5730078183935436,4.129205846248941,0.27000376621565536
0,5.720240577389968,11.79414654515747,7.201958369737912,6.178316895121636,0.2750038359603906
0,2.519445268813047,1.793187322287765,2.3209072642991,1.0574277091475777,0.2800039057051258
0,4.858648051225,11.382226353873058,4.089854514058834,5.266538295357287,0.28500397544985745
0,11.747848939250884,15.18126364827824,8.1488001305665,12.345648660364981,0.29000404519459266
0,0.0270479469577648,8.280299212916088,4.187744124897856,9.07475881017234,0.2950041149393279
0,-1.2237549121445235,1.7193330541451193,-1.9033134923731236,0.9838687499683743,0.3000041846840631
0,-0.22455962482997305,-0.5516348224565658,-2.164372710989054,6.172978484217609,0.30500425442879475
0,2.824633822086564,-0.3026044116517699,2.5145664792641487,7.222088016857149,0.31000432417352997
0,-1.8361745582283813,-6.3935757082300855,-3.1364959113444053,5.121197351311648,0.3150043939182652
0,3.2430152473256575,-6.394548706771636,-3.0275598724760524,1.5803064904529558,0.3200044636630004
0,-0.917796748223218,-3.8255234014333266,2.3213746063322542,2.7594154366959445,0.32500453340773205
0,-2.0686105319055557,2.6235002140954036,-4.509692464312021,-3.101475807818642,0.33000460315246727
0,5.630573909232678,-0.11747785360250623,3.479238926293478,-1.0223672410386575,0.3350046728972025
0,2.849756588067886,4.0615424020698025,2.048168788881329,-0.5832588608477378,0.3400047426419377
0,1.7789375172460264,2.0505609875609947,-7.3229028658517565,-7.23415066497462,0.34500481238666936
0,-4.791883290828073,1.8095779090981416,-4.3739760271379975,-6.045042650870677,0.35000488213140457
0,-2.7627058237860127,3.9785931726662858,1.1149493160877826,-9.175934815498394,0.3550049518761398
0,-4.923530069046862,-4.312393215960551,-7.4461268247656776,-12.51682715512052,0.360005021620875
0,-6.734356013663526,-3.9833812510815596,-10.457204437933623,-15.567719665075286,0.36500509136560666
0,-4.975183644217291,-6.254370926810308,-6.548283511087429,-13.158612339521815,0.3700051611103419
0,-7.296012946740962,-13.615362236799372,-10.799364031113763,-21.86950517123748,0.3750052308550771
0,-16.93684390661086,-12.55635517394128,-18.260445983987598,-23.520398151387838,0.3800053005998123
0,-8.797676508309408,-11.277349730081147,-13.291529354540833,-19.77129126923167,0.38500537034454396
0,-12.518510735201119,-14.188345895874116,-10.762614126246556,-16.02218451197638,0.39000544008928273
0,-7.92934656951955,-10.179343660766625,-12.813700281239829,-12.8030778649336,0.3950055098340144
0,-6.840183992488896,-14.130343013002909,-6.784787800476541,-6.703971311851236,0.40000557957874605
0,-6.9810229844756275,-2.831343939679124,-6.655876663895422,-8.604864835284054,0.4050056493234848
0,-2.6018635251419435,1.1176535730203867,-3.836966850622679,-1.6757584169125495,0.4100057190682165
0,-7.382705593571495,4.946649539364771,-4.058058339182246,-5.496652037788205,0.41500578881295525
0,-8.723549168308377,-9.654356026326282,-7.4991511076082995,-5.117545678485651,0.4200058585576869
0,-3.4543942272880743,-12.335363109611418,-5.790245133435993,-2.8384393191424246,0.42500592830241857
0,-4.805240747817655,-4.086371695500141,-3.811340393639336,-1.9193329394869179,0.43000599804715733
0,-5.16608870667276,-1.7373817682356623,-1.5224368646725637,0.9697734810579499,0.435006067791889
0,-6.536938080150921,-3.5683933114887285,-7.473534522581266,-5.3011200367533915,0.44000613753662066
0,5.932211155901238,0.3605936913924075,-0.45463334304120884,-2.052013471995352,0.4450062072813594
0,0.6113590258819588,-9.060420742695827,-0.4557333013822229,2.5870931964720203,0.4500062770260911
0,-4.53949444582336,-12.091436596479909,-8.86683437266026,0.6261999899223949,0.45500634677082985
0,2.679650765138031,3.9375461479295764,-0.07793653164291592,1.7553069295886172,0.4600064165155615
0,4.888794683137248,-1.4534724910061037,0.3909602472395126,-1.9755859633980122,0.4650064862602932
0,6.057937332400331,-5.724492494548402,-0.6901440102247358,-1.2064786679479529,0.47000655600503194
0,4.617078736760009,-7.045513843746518,-2.6112492781760714,0.4626288370821441,0.4750066257497636
0,7.276218919535918,0.32346348074074127,6.857644469284384,4.39173657287717,0.48000669549449526
0,7.165357903481688,-0.3575605013449039,6.536537257959378,7.190844560498411,0.48500676523923403
0,9.09449571070642,-2.468585770045223,5.055429113277415,8.669952820613299,0.4900068349839657
0,10.083632362566755,2.2703876946946395,7.474320060109211,9.739061373245061,0.49500690472870446
0,6.882767879583454,8.499359912917445,12.663210122680997,17.09817023756084,0.5000069744734361
0,13.87190228139074,7.478330904394488,19.532099324355357,15.227279431604464,0.5050070442181678
0,23.76103558658888,19.77730068824261,21.820987687211804,18.27638897202432,0.5100071139629065
0,20.880167812334577,15.54626928250871,20.299875231606233,16.365498873893056,0.5150071837076382
0,15.949298973933097,11.68523670383432,12.078761975976937,14.234609150654638,0.520007253452377
0,9.248429084819076,11.954202967407973,14.777647936988165,9.27371981421481,0.5250073231971086
0,10.10755815690465,8.353168087150227,8.726533129820467,5.722830875188569,0.5300073929418403
0,11.646686200929818,4.53213207593517,4.665417568457484,3.691942343243242,0.5350074626865791
0,9.705813226602467,5.241094945827354,7.854301265969063,6.711054227396118,0.5400075324313107
0,1.1449392426585938,-0.669943291675138,4.533184234731733,4.160166536143493,0.5450076021760424
0,-1.1959357428870048,0.7590173745865965,7.292066486515164,3.4292792774886776,0.5500076719207811
0,3.043188277644487,6.817976955579177,0.07094803252555981,-4.851607540954492,0.5550077416655128
0,0.272311311809591,0.0769354620605911,0.24982888354077992,-4.142493911698458,0.5600078114102516
0,-4.188566632903585,0.5658929045192993,-2.1512909498616977,0.8066201729099003,0.5650078811549832
0,1.1305544510110972,6.994849293213939,2.4775885428778612,-1.3442652792387333,0.5700079508997149
0,-0.8303254288343003,6.233804638131202,5.976467372293811,0.9548497398718332,0.5750080206444537
0,3.558793735230024,-2.707241051147955,2.275345548721719,-0.6160347617035196,0.5800080903891853
0,1.3979119508048616,1.4417122346141171,2.1342230821642603,0.24308122409300548,0.585008160133917
0,3.7770292253205575,0.6406645045192683,4.683099982298549,-1.6578022946665383,0.5900082298786558
0,-4.053854433995207,-1.8403842323585407,-2.958023741463915,-4.2586853098444575,0.5950082996233874
0,4.155260979966136,-1.1714339669363183,2.9808519201058634,-0.6895678131366418,0.6000083693681262
0,-0.8456245257347321,-4.802484690029277,-4.540273023826853,-1.1104497960215538,0.6050084391128578
0,-1.146510944087777,-0.1235363922529637,-8.10139856400347,-2.011331249799099,0.6100085088575895
0,1.1926017318952797,0.7054109359923013,0.10747530914411418,-4.882212165606982,0.6150085786023283
0,-4.738286490763691,1.1843573044100575,-0.6736513944279098,-7.773092534311777,0.6200086483470599
0,-5.349175604902849,-2.2566972773049234,-7.644778664478086,-1.2839723463489132,0.6250087180917987
0,-4.96006560305035,-3.0477527994437708,-1.7059064904968506,6.355148408252904,0.6300087878365304
0,-9.23095647725314,-8.68880925212177,-7.597034861593944,-8.605730260369546,0.635008857581262
0,-8.371848218941901,-9.35986662502596,-13.968163766354317,-12.176608341951939,0.6400089273260008
0,1.5772591811364496,-6.070924907173306,-2.7092931926410264,-1.7474858257534627,0.6450089970707324
0,2.9663657327418402,0.628015913134861,2.099576872440451,-0.5483627003716193,0.6500090668154641
0,9.21547144570512,0.8869558480799407,6.368446442182088,-0.7892389539746258,0.6550091365602029
0,5.664576329504083,-0.86410508999204,-2.3726844701918517,-0.610114574568412,0.6600092063049345
0,-2.226319606926171,-14.10516688863799,-4.483815851639273,-2.9709895500762227,0.6650092760496733
0,-7.057216355003754,-8.516229535013814,-6.5549476890502465,-1.611863868292751,0.670009345794405
0,-8.308113906035725,-3.76729301551411,-9.446079968912791,-3.952737516821008,0.6750094155391366
0,-2.8690122508340434,-0.16835731578088997,1.1627873228673933,3.5763895169446096,0.6800094852838754
0,-2.249911379633937,-1.0794224210151402,-3.7383457990857156,-1.8244827542627866,0.685009555028607
0,-5.300811282238804,-6.250488316202757,-6.909479319789652,-1.8553543176809988,0.6900096247733387
0,0.37828805188148196,0.6084450138848676,-2.960613223909138,3.033774839482663,0.6950096945180775
0,-5.322613366456224,1.1873775847097676,-6.071747495662393,-1.3770952699522636,0.7000097642628091
0,-0.4735155261726688,-1.7336905881476015,-2.102882118810843,-1.197964633181707,0.7050098340075479
0,5.895581584003576,-1.3647594890764003,-3.444017076704275,4.291166762589903,0.7100099037522796
0,1.9846779753354,-5.265829102370274,-0.25515235236649547,-0.34970106988496485,0.7150099734970112
0,0.30377365886131347,-6.916899412066795,-8.966287928545508,-4.570568117938577,0.72001004324175
0,-3.1571313545803674,-5.607970401765813,-4.5874237876377375,-2.7814343688576977,0.7250101129864817
0,-5.23803705413794,5.190957945427771,3.7514400884038777,-0.9122998097070223,0.7300101827312204
0,-9.028943428681181,5.169885646656513,-2.7496962820596362,6.136835572649669,0.7350102524759521
0,1.89014953339445,11.36881271885678,9.539167119369608,15.335971791233014,0.7400103222206837
0,13.859241844040664,10.207739178344095,10.978030310828123,12.465108858429886,0.7450103919654225
0,6.188333515015335,-2.693334959369923,5.736893309845499,12.534246785544052,0.7500104617101542
0,4.037424557404396,4.315590320584166,9.785756133136472,8.683385582653493,0.7550105314548858
0,11.226514981552365,10.744515032684985,12.444618796564313,14.662525258682248,0.7600106011996246
0,10.63560479708222,5.423439190963766,9.793481315068178,15.251665821404135,0.7650106709443563
0,2.4346940127981584,4.492362808809924,0.8523437026145553,10.310807277338267,0.770010740689095
0,7.083782636715069,0.10128589901758989,2.1412059724148444,10.109949631721438,0.7750108104338267
0,-0.3271293237398839,2.470208474001292,1.5500681372755762,8.499092888655898,0.7800108801785584
0,-5.078041861482048,-3.210869454010916,0.43893020980281516,3.3082370513043733,0.7850109499232971
0,-5.778954969444533,-9.38194787277547,-2.4622077975057612,-4.482617877844198,0.7900110196680288
0,2.7301313597148194,0.9269732302300513,0.01665412783868858,-1.413471896570487,0.7950110894127604
0,-10.910782866326723,-13.45410613200692,-11.074484001536584,-9.29432500253601,0.8000111591574992
0,-13.191697639470643,-8.555185945903776,-11.525622172608678,-10.505177192968613,0.8050112289022309
0,-12.102612950859932,-2.8462661971278194,-8.786760371600288,-8.006028464390901,0.8100112986469696
0,-12.143528790535349,-4.997346870611304,-5.1478985838000675,-12.95687881243419,0.8150113683917013
0,-10.784445147347691,-7.128427950726985,-11.599036793630095,-10.797728231742177,0.820011438136433
0,-7.315362009021445,-4.729509421342374,-7.140174984714343,-7.528576715918498,0.8250115078811717
0,-4.466279362313275,-4.540591265780916,-5.251313139869498,-8.559424257571917,0.8300115776259034
0,-9.907197193206136,-15.101673466788405,-8.052451241160046,-10.790270848420962,0.8350116473706422
0,-7.1981154869908215,-8.29275600636739,-9.423589269960194,-4.991116479329388,0.8400117171153738
0,-2.519034228252883,-3.263838865607823,-1.9847272069376274,1.9680388595987464,0.8450117868601055
0,0.5400465990114085,-1.0049220248152129,-1.4058650321314494,1.6271951786968242,0.8500118566048442
0,-3.270872988858736,3.3039945361222145,-2.087002725180878,1.1663524883673804,0.8550119263495759
0,7.668207024592272,15.052910837310453,13.021859734401431,5.1655107988760145,0.8600119960943076
0,5.487286655724108,10.221826898350697,8.590722366856976,3.144670120250354,0.8650120658390463
0,-3.6736340794212463,-5.559257261994814,4.089585191776028,-4.9361695377575225,0.870012135583778
0,-2.8145551650599545,-10.600341625524631,4.1384482280076655,-2.5270081655051073,0.8750122053285168
0,4.324523414586277,-6.181426173878932,-6.702688506099377,1.6221542467711632,0.8800122750732484
0,2.4236016753354876,-3.732510888064434,-0.013824992333438813,2.371317708976391,0.8850123448179801
0,8.072679632829585,4.646404251493635,6.195038787596767,6.360482230950097,0.8900124145627188
0,4.031757302313439,-2.0646807353804593,7.423902851925648,9.349647822211221,0.8950124843074505
0,2.34083469853936,3.174234171128057,3.4927672185009353,2.758814491731669,0.9000125540521822
0,-1.000088164150173,12.7731489906634,5.6116319046289584,5.877982247872198,0.9050126237969209
0,4.8889887283476305,7.482063742419799,9.270496927076415,2.4071510984667484,0.9100126935416526
0,4.21806538994825,10.880978444811078,0.6693623020456563,-0.38367894904588207,0.9150127632863914
0,0.007141834294428606,-7.950106884568827,-7.191771954731107,-11.164507887396894,0.920012833031123
0,4.236218074736136,-0.0411922285898777,0.1170941723698703,-3.9253357091006578,0.9250129027758547
0,4.065294124362656,-3.102277570121632,-3.2540393008227637,-0.6061624061728698,0.9300129725205935
0,-0.605630004011325,-11.983362891756839,-5.105172358200603,-0.06698797019435418,0.9350130422653251
0,4.203445702163153,3.375551824346373,2.60369501661015,3.772187607418294,0.9400131120100568
0,4.302521255206979,-3.94553340351535,-0.027437159812907175,2.3213643351833086,0.9450131817547955
0,-1.348403332820057,-1.7166185567514,0.15143112915566204,-1.329457778562578,0.9500132514995272
0,-4.3793280500558005,-6.45770361655528,-2.5097000998778194,0.7497212743693689,0.955013321244266
0,-3.6802528845877336,1.2112114361681612,-3.0208308302493982,3.878901502096119,0.9600133909889976
0,-6.031177824212277,5.690126620751326,-4.821961045102045,-1.4719170873620633,0.9650134607337293
0,-9.272102856273065,-4.200958043463048,-8.103090727243305,-6.102734486060904,0.9700135304784681
0,-6.4530279675116144,-12.422042537152024,-4.464219858989882,-2.2935506859416375,0.9750136002231997
0,-0.21395314400249693,-0.9731268406766,-4.685348422091316,-2.8543656786357836,0.9800136699679385
0,7.015121628639831,0.2957890661446837,4.023523602184615,6.944820544492691,0.9850137397126701
0,-2.6558036351323215,0.29470520384893195,9.452396232742196,10.38400799204719,0.9900138094574018
0,-3.356728920992989,-9.486378406888228,-7.508730511703903,-20.896803327666568,0.9950138792021406
0,0.7423457853875546,-0.7474617451676261,-1.0298566126644848,-11.407613406296736,1.0000139489468722
0,-2.28857950151847,7.9514552102177305,-0.020982051605854313,-4.958422234712494,1.005014018691604
0,-2.6995047670991474,8.990372480482572,2.8278931901512103,-5.039229802771044,1.0100140884363427
0,2.2995700033985305,15.729290086312385,5.746769131255682,3.8399639003562287,1.0150141581810743
0,3.088644824800502,13.878208047407659,7.825645790070034,-1.3108411142137837,1.020014227925813
0,0.8477197118493329,10.00712638222849,4.214523184462836,-1.4616448353100557,1.0250142976705447
0,-0.14320532088637294,-2.223954891940431,-2.146598668229223,-5.532447251706555,1.0300143674152764
0,-8.834130258898574,-1.585035758549926,-4.05771975097325,-4.9732483519522015,1.0350144371600152
0,-2.2350550874871633,12.8338837986634,-0.26884004670610573,-5.114048124196558,1.0400145069047468
0,-5.995979791539363,4.232803795675077,-2.9199595381663834,-5.964846556103654,1.0450145766494785
0,-8.55690435544502,-0.07827575205817106,-8.051078207851909,-6.855643634808223,1.0500146463942173
0,-7.117828763016789,-6.9593548294931775,-10.17219603786308,-5.8264393468702345,1.055014716138949
0,-2.1387529974078836,-2.550433421580138,-4.713313009657492,-1.9672336782697557,1.0600147858836877
0,-3.3396770411939265,-1.111511512969679,-5.044429103962421,-1.9280266145093736,1.0650148556284194
0,-2.670600876551358,-7.14258908797927,-4.2655443008857175,-1.858818140781034,1.070014925373151
0,-2.7615244853540917,-3.8636661305836366,0.32334141992472043,1.5803917579171114,1.0750149951178898
0,-2.6624478492039545,-1.4247426243506993,-1.6877719208665443,-0.280396903327292,1.0800150648626214
0,-0.6333709494456315,-5.325818552460594,0.3511156975651484,2.5188158905672755,1.0850151346073602
0,-2.2242937672162837,-1.376893897764462,-4.599995703854803,2.3280301545890643,1.0900152043520919
0,-4.085216283466156,-2.387968642813363,-1.981106104052343,4.997245903543062,1.0950152740968235
0,-5.15613847890463,-0.1990427699100754,-3.142215481715091,-1.5435368480217069,1.1000153438415623
0,-4.517060333878747,-7.330116261155083,-8.35332381522149,-2.7443180857563396,1.105015413586294
0,-9.107981828270562,-1.6011890983860728,-6.274431082516923,1.304902204668665,1.1100154833310256
0,-9.518902941364686,0.4877387368819104,-5.1455372609695,0.3441240376537359,1.1150155530757644
0,-5.049823651711349,3.386667263339219,-5.146642327338885,2.863347427603773,1.120015622820496
0,-0.7207439371345761,1.2355964996526192,4.272253742106386,-2.527427611158371,1.1250156925652348
0,3.2883362250098163,11.244526464264107,5.961150971308723,-1.418201064361392,1.1300157623099665
0,4.197416857467511,5.903457175175495,8.750049384014352,5.311027082288869,1.1350158320546981
0,1.6864979828010789,-1.8976113502046448,5.638949003428284,0.6602568430502278,1.140015901799437
0,-0.8644203766933218,4.301320905054693,5.707849852095444,-1.2205117679739272,1.1450159715441686
0,5.024661801087838,-1.8497460423520717,-0.26324804803249835,-4.301278736768282,1.1500160412889002
0,-1.1362554619017813,2.289187824154533,-4.934344675367418,-3.6020440491943804,1.155016111033639
0,0.36282785614365975,0.2881225210704116,0.9645599916304997,-0.8828076908377189,1.1600161807783707
0,0.8819117769385907,1.347058064811123,4.453465974600426,-0.2435696470178803,1.1650162505231094
0,-2.4190036778229773,1.745994471694857,6.002373295125947,-1.7043299028918422,1.170016320267841
0,-5.179918486391815,-3.7250682420516203,-7.978718025465138,-6.965088443479232,1.1750163900125727
0,1.949167373160423,-5.786130060172892,-6.989807965940665,-8.595845253505706,1.1800164597573115
0,-6.87174607700111,-16.327190966088033,-8.510896504730091,-2.0066003171768205,1.1850165295020432
0,-8.552658814421173,-12.82825094244945,-6.4819836196010545,-3.5873536181343186,1.190016599246782
0,-5.773570816167992,-0.8093099708319639,-2.9330692876163127,-4.418105139579419,1.1950166689915136
0,2.44551794128623,8.019631968062559,7.295846514674073,-2.1588548643610475,1.2000167387362453
0,-6.22539251809269,0.8685748937717805,-5.015236189108992,-7.909602774967678,1.205016808480984
0,-0.7863021700789505,-2.012481174369997,-4.326317375352673,4.4696511464876485,1.2100168782257157
0,-5.0472109901948965,-6.773536217160077,-4.837397020285428,-3.8410930818251883,1.2150169479704473
0,-7.298118953628533,-11.55459021515762,-11.038475099715086,-6.051835441564942,1.2200170177151861
0,-2.809026035131826,-1.4956431483390822,-11.129551588801084,-3.3925759141408296,1.2250170874599178
0,-2.7099322089790023,-10.816694995980786,-5.830626461848057,-2.1233144805808557,1.2300171572046565
0,0.18916255093303969,0.8622542632780554,1.6183003076769933,-0.20405112156486038,1.2350172269493882
0,7.898258270865709,6.951204651235139,5.267228746784869,7.075214182386391,1.2400172966941199
0,16.07735497686695,13.040156189681873,11.456158882440432,9.644481450602008,1.2450173664388586
0,10.406452694253298,12.309108899806693,11.03509074106499,7.533750701888311,1.2500174361835903
0,7.225551447263735,8.02806280179994,8.024024348206877,3.4830219543238945,1.255017505928322
0,10.734651259074143,5.677017914811589,10.572959728441207,5.352295225318387,1.2600175756730607
0,0.11375215198505595,4.305974257154992,4.28189690542496,-2.2084294682079086,1.2650176454177924
0,-0.6171458523347608,5.744931846525544,8.6408359020117,2.560847890379109,1.2700177151625311
0,10.481957267425424,12.123890700060972,12.449776740305714,14.230127317494173,1.2750177849072628
0,8.401061532225063,8.052850834205099,12.448719441547619,18.709408829018532,1.2800178546519945
0,13.220166962369621,11.661812264525809,21.00766402585605,10.628692439743892,1.2850179243967332
0,13.339273577201684,10.700775005617453,14.226610511939505,9.537978163100268,1.290017994141465
0,13.718381394905949,10.509739071053499,12.085558916943432,9.407266011297752,1.2950180638862037
0,13.997490432386964,1.048704473422116,6.754509256567568,5.086555995563787,1.3000181336309353
0,10.356600705238819,2.687671224553095,5.393461545399725,-0.7941518736312426,1.305018203375667
0,10.065712227815734,3.9966393358282275,10.01241579720877,0.5551424137246187,1.3100182731204058
0,5.41482501339095,-1.704391181646583,1.1013720250764503,0.3144388674737184,1.3150183428651374
0,9.203939074343898,10.784579682993524,7.2503302414759965,9.833737497362264,1.320018412609869
0,3.1030544223065424,6.00355194026195,5.729290458351907,7.653038312829163,1.3250184823546078
0,7.922171068257287,11.36252560008028,7.568252687110299,5.282341322723318,1.3300185520993395
0,9.821289022550234,9.941500671562357,9.707216938522468,14.441646535157608,1.3350186218440783
0,5.970408294843402,8.520477162899054,8.816183222608677,11.910953957380949,1.34001869158881
0,9.449528894022938,9.52945508134109,10.725151548535086,5.260263595617708,1.3450187613335416
0,11.438650828167747,10.408434433220465,12.694121924525584,6.949575455102017,1.3500188310782804
0,4.79777410449839,-1.6625847759901276,-0.7369056421665018,-2.7311104596530384,1.355018900823012
0,-2.1131012705500516,6.1263974585210486,2.302068854938129,-1.9517941445123472,1.3600189705677437
0,1.5860247089853958,2.125381141153034,-1.4189545780776842,2.287524404592202,1.3650190403124824
0,3.1651520489006035,-0.6056337239903927,2.390024064747825,-2.063154808218653,1.370019110057214
0,-3.385719245099396,5.953352866957199,-2.9009952106657964,-0.013831778794501481,1.3750191798019529
0,-7.826589167322062,-3.9976590823262605,-3.0520123983757634,-5.844506502915002,1.3800192495466845
0,-2.847457711829212,-9.778669568221087,-6.003027492272833,-8.915178976128814,1.3850193192914162
0,-3.398324872243043,-6.4796785868254165,-6.634040485891825,-0.5458491935369054,1.390019389036155
0,-5.519190641756655,-5.860686133625455,1.074948627696753,1.4134828502327674,1.3950194587808866
0,0.8999449868103284,-1.401692203457202,-6.896060144153265,1.02281716078396,1.4000195285256183
0,0.9090820209100832,-2.4726967906761437,-0.5270667937592345,1.662153743701216,1.405019598270357
0,5.278220468063372,2.0563001106436,0.9519286868349983,0.9414926044546325,1.4100196680150887
0,0.59736033563775,5.64529850650332,7.870926305696365,6.9808337483548675,1.4150197377598275
0,6.5865016307246576,13.264298402680032,13.989926070632754,11.230177180392683,1.4200198075045591
0,9.545644360042767,10.453299804322747,14.058927988720503,12.509522904921393,1.4250198772492908
0,7.584788529742957,5.982302715654447,5.037932065952581,3.4288709253821548,1.4300199469940296
0,3.033934145261526,3.1813071399948023,7.80693830725113,7.808221244313419,1.4350200167387612
0,-1.2069187885815453,3.0003130800135462,-0.5540532832613472,3.597573863542325,1.4400200864835
0,9.932229732648649,11.239320537912922,12.444957297983294,8.936928784308867,1.4450201562282317
0,12.581379712992387,17.42832951529243,19.18397005393246,12.846286007216705,1.4500202259729633
0,9.510531155773773,10.237340012761239,18.17298498646545,11.59564553202128,1.455020295717702
0,4.599684063364859,6.656352029710691,5.722002095986068,9.445007357431876,1.4600203654624337
0,4.948838437278344,2.7153655644868575,7.811021381502512,1.5443714811273355,1.4650204352071654
0,9.757994278373609,4.434380614743178,0.9200428410598661,8.78373789998921,1.4700205049519042
0,-6.252848413041834,-3.5466028222761867,3.0590664721262923,3.1331066103086123,1.4750205746966358
0,-3.553689636991372,-3.3575847494889888,4.1680922718128715,5.3824776078520165,1.4800206444413746
0,3.7054706065273173,-6.378565169687286,-1.8128797630434912,-3.658149112060273,1.4850207141861063
0,-3.965367682329439,-2.4995440853106916,-6.943849635751338,-8.56877355429323,1.490020783930838
0,-6.276204503277678,-5.760521498366707,-9.254817349445991,-8.499395723467774,1.4950208536755767
0,-6.15703985577008,-5.761497410420328,-7.315782906722186,-2.3900156236143753,1.5000209234203083
0,-2.817873738787098,-12.282471822511296,-2.136746309465199,-3.440633258143777,1.50502099316504
0,-7.868706150791418,-7.773444734966332,-5.217707558940538,-5.821248629999046,1.5100210629097788
0,-8.92953708970833,-5.054416147268933,-10.168666655913489,-7.041861741704362,1.5150211326545104
0,-8.780366552798625,-8.965386058106676,-6.309623600575144,-5.152472595269462,1.5200212023992492
0,-1.8611945365641134,0.9236455344947525,-5.970578392416423,-0.7030811921545518,1.5250212721439809
0,-6.622021036833868,-5.44732136698214,-9.241531030214036,-8.143687533358362,1.5300213418887125
0,-7.302846048894094,-16.938286759603677,-15.532481511993863,-7.014291619444329,1.5350214116334513
0,-0.01366956751458169,-3.3292506397719137,-4.223429834855576,-3.104893450440213,1.540021481378183
0,1.7355084129651412,-1.5702130030534651,-4.964375994936585,-4.4554930258124505,1.5450215511229217
0,-4.285312101591985,2.5288261555759655,-0.8653199876606238,-5.266090344552429,1.5500216208676534
0,-6.366131105198679,4.507866841292806,-4.576261808023172,-7.1066854051998085,1.555021690612385
0,-3.316948591577746,-1.9730909408576192,-5.837201450693975,-4.287278205774635,1.5600217603571238
0,-0.8977645540393594,-2.944047185981266,-0.7681389099778739,-5.667868743742662,1.5650218301018555
0,-0.8385789855649569,-1.5550018891552257,-0.7290741798260325,-6.848457016030574,1.5700218998465871
0,4.170608121011887,3.9840449546839207,2.1399927460129526,-6.869043018998612,1.575021969591326
0,2.9697967728096657,0.05309335064373984,2.0190618738049264,-2.3996267484120417,1.5800220393360576
0,3.438986976729451,-3.4278566962385493,-2.891866790268355,0.8197918004679969,1.5850221090807963
0,6.458178739341053,4.1411948190430525,0.4172067599191906,2.319212632645472,1.590022178825528
0,1.0573720668298117,-0.4197520985051187,-7.903717469423787,-4.8713642468344975,1.5950222485702596
0,1.1965669650084194,1.9293025560556913,-0.4546394718512368,-6.241938832858536,1.6000223183149984
0,4.965763439415733,2.678358787534174,0.9344407593837731,0.35748887995252404,1.60502238805973
0,-1.4850385046318964,2.7374166005731624,1.5435232312048066,0.6469188972965352,1.6100224578044617
0,-3.865838861976334,-4.613524000366021,-4.417392049452535,3.456351225005577,1.6150225275492005
0,-2.326637627422349,-5.754463010851828,0.5616949243759316,6.305785868793155,1.6200225972939322
0,2.35256520441386,-2.55540042621052,2.4607841597442794,3.3452228340538173,1.625022667038671
0,4.9017696390149945,3.7736637585759127,4.009875663698983,9.524662125726381,1.6300227367834026
0,10.670975681676573,10.39272954863214,12.85896944303533,18.15410374810955,1.6350228065281343
0,1.0701833372037814,0.5917969487850016,-1.1019344959680184,-5.916452295371972,1.640022876272873
0,11.859392609780722,13.500865963309975,6.417163852371267,10.872993997868788,1.6450229460176047
0,7.948603502926199,4.929936595825596,9.82626449322392,9.032442629815375,1.6500230157623434
0,10.047816019377764,11.129008849191257,11.865367431163406,10.231893601804433,1.655023085507075
0,5.897030161009829,12.228082725408507,13.474472669882113,6.901346914324091,1.6600231552518068
0,10.946245928851466,18.457158225460763,11.903580211961245,5.060802567003179,1.6650232249965455
0,1.1654633231495266,13.42623534905165,8.852690058796497,1.3002605587843898,1.6700232947412772
0,-1.8353176564689062,0.3753140945158373,0.4018022107325562,-0.8202791118350554,1.6750233644860089
0,-0.976097010673612,6.204394459127418,0.650916667402204,0.2691835534519867,1.6800234342307476
0,-1.2068747401296898,3.763476439532891,0.26003342811890395,-0.911351447084136,1.6850235039754793
0,0.7923491545955538,-0.2674399680289882,-4.410847507870201,-0.7418841151425051,1.690023573720218
0,-5.128425326975106,-6.608354767563069,-3.5117261412174443,-5.222414452341203,1.6950236434649497
0,-3.069198185168605,-1.309267963025044,-1.7526024723280689,-0.6529424601192463,1.7000237132096814
0,-4.429969420033217,1.6798204418758693,1.5965234986602006,3.186531860295724,1.7050237829544201
0,-2.2207390312670956,4.158910443574892,2.705651771730498,2.726008507735489,1.7100238526991518
0,5.588492981722398,2.758002038399098,3.794782346782403,3.5654874808775934,1.7150239224438835
0,1.307726619590232,1.1370952224180464,0.033915223494963426,2.5149687781225682,1.7200239921886222
0,9.326961882780703,4.556189991431857,3.1430504013158225,4.604452397566946,1.725024061933354
0,5.7061987713049245,7.86528634094945,5.172187879471528,3.8239383369748894,1.7300241316780927
0,2.3254372846148885,0.8243842660709877,-1.7486723430652948,0.7634265937627747,1.7350242014228243
0,-4.15532257831245,-11.786516238455704,-9.869530267481677,-2.427082834923961,1.740024271167556
0,-1.2560808186730252,-11.437415177776714,-1.6003858948000285,-5.647589951995492,1.7450243409122947
0,-0.5968374375664518,-12.618312556318973,-4.121239225603564,-1.528094760169601,1.7500244106570264
0,7.042407564012656,-3.369208377482907,3.857909739908315,4.8914027381062875,1.7550244804017652
0,6.561654184932778,-0.8301026437702643,3.9270610016686476,7.100902540428325,1.7600245501464968
0,0.36090242366832825,4.399004642811363,7.686214559438616,7.440404644068577,1.7650246198912285
0,0.04015227827700091,-7.841886519616828,-1.5946295874134446,-1.2100909542434097,1.7700246896359673
0,-3.540596253381149,-10.632776132797256,-4.895471439846506,1.5694157417657042,1.775024759380699
0,-4.6913431733786535,-7.493664197984297,-5.256310998824986,-0.3610752718441502,1.7800248291254306
0,-8.502088483497726,-2.024550715683424,-4.627148264982774,-3.1615639990617694,1.7850248988701694
0,-6.092832185019098,-2.635435685755752,-5.407983238490541,-7.782050443766671,1.790024968614901
0,0.49642572136935487,5.143680892292154,2.0111840809296453,-0.9025346095298499,1.7950250383596398
0,2.515685235410243,9.902799018959819,8.620353693796105,-3.5230164995150193,1.8000251081043714
0,7.3249463569210524,5.851918694357643,7.999525600453114,-3.373496116538598,1.805025177849103
0,8.624209085423125,9.191039917927203,5.648699800688781,3.6560265368427833,1.8100252475938419
0,6.7634734198541775,11.240162688331996,10.447876293572518,8.855551458142223,1.8150253173385735
0,1.9927393584657873,12.989287003343282,8.847055077411705,4.755078644599483,1.8200253870833052
0,13.032006898880237,9.998412859685361,13.136236149651639,2.6146080929297164,1.825025456828044
0,10.631276038048407,14.967540252944564,11.01541950673819,1.3441397993657138,1.8300255265727756
0,9.680546772036642,19.15666917747521,14.274605144003283,6.043673759803928,1.8350255963175144
0,7.3498190959137375,3.0557996262772815,-0.5762069443419195,1.7132099698434644,1.840025666062246
0,-4.960906996092108,-4.895068408818426,0.5429832350553963,-3.8872515752055996,1.8450257358069777
0,2.0383684897864978,1.9440650634564316,4.0421756751161775,4.132289119818377,1.8500258055517165
0,-11.242354452720477,-1.2467999656818627,-8.12862963137966,-0.4881679499548439,1.8550258752964481
0,-2.5130758295942544,8.872336494989678,1.380567308379537,4.911377210516386,1.8600259450411798
0,-2.2937956463486677,4.481474436477763,0.4897664873637734,7.170924596053526,1.8650260147859186
0,-0.5645139080833425,2.7606138493584838,3.2189678986353227,7.600474201063928,1.8700260845306502
0,-6.375230619633212,3.2397547237482787,3.298171535155253,-0.33997398060715733,1.875026154275389
0,-3.6659457855645123,4.318897049394261,-0.46262261033087926,-2.810419955570726,1.8800262240201207
0,-1.636659410083362,-3.441959184252948,-3.5734145452461856,-2.570863730569922,1.8850262937648523
0,0.18262850293594948,-7.462813987867596,-5.314204276976975,1.0186946877728822,1.890026363509591
0,-9.768082050138146,-13.3336673718593,-12.404991812583853,0.37825529297260874,1.8950264332543227
0,-9.648791072585178,-15.484519345889778,-11.035777158473623,3.277818078557304,1.9000265029990615
0,-8.999498567032605,-8.935369918498822,-6.216560320141031,4.487383037926328,1.9050265727437932
0,1.579795464691012,-1.1062190970660415,5.562658697771444,6.996950164189797,1.9100266424885248
0,-7.740908978611113,-4.897066888129904,-6.508120108899547,-0.6534805499523817,1.9150267122332636
0,-10.081611897666345,-13.387913297675256,-11.968896744074188,-9.693909112112124,1.9200267819779953
0,-2.4523132926407145,-4.348758331075172,-4.79967121120965,-1.7343355298277343,1.925026851722727
0,-7.16301316305218,-7.799601992933653,-7.9604435130367905,-9.204759810211396,1.9300269214674657
0,-2.3737115078457824,-4.850444287120861,-2.021213651573613,-3.5651819598275343,1.9350269912121973
0,5.905591674438579,3.478714783062547,3.1980183716723163,1.994398015274161,1.9400270609569361
0,-1.7851036145987063,-1.9721247853632802,5.327252555379317,-0.6660198906376971,1.9450271307016678
0,9.394202626516911,6.007037004671506,11.186488898009523,1.4635643167837755,1.9500272004463994
0,4.47351039894058,3.786200150085101,5.975727397455704,0.07315063184536108,1.9550272701911382
0,4.9228197033496155,9.55536464745157,6.274968050869098,6.85273904876396,1.9600273399358699
0,5.0021305398932725,10.484530492776972,7.374210854680766,3.7223295615297967,1.9650274096806015
0,-0.2385570917475029,3.0236976813148657,3.3134558046789104,2.631922163766276,1.9700274794253403
0,-2.769243192199155,-1.3571337923844022,3.55270289608971,-0.15848315126917278,1.975027549170072
0,-0.9999277621562512,7.842036065790377,-2.1580478762702366,4.1811136094305805,1.9800276189148107
0,-1.630610802203379,-4.318792750302211,-3.1887965177716597,5.0307124386587745,1.9850276886595424
0,-9.521292312721592,-10.049620246908834,-6.829543033690088,-2.829686671061003,1.990027758404274
0,-1.3119722937524612,-6.8804464300144685,-6.750287428948693,-8.630083727367737,1.9950278281490128
0,-8.58265074485818,-12.401271304936905,-10.151029707903442,-9.280478737680058,2.0000278978937445
0,-9.153327665048757,-9.472094876111338,-11.96176987415764,-11.010871708768793,2.0050279676384832
0,1.4359969472867793,-2.712917147044594,-3.302507930426859,-3.8412626465466246,2.010028037383215
0,-5.284676905694975,4.466261879486101,-5.343243878587687,-6.571651556112956,2.0150281071279466
0,6.424650778474938,5.295442200966501,3.2860222800656538,-0.07203844194122905,2.0200281768726853
0,2.35398000231163,-3.895376185260897,-3.494709455470543,0.0075766918977190345,2.025028246617417
0,-2.1666892318326267,-6.286193282007193,-8.655439086030757,-3.542806158459318,2.0300283163621486
0,-10.317356921697426,0.38299090805384195,0.9438333878334879,-5.633186996714531,2.0350283861068874
0,-4.218023064764628,2.512176382515985,-0.9768920340633338,2.82643417368005,2.040028455851619
0,-5.6586876579626875,-5.1986368608935765,-5.3576153516537,-4.4139426504776065,2.045028525596358
0,-2.219350697649654,4.650551175587908,4.691663435296577,1.245682527766775,2.0500285953410895
0,4.36998782021554,5.379740489702925,2.5009443271079386,8.865309705407821,2.055028665085821
0,-7.2206721001453396,-2.7310689209785255,-0.46977267599337724,-4.415061120702047,2.06002873483056
0,-4.061330454378906,0.35812294090028224,6.679512426016607,-4.53542995390324,2.0650288045752916
0,-0.711987237857638,5.567316072592867,5.01879963289599,-0.3657967974857367,2.0700288743200232
0,2.6673575543413786,5.2665104712063675,6.218088943996052,-0.2661616545110107,2.075028944064762
0,-2.12329607273802,-0.6142938664717598,0.017380358172614796,2.1234754721067612,2.0800290138094937
0,5.556051885908952,1.6349030560195312,3.1066738738729938,5.183114579413773,2.0850290835542324
0,2.7654014351514067,4.144101234938303,4.1359694892599475,6.982755664218857,2.090029153298964
0,7.164752579579567,5.563300666329377,14.035267202157648,-0.3276012770751586,2.0950292230436958
0,-1.0258946766062578,-6.637498654043812,0.12456700982374552,-3.317956248433698,2.1000292927884345
0,8.123459670404454,2.5617032694138997,3.683868908855858,5.31169074603795,2.105029362533166
0,2.8928156240560154,4.460906432289589,1.8231728953797763,3.831339702169503,2.110029432277905
0,-0.21782681259336029,2.0001108300839765,3.2724789652335464,-0.7190093844109948,2.1150295020226366
0,-5.3384676367463,-6.250683541898173,-0.06821288598051528,-3.129356518287855,2.1200295717673683
0,-2.249106845571314,-9.351476688339368,-1.0789026628382148,2.9002982959148755,2.125029641512107
0,-8.659744435947044,-5.6822686135083105,-2.799590369960993,-4.140044946365505,2.1300297112568387
0,-4.73038040430112,-6.5230593210140855,-6.510276011840543,-4.790386249585988,2.1350297810015704
0,-8.071014746490917,-9.18384881377657,-6.720959592640418,-5.670725617952819,2.140029850746309
0,-10.001647457719866,-9.54463709400141,-9.261641115991491,-5.411063055243085,2.145029920491041
0,-3.2522785324653327,-4.555424163104129,-7.78232058483149,-5.321398564720778,2.1500299902357796
0,-0.02290796453383842,2.14378997820853,-1.7829980013550952,-2.5817321491406733,2.1550300599805112
0,-5.383535747288996,-2.306994670352466,-5.263673367130831,-4.612063810804249,2.160030129725243
0,2.9058381261616657,-3.6477781089077452,-5.364346683255449,-3.042393551624712,2.1650301994699817
0,-6.544786337103027,-10.448560337365365,-8.985017950358696,-9.922721373119803,2.1700302692147133
0,-0.43540912981869695,-1.9793413551911865,-5.855687168478679,-3.4330472763037445,2.175030338959445
0,5.493969755457617,9.339878838626156,2.2936456629651785,1.0766287383502324,2.1800304087041837
0,9.443350326136573,-2.7408997547655214,2.9429805449440036,1.0763066707225373,2.1850304784489154
0,9.082732589191371,3.6983228655984433,2.2523174784588686,0.36598652076930105,2.190030548193654
0,9.092116550844242,5.727546700440711,1.9016564643149962,3.2656682883731665,2.195030617938386
0,7.001502216458106,2.0767717502077554,-0.9590024968889306,0.2653519732901225,2.2000306876831175
0,2.150889590599182,2.2459980149985683,0.8503405953189779,-4.374962424839345,2.2050307574278563
0,4.040278677227856,3.7452254945971974,5.769685741332923,0.08472509364032578,2.210030827172588
0,3.4196694798775167,-0.7255458114670404,2.029032941373282,6.634414528475889,2.2150308969173267
0,0.029062001757948677,5.703684096114589,0.018382195385078515,3.164105879335087,2.2200309666620583
0,-4.581543754132096,-2.4570847835515175,-1.7522664968953612,-2.1062008543976583,2.22503103640679
0,3.11785221519188,3.1721475484669845,2.3970868642110497,-2.676505673546856,2.2300311061515288
0,9.527249912724184,8.131381090932218,6.866442278333696,1.7031914210785908,2.2350311758962604
0,-0.8433506587692263,0.3306158423145073,-2.944200255091902,-0.6271095712401276,2.240031245640992
0,-1.3539494968908234,3.15985180069871,1.18515926313531,5.312591348777222,2.245031315385731
0,-2.3945465994133577,7.839088963814827,0.4045208321125314,6.672294180239438,2.2500313851304625
0,4.48485803593216,1.3083273290212556,6.783884450870387,0.02199892190195807,2.2550314548752013
0,6.434264411390473,1.3175668932710447,2.7132501182317212,-8.128294427798059,2.260031524619933
0,1.2736725289468187,-2.633192346756798,-5.557382167274939,-7.1085858703788185,2.2650315943646646
0,3.6030823902029736,-7.893950394398503,-2.8780124072378266,-7.3288754068848965,2.2700316641094034
0,-2.6075060035422686,-6.954707252699593,0.33135939691982846,-6.679163037685909,2.275031733854135
0,8.911907348818435,3.034537075789523,2.5307332439757153,5.540551237471121,2.2800318035988667
0,1.541322448164929,1.6337825888968665,-4.819890867235086,-10.029732580771649,2.2850318733436055
0,-1.4792607049350803,-0.32697071548024526,-2.4005129378257646,-8.480014491470213,2.290031943088337
0,9.050157889809626,4.952277160441313,10.208867031197913,1.2997055067897192,2.295032012833076
0,7.109578232388715,9.571526214219901,6.3182490387322,3.7294274158891274,2.3000320825778076
0,9.439000322256874,3.8607764429743017,4.197633083209504,3.8291512378136243,2.305032152322539
0,3.478424158147777,-5.149972156707319,0.4870191624925054,1.198876974332677,2.310032222067278
0,6.097849738098976,-1.1807195885089223,-0.5535927259346465,5.568604626914049,2.3150322918120096
0,6.5672770595600864,-3.0814658560311354,-3.2542025847125977,4.478334196703944,2.3200323615567413
0,0.5067061194524217,-11.792210962581969,-2.3448104164057946,-1.541934315509034,2.32503243130148
0,1.9361369142640692,-3.44295491098921,3.7045837765859324,-3.7822009091811237,2.3300325010462117
0,1.1055694402127427,4.396302296489035,5.483979991905845,1.1375344162310697,2.3350325707909505
0,5.725003693332859,-2.054439342067456,-0.17662177299157822,4.157271661363695,2.340032640535682
0,-0.5655603305689498,0.10482017146515894,1.3727784790655952,1.7770108268033709,2.345032710280414
0,-2.2061226359063384,-1.7959191647921622,-5.747819254897189,0.40675191293323526,2.3500327800251526
0,0.9433167728299321,-7.326657352609786,-6.248414977755096,-5.773505080011764,2.3550328497698843
0,1.0327578911774307,2.772605606478177,-1.8790086920440374,2.0762398482485835,2.360032919514623
0,3.27220071465415,-1.5281302888101533,4.600399600078071,4.755986698104722,2.3650329892593547
0,4.021645238624599,4.611134960341667,2.149809896585122,6.7957354698524215,2.3700330590040863
0,-4.048908541769426,-4.439598647302665,0.7592221953093852,3.3154861634127144,2.375033128748825
0,-5.979460631483025,-6.44033111298064,-5.191363506083788,0.5852387782452575,2.3800331984935568
0,-5.210011035267184,-2.501062437698601,-2.281947209895909,-2.565006686503653,2.3850332682382884
0,-8.500559757398714,-5.881792622050243,-4.332528918188705,-6.365250231731689,2.390033337983027
0,-3.6011068015658845,-2.662521666194927,-2.2331086326987695,0.13450814187918753,2.395033407727759
0,-3.561652170873069,2.846750430070482,0.8063136451294769,1.1942684339261618,2.4000334774724976
0,-5.842195867934512,-6.7739763328239455,-9.904262085903474,-5.635969355821724,2.4050335472172293
0,-8.842737894895341,-1.0247019542786961,-6.074835826670098,-3.2062052274479984,2.410033616961961
0,0.026721746633656562,3.304573566503825,-1.7954075775264757,9.823560819159772,2.4150336867066997
0,-7.213816944426373,-1.1461497695672695,0.16402266167152263,9.353328784063027,2.4200337564514314
0,-7.49435396868426,-5.606871961575516,-11.376545108593756,-14.936901333057541,2.425033826196163
0,-6.904889326205561,2.522406991485385,3.4328891124922296,-2.4271295327062474,2.430033895940902
0,-2.5054230164257225,12.631687090695083,3.5823253260610155,4.632644184901562,2.4350339656856335
0,-6.62595503819962,0.43096833687482466,-2.7782364666767734,-1.8675801801545373,2.4400340354303722
0,1.973514610074817,-2.3897492696390734,0.871203735407123,3.6421973722089183,2.445034105175104
0,-0.6970140697014571,-1.1504657287833695,0.33064593341204,2.821976841940162,2.4500341749198356
0,-0.8075410755012711,-8.391181040416752,-3.0399098715387454,-7.438241771153356,2.4550342446645743
0,-6.068066405221127,-0.7918952040898144,-1.360463678256542,-1.3084584672531998,2.460034314409306
0,3.6114099434009073,1.7973917810034565,-3.7110154853982777,1.7813267536589232,2.4650343841540447
0,-2.869112027197012,0.26667991586355816,0.5084347085869003,-0.7088861082249169,2.4700344538987764
0,-2.0696323144735898,-3.524030798488598,-3.092113094556297,-0.6590970526794538,2.475034523643508
0,-2.570150915768061,-4.214740360968972,-1.7426588929152695,-0.8793060794686955,2.480034593388247
0,-0.6406678282305758,2.8045512297020747,1.936797315574015,-1.0095131882962354,2.4850346631329785
0,4.788816951139152,7.823843974927079,4.136255533040279,3.310281621188518,2.49003473287771
0,-5.191696574646307,-0.3368621240577613,-0.6842842384938932,0.6300783493165953,2.495034802622449
0,8.697791597355037,5.012432933632294,14.505178002734532,9.479876996253093,2.5000348723671806
0,11.677281469878704,10.571729148500175,11.714642257975676,9.26967756177961,2.5050349421119193
0,4.04677304513287,4.881026520539966,5.8341085276231865,3.0394800450502126,2.510035011856651
0,3.4662663245977514,6.130325049082614,-1.7564231888412865,0.6092844445687152,2.5150350816013827
0,3.065761309165296,9.069624732788506,6.4230471074838915,4.109090758405397,2.5200351513461214
0,2.7552579993410613,9.578925569631826,5.322519415160693,1.7288989843662597,2.525035221090853
0,1.6447563953300675,7.008227556800281,3.7019937323726175,3.6287091200101256,2.5300352908355848
0,1.9342564970911247,-4.89246930926734,1.1414700568647715,-5.8814788373244555,2.5350353605803235
0,5.6937583043554305,-3.0531650325384625,-1.899051613937398,-7.531664890307744,2.540035430325055
0,-3.436738183392306,-1.6938596169465103,1.0804287172663143,-4.831849041283669,2.545035500069794
0,5.242767033119718,3.275446933783709,3.1999110477512684,2.317968707905994,2.5500355698145256
0,0.44227395300940386,-5.435245383952348,3.61939537469025,7.317788355712171,2.5550356395592573
0,7.991782575191208,-6.235936573649001,3.32888169501834,7.1576099004446325,2.560035709303996
0,-0.8987071017318671,-0.25662663851782935,-0.13162999462829472,3.8574333399194822,2.5650357790487277
0,-2.039195079457652,-0.6473155814209204,-2.5921396978234186,4.657258671378108,2.5700358487934665
0,-6.949681359755485,3.8919965949675097,-3.77264741815135,4.15708589156222,2.575035918538198
0,-1.3901659441705672,-0.44869011205197284,-7.723153158981601,-2.0030850031825698,2.58003598828293
0,3.5993511660749373,3.8906242946834784,-2.453656923277877,-2.693254016733853,2.5850360580276686
0,2.8388699698830395,8.139939812118364,2.4058412864306584,-0.9134211529548082,2.5900361277724
0,-0.911609533959483,5.5392564368105,1.335341467847665,-3.5035864155436514,2.595036197517132
0,0.10791265316983528,11.208574164724647,6.224843618626601,0.5062501919958614,2.6000362672618706
0,-1.2625634701576651,1.1378929911221176,-4.445652263795834,-2.623911333671751,2.6050363370066023
0,-5.983037905302708,-1.5127870893483584,-2.4861461821350113,-5.994070995706497,2.610036406751341
0,-12.263510653357782,-9.533466082291698,-8.41663813899208,-6.0142287969830726,2.6150364764960727
0,-6.223981714828255,-10.104143993059585,1.8228718633885113,-5.494384739915879,2.6200365462408044
0,-4.644451089439662,-1.3048208263717254,-1.777616176878495,-5.8545388263670475,2.625036615985543
0,-1.8349187762294894,-2.915496586287536,-6.108102261441662,-1.0146910576682533,2.630036685730275
0,-3.1853847737778107,-0.6461712764406893,0.6614136082651869,4.855158565229721,2.6350367554750065
0,4.094150919609678,-0.16684490024700266,7.09093143100382,0.04501004146916765,2.6400368252197453
0,-1.0363116942803203,-1.8675174610049305,-4.649548794471644,1.2748633700681513,2.645036894964477
0,2.973227386287232,10.371811038009067,9.639972930408549,3.0547185498800404,2.6500369647092157
0,-0.6872318370643576,4.261140593316195,7.579496603927551,7.744575579560763,2.6550370344539473
0,4.092310637173675,3.520471200979878,5.539022223866372,10.774434457368965,2.660037104198679
0,2.741854810350209,1.9398028565694327,4.538549787361544,12.1942951808603,2.6650371739434178
0,3.0014006835784555,-2.2208644446751817,5.44807929096037,2.644157746677527,2.6700372436881494
0,4.780948257676233,1.1884692923502262,7.857610730682514,-1.5559778493460261,2.675037313432888
0,-3.9595024668350884,-5.712195937231244,-8.062855897938414,-2.736111611783847,2.68003738317762
0,-13.399951489518255,-11.08286013809234,-8.803320599567023,-2.3062435452071535,2.6850374529223515
0,-10.520398809537289,-2.013523314428577,-3.553783378558801,-1.8463736540012436,2.6900375226670903
0,-2.970844425224698,0.2258145301466259,-4.794244238685321,-0.4565019423403297,2.695037592411822
0,-2.4112883340911395,-7.834846607557935,-3.244703183189289,-1.176628414242943,2.7000376621565536
0,-4.821730533111934,-11.895506730362657,-8.055160214868902,-5.266753073588056,2.7050377319012924
0,-4.252171018896296,-10.796165840439368,-13.67561533598621,-9.586875924006105,2.710037801646024
0,-0.0026097876965419063,-3.6668239390510298,-0.6260685480637744,-5.6869969686329735,2.715037871390763
0,-8.833046835423083,-12.337481026564085,-3.2965198518739403,-9.777116209923328,2.7200379411354945
0,-8.293482157588404,-8.80813710252185,-6.696969247662435,-6.187233649579687,2.725038010880226
0,-7.573915749107435,-8.748792165593834,-10.03741673523225,-9.597349288544006,2.730038080624965
0,-12.724347604116357,-5.709446213558101,-1.0578623138063685,-10.45746312696165,2.7350381503696966
0,-11.85477771583579,-9.660099243384781,-10.858305981966335,-10.647575164097033,2.740038220114428
0,-6.985206076455541,-4.320751251307659,-9.308747737649698,-8.357685398250927,2.745038289859167
0,-6.065632677170186,-1.5114022329004682,-7.189187578037415,-4.807793826790055,2.7500383596038986
0,-8.486057508353365,-10.53205218320854,-6.039625499491809,-4.487900446309067,2.7550384293486374
0,-9.896480559646179,-5.602701096767556,-8.1400614976186,-6.728005252805674,2.760038499093369
0,-5.246901819918894,-6.863348967486771,-4.020495567351833,-9.718108241726153,2.7650385688381007
0,-7.267321277264109,-18.08399578852842,-13.14092770295926,-8.488209407841222,2.7700386385828395
0,-6.927738919070689,-15.814641552065984,-15.471357897909952,-10.178308745108357,2.775038708327571
0,-8.838154732051098,-12.225286248952006,-11.261786144602539,-8.488406246597552,2.780038778072303
0,-6.998568702198369,-9.185929868625834,-11.092212434183093,-5.958501904497918,2.7850388478170416
0,-1.4089808147915543,-2.556572399345349,-0.39263675665788556,1.3014042897475508,2.7900389175617732
0,-7.219391054515625,6.902786171381358,-2.033059101236713,1.1813123451447063,2.795038987306512
0,-8.50979940555594,-3.4278541437091845,-8.313479456677447,-8.608777729128828,2.8000390570512437
0,-3.420205851526124,-2.3084933319179015,-5.163897811350883,-3.848865923699964,2.8050391267959753
0,-2.3306103754498597,-1.8591313805043566,-2.4143141531328247,-4.688952228797949,2.810039196540714
0,-1.8710129599034255,-4.609768276530018,-2.0947284694240293,-1.6890366341812795,2.8150392662854458
0,-2.4914135871850065,4.229595993176064,2.2448592526762234,2.5508808707318225,2.8200393360301845
0,4.1481877605909485,3.4189614418878707,1.2944490261728547,4.220800296637021,2.825039405774916
0,7.897791101310117,1.0083280827602585,0.1940408640227722,2.480721654087099,2.830039475519648
0,6.707396452545775,3.0476959287034453,2.983634779070157,2.9106449533509413,2.8350395452643866
0,4.097003831308798,8.407064992357919,4.683230784005423,2.8105702044008463,2.8400396150091183
0,10.246613253985661,4.946435285972167,5.812828891249034,3.18049741692868,2.84503968475385
0,5.786224736315994,7.335806821241175,5.892429112797702,2.4804266003444444,2.8500397544985887
0,5.975838293348699,11.63517960920798,18.462031460048472,10.56035776373226,2.8550398242433204
0,11.755453939428138,6.774553660150683,12.071635943490397,6.820290915691064,2.860039893988059
0,9.875071688132776,8.413928983497502,4.291242572437132,4.11022606416469,2.865039963732791
0,5.314691552155437,0.47330558789331467,2.8208513551576906,1.5901632164650341,2.8700400334775225
0,8.134313543328034,0.9426834814224898,9.870462299225702,8.200102379434568,2.8750401032222612
0,8.953937672723882,8.782062671829765,6.9500754116534065,5.250043559484229,2.880040172966993
0,11.173563950642977,7.481443166503337,7.93969069877961,1.4199867625262879,2.8850402427117245
0,8.413192386505036,5.480824972268761,8.279308166187203,0.739931994030686,2.8900403124564633
0,10.832822988782357,8.030208095276995,7.798927818690431,4.95987925919261,2.895040382201195
0,13.592455764968841,2.2495925410330884,16.448549660276797,11.059828562923688,2.9000404519459337
0,3.032090721537402,4.79897831448635,5.358173693964663,6.989779909614898,2.9050405216906654
0,-1.638272135912683,-0.44163457983935955,0.11779992180062349,1.8797333029486307,2.910040591435397
0,1.161367197742298,2.99775386229338,5.287428345152121,3.649688745983122,2.915040661180136
0,-2.4189912724839058,4.867143644904856,-1.1429410349698934,-0.28035375861788436,2.9200407309248675
0,-10.119347541477321,8.676534771716176,1.9066917822315301,2.3596057915824558,2.9250408006696063
0,1.5402983961814516,0.6659272459848247,0.2663267974204851,3.5695673988507948,2.930040870414338
0,6.389946546258142,5.685321070464399,6.545964011139009,7.779531065216668,2.9350409401590696
0,-3.290403085412862,2.7147162474867916,5.55560342368637,8.58949679228302,2.9400410099038083
0,3.729249506852087,0.7141127790377694,3.79524503494744,6.729464581017695,2.94504107964854
0,9.99890432853898,11.003510666777391,9.214888844292974,11.479434431628393,2.9500411493932717
0,3.1785613847765486,1.5529099119604155,-3.1354651494249253,4.6194063435127575,2.9550412191380104
0,3.918220680155146,1.132310515362045,2.7641830522442983,2.3693803153069526,2.960041288882742
0,5.2078822187575895,4.191712477374903,6.733833447508741,3.6293563450781083,2.965041358627481
0,3.8375460042334306,10.39111579807993,7.913486034281993,-1.2106655694561805,2.9700414283722125
0,3.097212039816163,5.110520477084238,-0.09685919000612914,-0.23068543076810621,2.975041498116944
0,1.7768803283621524,-0.5600734866149116,-6.487202228354152,-5.370703241347734,2.980041567861683
0,-4.53344912752795,-0.5106660944690604,-3.5775430838132816,-8.080719003489655,2.9850416376064146
0,7.066223674651914,0.6787426519117131,2.4421182408317614,-0.2707327190824028,2.9900417073511463
0,8.265898737287483,10.878152750835298,9.341781742966669,-0.6107443895749021,2.995041777095885
0,2.845576062388828,4.247564200310661,2.1114474197754056,-2.7507540161465243,3.0000418468406167
0,1.135255651443217,-7.2230230021243855,1.561115268002556,-1.5407615998210398,3.0050419165853555
0,-0.7550624944351332,-1.0136088591734849,-1.8792147159558326,5.619232858496952,3.010041986330087
0,-2.315378374259136,-5.374193373389217,0.3204574641777003,-4.900770642076623,3.015042056074819
0,-8.705691986948864,-2.7047765469890015,-3.279868195290968,-9.800772102397739,3.0200421258195576
0,2.0339966688685833,-1.0053583818541623,4.2698083020226445,-9.900771522971645,3.025042195564289
0,8.683687594846337,5.144061120363489,4.449486952495403,1.5892310963706242,3.030042265309028
0,9.803380792514549,5.953481957986211,7.73916775227095,1.1392357563835263,3.0350423350537596
0,19.053076262737918,7.892904128995556,12.658850696981357,3.33924245801339,3.0400424047984913
0,16.292774005233525,7.752327630797508,16.72853578143021,3.849251202085813,3.04504247454323
0,14.192474018248701,6.931752460102423,4.668222999307895,4.9892619891387895,3.0500425442879617
0,14.572176298477943,0.34117861293771123,10.407912343161811,10.019274819302538,3.0550426140326934
0,5.001880841199887,1.6406060848230106,3.7276038046081874,7.159289692120213,3.060042683777432
0,8.611587640540074,3.990034870985345,6.497297374536053,5.769306606417193,3.065042753522164
0,12.031296689717559,7.339464966398258,9.43699304320152,8.389325560289512,3.0700428232669026
0,5.081007981104082,5.328896365637857,0.9266908002338181,3.8893465511603056,3.0750428930116342
0,6.270721506227223,17.09832906267011,8.776390634660551,-0.5706304241297999,3.080042962756366
0,1.270437255925024,-6.562236949312506,-1.6339074649971996,-1.2206053690996275,3.0850430325011047
0,6.110155220540832,-4.552801677729803,-1.774203510569894,-4.4305782873371005,3.0900431022458363
0,-5.750124609927059,-2.163365130085716,-3.4244975139823763,-5.570549182251981,3.095043171990568
0,3.939597754345605,5.176072686358434,4.375210512948019,-0.42051805692193267,3.1000432417353068
0,0.14932230313808348,-6.444488235515657,0.004920558476151471,1.2695150858959254,3.1050433114800384
0,0.21904902618452465,-4.135047902752676,-4.625367389180985,3.1795502435733463,3.110043381224777
0,1.4987779131385164,-1.8256063221625478,-1.9756533417677868,-2.250412586584249,3.115043450969509
0,-1.1214910464133394,3.5838364997428185,-1.6059373108290211,7.089626592595254,3.1200435207142405
0,-0.1817578629160187,-3.46671944340709,3.323780692295792,9.31966777805332,3.1250435904589793
0,0.08797745319332217,3.5127258420184777,3.7035006562961574,6.53971096624026,3.130043660203711
0,4.727714891469667,8.72217234956241,5.223222569671299,7.739756152898793,3.1350437299484497
0,7.5874544413160105,4.10162007246396,4.77294642055768,5.269803333044916,3.1400437996931814
0,5.53719609174326,1.5010690034713994,4.492672196645984,1.0898525010585702,3.145043869437913
0,1.3969398312256969,-4.19948086506262,-0.5576001148028507,4.549903650846885,3.150043939182652
0,2.3566856477732285,-0.07002954088986346,3.062129473155203,5.80995677595411,3.1550440089273835
0,1.9664335290937895,2.839422968313206,6.451860947231774,10.520011869493326,3.160044078672115
0,-0.32381653730208937,4.218876654872474,7.291594293810967,10.670068923928984,3.165044148416854
0,-7.6040645639902,3.1683315109140775,-1.5186705011970396,-0.46987206908623014,3.1700442181615855
0,-5.034310563379688,-5.152212471704388,-5.588933452254042,-1.4498111185605156,3.1750442879063243
0,-8.53455454743079,1.2572446987576213,-6.269194573808861,-0.02974823377312441,3.180044357651056
0,-4.854796527496044,2.8167030140773273,-5.099453879928864,1.6303165759868703,3.1850444273957876
0,-2.3550365143154317,0.6161624660204978,-2.239711384171026,6.500383301390934,3.1900444971405264
0,2.184725481832076,0.835623046230447,6.120032900298553,7.900451932852233,3.195044566885258
0,6.59448945082981,1.9350847462192644,-0.47022103958647743,3.3605224602958677,3.2000446366299897
0,1.8742553823967052,-0.2954524426087004,-1.4704732170131103,-1.7894051268801774,3.2050447063747285
0,-2.085976734062342,3.244011471043821,0.549276354748492,-0.8093308395864218,3.21004477611946
0,0.6637930906638193,2.89347647833556,3.659027662418895,1.630745311212797,3.215044845864199
0,-2.186435154227942,-4.987057429737212,1.3687806926412138,4.680823314538879,3.2200449156089306
0,0.6033385205264661,-2.187590262227088,-4.221464568088603,-0.4790968407287868,3.2250449853536622
0,4.333114104223002,0.4818779719559891,-4.741708133284588,1.6409848340854412,3.230045055098401
0,-2.327108413903754,-0.24865273592484727,-1.3319500162390607,1.2310683275054854,3.2350451248431327
0,1.1026709552708458,-3.1591823945142177,-6.462190229904264,-1.4888463720452663,3.2400451945878714
0,-2.687547799165502,-9.209711012313841,-4.59242878685779,-2.57875927617093,3.245045264332603
0,-0.2877646880653667,3.1097614024984606,3.3473343007118075,2.8913296035815415,3.2500453340773348
0,-3.8079797221668468,-2.190765157902426,-5.092900979100539,-3.168579744261358,3.2550454038220735
0,4.541807087926291,0.18870929884039,4.146865361926745,11.58151266879879,3.260045473566805
0,-3.848404268313356,-4.681815234831763,1.7166333120353068,4.401606831013467,3.265045543311537
0,-8.938613801338276,-8.322338766285098,-7.703597140573997,-14.128297269751117,3.2700456130562756
0,-11.21882152126002,-3.852861302480882,-6.843826007604917,-11.618199645637066,3.2750456828010073
0,-11.889027437452885,-8.2033828498193,-15.314053300285188,-10.148100308102698,3.280045752545746
0,-9.169231558295653,-12.663903414051244,-10.314279028982824,-5.797999267584667,3.2850458222904777
0,-3.4394338911593723,-7.234423000131482,-2.764503203021844,-11.417896533567122,3.2900458920352094
0,-10.26963444257743,-10.244941612090027,-11.744725830797291,-15.737792114630967,3.295045961779948
0,-12.179833218335817,-7.195459253041602,-10.644946919909172,-13.767686018269798,3.30004603152468
0,-11.510030223341694,-3.025975925279109,-10.475166477072818,-10.367578250692674,3.3050461012694115
0,-4.610225461475737,-3.1664916304471804,-0.9753845080528352,-6.847468816855694,3.31004617101415
0,-0.3304189357261106,0.6929936302318795,2.9643989821065553,-7.82735772069366,3.315046240758882
0,-6.960610648506439,-1.507520144239488,-4.5958160113291475,-9.917244965302142,3.3200463105036206
0,-2.3508006018535843,-2.0980329547386956,-3.376029492980933,-9.967130552958256,3.3250463802483523
0,-7.620988797408956,-5.878544801999967,-5.756241467252282,-3.4870144850829665,3.330046449993084
0,-6.041175236334938,-4.979055686473097,-4.44645193816198,-1.9168967623450017,3.3350465197378227
0,1.5686400807213607,1.1904343917795437,0.39333909069904216,1.7332226150522705,3.3400465894825544
0,4.168457153469665,-0.33007456699275534,3.7031316160281613,2.6333436470625613,3.345046659227286
0,5.528275981621905,6.019417437543775,3.702925634541417,-4.676533666390011,3.350046728972025
0,2.9780965645824233,5.838910405554642,4.65272114271711,-1.116409325388364,3.3550467987167565
0,6.707918901330412,4.418404336817355,6.412518136654618,0.4837166701060812,3.3600468684614953
0,2.4377429903965426,9.627899230584067,5.022316611983021,1.073844320248952,3.365046938206227
0,-5.522431170064293,-1.152604914459454,-0.5778834361588724,-4.446026374761295,3.3700470079509586
0,-6.41260358199433,-2.9031081000769876,-2.0980820129703996,-5.265895414631844,3.3750470776956973
0,3.737225752898203,1.1063896718124444,-0.04827912374206528,0.15423720119055986,3.380047147440429
0,0.787056833164358,3.6358883993161104,4.181525226273538,7.074371473506065,3.3850472171851678
0,-5.573110342577181,-9.224611919453787,-2.3486689682097337,2.6845074030778897,3.3900472869298994
0,4.466724224319349,1.6348887136878376,0.5511382874394815,4.114644990345873,3.395047356674631
0,10.63656053248826,-8.435609702821488,5.160946987789825,4.804784235352441,3.40004742641937
0,-0.8736014197208679,-0.9861071701890243,2.3907571272833468,0.36492513775859015,3.4050474961641015
0,1.606238365587662,5.093396310694699,3.470568700092247,5.655067696892428,3.410047565908833
0,6.5260798859775555,3.1529007390284485,7.000381700048636,6.125211911749265,3.415047635653572
0,3.995923138727108,8.522406113769854,5.6101961205606,6.885357780891736,3.4200477053983036
0,5.295768120713493,4.2419124334120095,3.750011954524203,4.315505302323539,3.4250477751430424
0,9.075614828312192,6.301419695885755,10.87982919427956,7.0156544734640125,3.430047844887774
0,4.245463257324992,1.6909278985776581,1.189647831580511,2.715805291184898,3.4350479146325057
0,2.7253134029461714,0.3504370384442028,-2.280532142359042,-1.1940422481067565,3.4400479843772445
0,-1.3148347400955773,4.199947112168009,-0.7407107365952561,-4.09388814824384,3.445048054121976
0,3.9050188226793487,8.729458116183439,0.33911203981941374,-0.24373241302536197,3.450048123866708
0,1.2248740856016873,3.148970046520676,0.04893617789885557,-2.873575046062946,3.4550481936114465
0,-4.345268957125391,5.068482898678859,2.1087616686629826,3.676583949194685,3.460048263356178
0,-0.40541031132622707,2.1579966676687343,-6.631411496884728,-4.723255430627659,3.465048333100917
0,-5.465549982673553,-7.2224886518246505,-3.25158332763991,-9.003093188797298,3.4700484028456486
0,-5.255687976562845,-2.502973065144695,-4.731753832199836,2.0170706717279745,3.4750484725903803
0,-0.1358242980252392,-5.123456577362833,-5.461923018745855,3.227236148340166,3.480048542335119
0,1.174041048231893,0.35606080682569713,1.7479091049556212,3.9674032385054603,3.4850486120798507
0,4.08390805761493,-1.99442091697775,1.0077425314242532,-1.3324280605138947,3.4900486818245895
0,5.853776725386075,-3.384901752976509,-0.012422746746661883,0.347742248341751,3.495048751569321
0,6.843647046447837,1.4546182947957942,1.7374132629789412,4.427914162028396,3.500048821314053
0,-1.6364809847767505,-5.635860777526402,-6.4527494468999524,0.6080876773848982,3.5050488910587916
0,2.1433926257478566,2.063661026357895,0.7670891161979652,4.128262791049814,3.5100489608035232
0,10.12326787179896,0.47318370288799383,2.18692894501703,0.20843949942651585,3.515049030548255
0,0.4631447468249344,-7.217292751412547,-3.063229967616101,-5.001382201249079,3.5200491002929937
0,1.8630232438392695,-3.227768339856767,-4.503387628831351,-1.3212023147220957,3.5250491700377253
0,2.4929033555178504,-2.14824306542705,0.6664559544010988,-3.6810208445318584,3.530049239782464
0,-3.9372149256389095,-0.9287169307569483,-9.693699224620861,-7.730837793910428,3.5350493095271958
0,-2.7573316071592493,-5.68918993822161,-1.4138531722500207,-11.220653165636847,3.5400493792719274
0,-0.5274466964291442,-3.1896620899325847,0.7159941055553657,-8.630466961785347,3.545049449016666
0,-4.71756020061105,-2.7501333876630993,-4.494157396868145,-6.390279183558731,3.550049518761398
0,1.512327873348373,2.5393961671252847,1.1056923149848634,5.499910168596357,3.5550495885061295
0,4.402217518641396,11.648926573051664,1.1355432357417206,2.240101094597979,3.5600496582508683
0,-0.6378912715815754,1.688457828434451,2.145395360053322,6.030293594280059,3.5650497279956
0,-3.3279985043016396,-2.7920100689026963,-1.5347513175119878,4.510487667126774,3.5700497977403387
0,0.8118958134822725,-3.90247712140504,-7.524896802416418,3.9706833121784633,3.5750498674850704
0,0.9617916748559441,-4.172943331407622,-1.4050410999344038,3.4808805280318973,3.580049937229802
0,0.3716890729342629,-2.3334087009289917,-4.785184214976644,1.5310793128999305,3.585050006974541
0,-6.4784119991703975,-3.8638732316435336,-7.225326152049254,2.8312796646883704,3.5900500767192725
0,-2.9185115482139534,-5.054336924890139,-0.7454669152241971,5.26148158103773,3.595050146464011
0,-2.2086095806453128,-6.804799781618953,-1.7256065081544405,-1.1683149406955302,3.600050216208743
0,-5.218706102565742,-8.345261802271223,-2.435744934204278,-7.488109903348593,3.6050502859534745
0,-7.768801119710899,-8.225722986640342,-6.645882196513367,-3.2179033096631504,3.6100503556982133
0,-8.628894637312442,-9.536183333758661,-6.54601829788368,-3.5576951620089625,3.615050425442945
0,-12.50898665989103,-11.536642841811997,-10.886153240580178,-3.897485462337527,3.6200504951876766
0,-6.779077191086667,-3.6071015080833955,-9.576287026126847,-3.527274212231688,3.6250505649324154
0,-2.6691662336415964,5.992440670898969,-5.61641965518297,8.022938587011616,3.630050634677147
0,-6.899253789588413,-5.8080163010325,-5.746551127582953,-4.246847065827594,3.635050704421886
0,0.700660139543129,-5.738472419930381,-2.6666814424990695,-2.4066311720352616,3.6400507741666175
0,-6.289424447395168,-10.018927681557713,-7.756810598585714,-6.3164137328196075,3.645050843911349
0,-1.5195075512332359,-1.7693820811085652,-7.6969385939920025,3.8038052508848796,3.650050913656088
0,0.280410827490772,7.000164386764682,2.832934573687329,4.584025778337968,3.6550509834008196
0,3.6203306884142776,-0.340288272415604,2.1528089072629384,2.254247848704916,3.6600510531455512
0,-0.5997479688455044,-1.5407400532604396,-3.6073155903559067,-0.3055285391255427,3.66505112289029
0,-0.85982514478144,-1.1811909504838347,-4.977438916240162,-2.355303386459284,3.6700511926350217
0,-6.019900839896497,-4.201640958722974,-5.087561067248782,-4.935076694585554,3.6750512623797604
0,-4.459975054494855,2.9979099275514307,-7.647682039811883,-4.624848464567426,3.680051332124492
0,-15.230047788437028,-1.1225382860063031,-13.457801829763621,-7.614618697066938,3.6850514018692238
0,-15.270119040802813,-14.572985593625004,-15.287920432084041,-11.564387392189497,3.6900514716139625
0,-16.91018880949694,-22.75343198904694,-15.308037840578002,-13.434154549255068,3.695051541358694
0,-13.950257090971359,-17.19387746481407,-10.868154047678821,-12.903920166540615,3.700051611103433
0,-2.2203238802417897,-8.194322011806989,-1.5982690445324403,-4.673684241164511,3.7050516808481646
0,-0.940389171249818,-4.554765619407779,-5.668382821347422,-3.8234467692360194,3.7100517505928963
0,-3.7204529573696385,-3.2652082760121517,-3.878495367756013,-4.133207746182116,3.715051820337635
0,-5.870515231673192,2.124350030522586,-2.738606672966096,2.327032832990561,3.7200518900823667
0,-5.760575986883452,-5.396090687400409,-0.49871672582654414,-2.802725026493095,3.7250519598270984
0,-1.2806352152633427,-0.3265304172147022,-2.8088255149287216,-4.032481319274191,3.730052029571837
0,3.1793070913106622,3.8030308537963986,10.391066971250968,5.337763960140227,3.735052099316569
0,8.689250941055137,7.142593138343542,6.33096074407554,5.478010817283239,3.7400521690613076
0,5.84919634188834,-1.3478435511262945,0.010855814444856449,1.3582592574641152,3.745052238806039
0,-6.780856698757972,-4.3582792024584,-4.6492478071799725,-9.981490714282936,3.750052308550771
0,-3.810908173707469,-7.128713803496609,-7.199350110398243,-5.461239092865782,3.7550523782955096
0,-2.4309580756274487,0.07085265823738529,-4.999451084473731,-4.210985872732642,3.7600524480402413
0,0.6989936031431168,4.660420195566723,6.750449281788768,6.18926895216556,3.765052517784973
0,-0.9910531295272406,10.569988821333673,7.010350999761481,7.539525388029537,3.7700525875297117
0,4.23890173428765,6.2695585479563904,4.530254080538798,12.099783440711352,3.7750526572744434
0,1.4888582024346981,0.019129387200958026,8.590158534661605,9.450043115312818,3.780052727019182
0,1.7988162825796705,4.0587013502921385,2.750064372068271,13.05030441596059,3.785052796763914
0,15.168775982099932,13.17827444805968,4.779971602134045,11.520567345709113,3.7900528665086455
0,10.278737307813202,10.087848690762147,19.60988023366034,16.960831906446813,3.7950529362533842
0,1.308700265671946,8.217424087783645,9.97979027461745,6.971098098811773,3.800053005998116
0,-6.951335139117042,3.7570006475701567,-2.4002982681025213,0.47136592229025615,3.8050530757428476
0,1.5186310984230122,3.9965783778265536,8.81961461152612,6.071635375580725,3.8100531454875863
0,6.148598983353924,10.796157285694965,7.209528918994645,2.1719064569326143,3.815053215232318
0,1.5985685206835856,16.575737377667398,6.769444659254965,5.7621791642286215,3.8200532849770568
0,4.068539715137798,14.0653186592311,10.429361836565153,1.1324534949762173,3.8250533547217884
0,2.498512571110226,-4.015098865337482,-2.720719545529275,-3.5372705536230016,3.83005342446652
0,-2.531512907277137,-6.4155151926080745,-0.240799484004807,3.243007015502022,3.835053494211259
0,9.378463283904043,4.054069680684984,1.7491220239601095,6.72328619937117,3.8400535639559905
0,2.3984411483446695,4.583655757926365,8.509044981107063,4.523566994772919,3.8450536337007293
0,0.6484206893776802,0.6032430424185741,6.078969389887279,4.323849398054291,3.850053703445461
0,5.708401909984677,3.2028315372019414,5.958895252220796,4.964133405081938,3.8550537731901926
0,2.478384812854607,-1.7775787549075555,-1.7411774305498584,1.0544190112826428,3.8600538429349314
0,-2.331630599609865,-2.3879878311964284,1.0487513425367676,-2.6952937882380543,3.865053912679663
0,2.8583556748014227,4.741604311061681,-0.8613184276965089,-6.465004998455939,3.8700539824243947
0,6.738343638177137,12.961197674509544,7.648613259516806,7.2452853758082485,3.8750540521691335
0,16.16833329228092,12.530792261293838,11.788546404698817,9.55557732979547,3.880054121913865
0,9.44832463812272,4.950388072651885,16.028481007725347,9.595870858364792,3.885054191658604
0,3.518317675690276,1.9699851088858131,5.758417067432497,6.966165955613223,3.8900542614033355
0,2.4483124040894655,-3.6704166302925563,-0.26164541840013367,1.7364626148289728,3.895054331148067
0,-2.8516911780714187,-3.250817145331018,-1.0517064526529067,2.9467608286949893,3.900054400892806
0,-4.911693072319471,0.3287835634553412,-2.401766038393401,5.257060589498051,3.9050544706375376
0,-3.571693280015715,0.498385495937038,-1.23182417861405,2.047361889193301,3.9100545403822693
0,-2.2516918021870693,-7.712011347891165,-5.931880876126852,7.76766471936245,3.915054610127008
0,-1.8216886395270953,-0.4624069678504157,-1.8219361334782702,1.9479690711680282,3.9200546798717397
0,-2.431683792471536,-1.2228013634760084,-0.38198995290581117,2.738274935340177,3.9250547496164785
0,-0.5216772612489798,3.88680546590581,1.987957663568299,6.518582302231674,3.93005481936121
0,-7.101669045886965,-6.403586478985572,-3.2720932860129928,0.6588911618369365,3.935054889105942
0,-5.381659146117691,-6.13397719734565,-10.102142803516578,-12.920798496102694,3.9400549588506806
0,3.5383524387243166,0.8856333119199048,0.07780910950787183,0.7295133182636324,3.9450550285954122
0,-0.6416342904062144,-7.704754949712498,-7.792237548004813,-2.230173404800223,3.950055098340151
0,-4.021619332469254,-2.065141980409552,0.25771722333026376,-6.39985867465451,3.9550551680848827
0,-4.041602686331452,6.7544722219673545,4.277673423209269,-0.9895425003526479,3.9600552378296143
0,-3.6215843505982384,2.0540876596380344,-4.76236894856531,-10.379224890579959,3.965055307574353
0,-3.1415643235194937,-0.6862956653735658,-1.792409892181571,-13.26890585348064,3.9700553773190848
0,0.6684573969839387,3.4533222487261503,0.42755059228482967,-1.848585396423485,3.9750554470638164
0,1.4784808131925475,4.122941403554475,2.6875125048833164,-5.0582635259576065,3.980055516808555
0,1.2385059274181551,3.59256180048519,3.2674758456381787,1.5320597519354306,3.985055586553287
0,-9.061467258053106,-4.467816559399001,-4.572559385577437,-9.657615568393423,3.9900556562980256
0,-12.201438740727168,-6.8581936751174535,-9.052593188911374,-7.217289492235856,3.9950557260427573
0,-9.051408517464589,-6.67856954543119,-8.802625564165895,-14.006962024276225,4.000055795787489
0,-6.651376584206454,-13.89894416851639,-13.06265651042638,-10.176633168306411,4.005055865532228
0,-2.181342936035977,-3.0893175417540637,-10.052686025829281,-9.216302927068353,4.010055935276959
0,-3.2313075674248797,-1.669689661727887,-3.8827141074984377,-11.175971302254778,4.015056005021691
0,-1.7712704724596726,-10.93006052442183,-5.662740751686074,-11.19563829454749,4.02005607476643
0,5.358768354995285,-5.310430125300667,-6.282765954005662,-3.7653039036396367,4.0250561445111614
0,0.7888089210965972,-5.020798459210959,-5.912789709516331,-4.0849681283684705,4.0300562142559
0,3.4688512318291727,-7.481165520360596,-2.0928120127310095,-3.38463096697455,4.035056284000632
0,5.0188952929137765,-2.5415313023809176,-2.2928328576934334,-4.584292417279521,4.0400563537453635
0,6.9289411097277185,0.9881042015808359,-0.9928522381271228,2.896047523237119,4.045056423490102
0,5.978988687171004,-4.992259001310881,-1.9328701475485968,-0.1536111427007908,4.050056493234834
0,11.559038029529821,0.04737909630094217,6.877113420635483,0.6267315876574323,4.055056562979573
0,9.669089140335274,1.7870185019350522,5.567098472925849,-0.9129242829828559,4.060056632724304
0,2.3691420222546893,2.986659223162366,3.7570850154660196,-4.702578751903857,4.065056702469036
0,12.309196677155098,-0.1336987325537462,6.147073053912283,-0.2622318162532092,4.070056772213775
0,1.8792531061974924,2.715944642083065,-0.7029374065384664,-4.891883472949944,4.0750568419585065
0,3.709311309909959,0.6155893542217753,3.4570536389546707,-7.141533718622935,4.080056911703238
0,1.8693712883355835,1.945235410869096,2.2070461949904763,-4.711182549482546,4.085056981447977
0,-3.4905669587626824,1.3048828188893848,-1.5129597340253913,-8.50082996119384,4.090057051192709
0,3.699496568269031,14.824531584922145,2.2070358561766557,3.4795240511415617,4.095057120937447
0,4.449561869029059,4.604181715118604,1.2870329697852376,-0.38012050719132023,4.100057190682179
0,-8.780371057003,-5.786166785031395,-2.2029683890862604,1.410236369200293,4.105057260426911
0,1.6196977896267724,-5.386513910401341,-3.8229682163395,-4.089405314318228,4.110057330171649
0,-2.9802315914592956,-3.426859655704461,-6.012966507711168,-2.9190455523274297,4.115057399916381
0,-9.300159200383403,0.1927959847385738,-3.6529632585829073,4.611315660751066,4.120057469661113
0,-8.610085036864135,-2.887546983088461,-3.3429584639002674,1.6216783305727924,4.1250575394058515
0,-6.8300090999672785,-1.7478885530118775,-5.1529521181944515,-4.077957537295045,4.130057609150583
0,-12.199931387959321,-1.5682287186843802,-13.252944215542268,-2.5875919373232965,4.135057678895322
0,-4.1598518982681565,-2.378567473572429,-1.302934749397207,-1.02722486383261,4.140057748640054
0,-0.9697706275501383,-3.4389048109471156,1.1070762874398796,0.12314368906565926,4.145057818384785
0,-5.959687571911015,-1.3392407238502253,-4.162911097428903,-0.11648627261881135,4.150057888129524
0,-5.06960272706991,-2.5395752050846148,-7.85289689618167,-3.5161147428134862,4.155057957874256
0,1.460483911636368,4.50009175273006,1.4871188993194413,4.274258284619394,4.1600580276189945
0,-1.209427650823041,3.7697601569876187,5.34713629752254,0.7346328158405631,4.165058097363726
0,1.2606625906510345,1.3094300148873195,-3.0628446930694095,0.3850088569205037,4.170058167108458
0,5.140754641135457,-3.300898666615076,-2.5428240640511257,7.825386413763253,4.1750582368531965
