labels,F4,F3,Fz,Cz,timestamps
0,16.21384628931327,14.640028087033206,15.27677574977491,25.83343104866481,-2.0000094764273832
0,-45.19532728877373,-32.69214160040131,-34.413663401558814,-20.547513395909828,-1.995009452736312
0,54.93550317775592,56.71569363027713,47.12590091276289,57.851545338517994,-1.9900094290452444
0,-8.983662283988894,6.563533806659571,-0.23453126920406397,1.0906072763562842,-1.9850094053541767
0,-7.362823647642495,-33.838621044981714,-31.464959910182554,-42.160327559527445,-1.980009381663109
0,39.33801911236695,49.73922910072497,40.24461502669653,38.69874085320215,-1.9750093579720414
0,-55.43113397885642,-51.972915731012634,-53.50580642148475,-53.30218746257643,-1.9700093342809701
0,-15.380282895966728,-13.635055514670997,-26.34622421688231,-23.783112482934854,-1.9650093105899025
0,-10.129427612072286,-10.54719022343698,-10.196638319782462,-13.844034182020543,-1.9600092868988348
0,-17.83856809825254,-18.509319828666587,-21.377048688073415,-15.83495253161569,-1.9550092632077671
0,-11.377704324000359,-11.761444300160594,-6.3274552777436535,0.7641324982873248,-1.950009239516696
0,17.873163742349966,20.866436393456247,20.622141956435623,26.083220938579412,-1.9450092158256282
0,-10.415963866995105,-10.87567771593845,-19.6882569398744,-22.887687179902457,-1.9400091921345606
0,1.2649128801485414,8.642213403382131,-0.648651920999594,6.8414081733194845,-1.935009168443493
0,21.955794015816696,18.870109782780098,14.910957058916242,16.03050702865481,-1.9300091447524252
0,0.2766795716057193,-20.041988546897734,-13.729429954173618,-27.350390583561648,-1.925009121061354
0,-29.712430421481887,-24.394081555001442,-28.639812914215774,-32.36128463274549,-1.9200090973702864
0,13.018464067647356,11.923830789860304,10.84980822561705,11.607824912972568,-1.9150090736792187
0,15.829363070619284,2.551748520036815,7.509433513131222,9.636938086871346,-1.910009049988151
0,-18.449733380968254,-15.350328331810061,-7.400937003619349,-8.6239450774232,-1.9050090262970798
0,26.731174744055814,15.257600267026735,19.128696723119,16.64517545338745,-1.9000090026060121
0,15.582087476325576,-32.45446565049339,-29.9916652591626,-18.985700287679673,-1.8950089789149445
0,-41.97699515427257,-21.006526050691846,-14.762022902716534,-18.99657226748483,-1.8900089552238768
0,9.29392688200601,10.701419101463516,14.667623841149766,12.272559547838911,-1.8850089315328091
0,31.764853615477083,24.969369842057127,26.877275021761363,19.571695192796735,-1.880008907841738
0,-12.824214923650587,-4.322673793090105,-4.603069312177379,-16.989165298350812,-1.8750088841506702
0,12.516721293934948,3.3652882308830323,-2.723409113082039,-12.800021891748635,-1.8700088604596026
0,22.517662296744856,11.653255948168972,15.286255666028824,0.739125446834134,-1.865008836768535
0,11.348608112332338,7.751229392459983,2.9259250717946275,0.9482767523671392,-1.8600088130774637
0,42.269558766668396,44.6192085965062,41.105599150070105,34.147432059977554,-1.855008789386396
0,61.950514283279084,46.43719359110158,45.5352779449681,31.606591403792592,-1.8500087656953283
0,45.05147468194822,38.79518440378287,38.28496149759417,23.725754815751422,-1.8450087420042607
0,54.78243997766946,48.82318105801529,49.104649845140614,40.86492232497471,-1.840008718313193
0,81.98341018019067,83.22118357274836,80.95434302035329,66.44409395733886,-1.8350086946221218
0,5.174385293756346,19.39919196177611,12.834041050924782,-0.93673026515509,-1.8300086709310541
0,-17.764634682009515,12.737206233877911,-5.586256040116621,-11.91755032397696,-1.8250086472399865
0,21.026350250301807,29.565226394309803,21.773451767522005,10.821633797794924,-1.8200086235489188
0,-9.302659912331192,13.693252446080363,4.693164492972359,1.110822116865437,-1.8150085998578476
0,-16.3716651729726,-12.228715609568862,-19.947117845362538,-22.06998535005291,-1.81000857616678
0,11.899334465577077,28.39932222743066,25.892604770579595,27.059211413894115,-1.8050085524757122
0,-4.879660999046569,8.737365956336125,4.4023323586861185,20.498412425490177,-1.8000085287846446
0,-34.868651568855825,-27.194584424465795,-25.977935063593986,-12.462382299362563,-1.795008505093577
0,-25.737637244869884,-17.336528916756805,-18.838197478733946,-3.053172745712878,-1.7900084814025057
0,-17.116618026055768,-5.568467521254725,-6.268454868025711,1.076041101249615,-1.785008457711438
0,-31.745593908952653,-23.220400237158024,-17.268707211210092,-15.054740743308956,-1.7800084340203703
0,2.6954351121231794,9.117672937635575,13.091045513159433,21.374481736124658,-1.7750084103293027
0,36.79646904429656,26.47575200593524,24.550803326958828,28.713708554910497,-1.7700083866382315
0,-11.622492105352801,5.223836970139182,12.180566251373065,10.802939727223418,-1.7650083629471638
0,-41.02144833042843,-43.92807216826178,-22.959665693680847,-27.98782473433245,-1.7600083392560961
0,11.0196003759079,-3.109975407578996,11.38010751108178,11.131415182237225,-1.7550083155650285
0,13.040654021706677,9.708127255208801,19.089885884944714,12.280659489164293,-1.7500082918739608
0,-25.1982873844797,-17.113764175857632,-12.71033055312611,-13.680091801324433,-1.7450082681828896
0,7.4527761659741145,-4.755649696303339,-1.430541784681839,1.6391613227707031,-1.740008244491822
0,-40.93615531770225,-31.91752930093542,-28.400747791135544,-24.40158112630921,-1.7350082208007542
0,-11.795081824950019,-27.139402983087574,-19.470948552844117,-20.992319135402138,-1.7300081971096866
0,11.675996656475784,7.7287292659066775,11.04885595139137,8.786947310046664,-1.7250081734186153
0,-24.3229198599363,-29.75313254349556,-24.52133425593733,-26.223781774111806,-1.7200081497275477
0,20.718168639879956,7.785011600412476,17.35848084839517,16.84549362884885,-1.71500812603648
0,-22.530737829701458,-42.90683828952682,-31.601698711869687,-25.96522646372648,-1.7100081023454123
0,-29.64963925381309,-32.35868219883582,-33.88187291211953,-29.555942033709645,-1.7050080786543447
0,-21.798535616265184,-24.910520110538727,-24.602041725885876,-14.356653061467984,-1.7000080549632735
0,5.7725731011325605,-4.0923520048482045,9.667794875741176,11.652640474519144,-1.6950080312722058
0,-25.3563130817604,-20.24417785979526,-11.952363076573787,-11.008061403042051,-1.6900080075811381
0,-22.385194143829477,-22.35599765182861,-19.262515551307214,-18.398758670961346,-1.6850079838900704
0,-28.20407006232687,-23.66781135571753,-20.372662515990896,-15.979451305297456,-1.6800079601989992
0,-48.342940812120844,-35.98961894410129,-32.81280393652421,-41.3001392805991,-1.6750079365079316
0,10.768193634759742,-1.6914203872003766,0.4470602232756349,-1.8908225692993854,-1.670007912816864
0,10.259333308551499,2.5967843468175142,-0.9830699986022866,-7.42150114173014,-1.6650078891257962
0,1.9104782401843727,-1.805004709185579,-3.6331945632157177,-8.072174966820677,-1.6600078654347286
0,-46.308371539518646,-35.05678752192461,-34.75331343109695,-43.31284401247261,-1.6550078417436573
0,-25.927215998833677,-21.458564057117133,-23.463426561635973,-34.20350824483616,-1.6500078180525897
0,-3.346055103803489,-12.430334278574104,-14.553533912198317,-18.164167627295186,-1.645007794361522
0,22.015111181540405,22.037901851711368,18.536364561817635,10.965177879495482,-1.6400077706704543
0,-15.47371710623923,-11.60385562753056,-12.423731094048124,-9.685471683566055,-1.6350077469793831
0,-2.8625399307520167,11.314393322272581,10.566179165802918,4.74388372487439,-1.6300077232883154
0,12.208642744438936,-5.8973512605832665,-4.233904613170893,-3.896755853722918,-1.6250076995972478
0,-24.97016904402753,-36.06908933770416,-28.993982385428055,-27.827390377637556,-1.6200076759061801
0,0.2710247408101347,-4.720820869778308,3.405945895230909,-1.468019804377054,-1.6150076522151124
0,-4.867775863428564,-6.812545815945346,-10.814119723913267,-5.158644090299159,-1.6100076285240412
0,3.2234291814962077,-0.32426413409030974,4.985820805260788,5.16073680908756,-1.6050076048329736
0,5.184639914038553,-0.5259757815035102,2.6057675312248856,4.260122938516352,-1.6000075811419059
0,7.975856372477008,10.932319284677071,-2.4442794975367517,11.019514342496286,-1.5950075574508382
0,20.78707859453067,10.710621107051047,19.795679767248433,20.128911064895412,-1.590007533759767
0,1.9883066169633965,-9.711070272368696,-8.494354626581687,7.128313148510054,-1.5850075100686993
0,33.219540475302885,22.107245187878807,27.575617368169528,31.057720634744367,-1.5800074863776317
0,5.570780203607041,-13.594432471173938,-7.9444042020806895,-3.552866436548572,-1.575007462686564
0,28.432025834236715,8.953896791145876,16.00558070825979,19.486551973019196,-1.5700074389954963
0,18.85327739771996,-5.697766984655233,17.695572143955435,15.955975900596222,-1.565007415304425
0,35.54453492253403,15.710576241842567,14.365570148694394,20.36540538200311,-1.5600073916133574
0,8.575798434822532,-10.521073489187797,-6.184425235136293,-7.245159548427302,-1.5550073679222898
0,-14.66293204132057,-10.862716137739648,-9.134413965996096,-9.37571885737892,-1.550007344231222
0,65.01834351686576,16.035648336396466,22.975603997507267,19.923727488241816,-1.5450073205401509
0,-6.940374869287581,-1.4459800263940026,-1.4443713033893137,-1.4668204785521073,-1.5400072968490832
0,-50.86908718004129,-18.14760118583741,-18.824339827877445,-20.147362725044797,-1.5350072731580156
0,-27.997793395487847,4.1807848984849905,7.895698464810463,12.452100781519956,-1.5300072494669479
0,-27.22649349324006,-8.98082173245462,-0.3242563841658963,-4.2184299257291435,-1.5250072257758802
0,-7.755187447897666,14.897578962741822,18.13579566643017,23.551045186341288,-1.520007202084809
0,-11.583875231814138,-22.284012974417827,-21.764145342539972,-17.619473849628772,-1.5150071783937413
0,-2.6625568159280633,0.9644024977598642,2.625920629596195,5.740012998561454,-1.5100071547026737
0,-11.571232170265253,-5.837174578513676,4.545993623775139,4.049505763044855,-1.505007131011606
0,-0.4199012641402144,-17.778744160359516,-11.333926318784801,-7.2909955240245665,-1.5000071073205348
0,4.29143593367413,-2.9803062041228983,3.5861608432916183,4.348509169477953,-1.495007083629467
0,-23.957220545240126,-11.421860665220478,-7.383744848375871,-9.75198012423639,-1.4900070599383994
0,32.1241293310108,15.386592501692263,13.916356648045438,19.507536627155975,-1.4850070362473318
0,-4.5645144056603755,-8.51494665776446,-12.053534625626554,-12.94294054412239,-1.480007012556264
0,-0.1531517238457919,7.123521901927603,7.096581372326762,-3.3834116060154824,-1.4750069888651929
0,33.79821740719148,17.00199822601537,16.796704683494937,12.116123473599218,-1.4700069651741252
0,51.719593016971515,37.230482358958895,38.76683534877208,21.985664726734576,-1.4650069414830575
0,34.12097513234365,15.798974343472583,14.616973407306007,-0.01478781541208829,-1.4600069177919899
0,41.002363776365996,49.08747421976968,29.887118895838714,5.9747658772422945,-1.4550068941009222
0,4.413758968358604,32.5959820250824,12.157271848729973,-11.785674165902094,-1.450006870409851
0,62.39516072451149,56.43449779310141,37.1374322981335,16.903892084388488,-1.4450068467187833
0,36.726569057903916,60.67302155329079,53.31760027371336,27.55346465705196,-1.4400068230277157
0,45.61798397780666,39.11155333024552,34.10777580179254,9.303043579933021,-1.435006799336648
0,56.9094054891454,66.8900931434115,39.537958904697106,19.28262887918523,-1.4300067756455768
0,32.21083359232274,53.13864100703244,40.478149600773406,12.062220579306699,-1.425006751954509
0,37.822268283313626,33.117196930091026,41.278347904530925,13.42181870331961,-1.4200067282634414
0,31.043709554143014,36.5157609167332,40.14855382658091,21.561423272822687,-1.4150067045723738
0,76.05515739310411,58.8943329669462,64.32876737343075,46.59103430770373,-1.410006680881306
0,68.2966117839705,43.89291307655165,53.55898854697654,35.60065182531146,-1.4050066571902349
0,44.25807270481976,37.901501236829496,44.46921734396131,27.940275839649082,-1.4000066334991672
0,91.51954012755776,23.380097434734232,30.38945375609201,17.469906361366185,-1.3950066098080995
0,-27.748985981711897,25.488701653684625,14.859697770925656,11.729543398445369,-1.3900065861170319
0,-2.777505661029995,11.827313874361563,13.969949373052275,23.019186956906697,-1.3850065624259607
0,-2.136018949840948,5.945934075391236,14.170208545081906,20.998837041058472,-1.380006538734893
0,-4.104525887291405,13.44456223397769,25.710475268066837,26.158493653306234,-1.3750065150438253
0,24.21697348773788,13.43319832625548,18.130749521373275,25.888156793860276,-1.3700064913527576
0,62.10847913561753,43.76184232705762,44.9410312822839,49.70782646039227,-1.36500646766169
0,3.5399910144133044,25.360494209143095,14.431320525524114,9.867502647592032,-1.3600064439706188
0,18.721509079156277,-9.350846057297618,-10.06838277671064,-8.21281465264629,-1.355006420279551
0,-28.066966717196813,-33.71217850371523,-25.90807865355368,-24.353125449808314,-1.3500063965884834
0,-27.915436421982985,-27.833503161111942,-12.857767133686673,-8.083429752981235,-1.3450063728974158
0,-4.623900081284488,-4.844820058478046,-4.127448244348982,3.4562724299536427,-1.3400063492063445
0,20.847642260391805,1.4438707771999737,-4.157122011492232,4.625981091941603,-1.3350063255152769
0,-7.9008094409013285,4.97256931993001,-3.7867884603225646,-2.294303773953256,-1.3300063018242092
0,-31.589255229204888,-3.388724456145324,-12.9564476155437,-10.26458217475141,-1.3250062781331415
0,-42.7976951477212,-29.20001057681115,-24.90609950112858,-22.634854117135653,-1.3200062544420739
0,-48.60612923709486,-21.3512890670169,-13.305744139770832,-7.335119606790524,-1.3150062307510026
0,-11.584557534336533,-18.232559949962745,-8.915381552537696,-5.265378648098997,-1.310006207059935
0,-30.612980072975894,-17.443823246786394,-18.285011758996973,-12.285631244358871,-1.3050061833688673
0,-1.791396883921827,4.674921023134029,5.5053652224975185,12.654122601862152,-1.3000061596777996
0,12.78019200358064,18.383672841406035,21.085749374294046,34.543882888100086,-1.2950061359867284
0,-11.598213439073369,5.08243218952344,-0.20385932147112373,6.62364961087792,-1.2900061122956608
0,-39.376613240202296,-14.80880095173259,-19.153460883334436,-7.176577234893367,-1.285006088604593
0,-25.035007426892246,-29.130026601704817,-28.73305532972961,-15.166797655196909,-1.2800060649135254
0,-19.97339602385289,-24.351244778573122,-17.392642677709514,-5.307011655722925,-1.2750060412224578
0,-22.031779053229677,-35.66245549831341,-20.41222294226075,-4.687219241315126,-1.2700060175313865
0,-1.370156535044226,-35.12365877413033,-22.9517961362824,-9.11742041604188,-1.2650059938403189
0,-44.65852848756994,-33.86485461609396,-30.701362270583257,-16.957615183252237,-1.2600059701492512
0,-13.736894927201117,-17.45604303104372,-10.870921353717234,2.4521964545814487,-1.2550059464581835
0,1.3947441317939462,-20.64722402295859,-16.900473392064935,-9.237985504146307,-1.2500059227671123
0,-23.083611323149288,3.761602406338735,2.7099816096713143,18.401838939451203,-1.2450058990760446
0,-17.211961303374217,-20.519563743556382,-18.649556352093388,-10.308330215744485,-1.240005875384977
0,10.389694181026979,4.8592775278940925,4.670912719860093,12.6415070288606,-1.2350058516939093
0,-2.148644879097437,-2.1718737780940582,-7.308611176600271,1.0013506715310674,-1.2300058280028416
0,32.7530215071353,23.78698233990291,29.591871956658903,27.581200710016457,-1.2250058043117704
0,-34.025306670053844,-32.394154116987536,-34.12763788247576,-34.04894285868015,-1.2200057806207028
0,-11.52362942075128,-18.275283147583878,-13.637140696134813,-19.779080037714202,-1.215005756929635
0,2.618053245679678,32.663595250159865,25.233363514300603,27.120789170640624,-1.2100057332385674
0,-19.330258679020673,9.662481078745941,-4.266125251990554,11.020664764767238,-1.2050057095474962
0,-6.4785652022099525,-12.088625660035312,-5.465606996073607,6.610546742438529,-1.2000056858564285
0,-34.57686633016412,-36.31972496491523,-18.305081719145463,-7.109564899633489,-1.1950056621653609
0,14.664837932283426,-10.31081683367075,0.2854505781919266,5.780329834726189,-1.1900056384742932
0,-22.863452418377932,-26.311901262105106,-17.09401010374025,-9.409769058358322,-1.1850056147832255
0,13.278262615161301,16.367021755854367,14.676536236176217,29.380138417207764,-1.1800055910921543
0,-2.0800169694111803,1.4859522273058365,14.127089599344508,26.640052256889067,-1.1750055674010866
0,-20.168291174251763,-30.145109840399336,-29.51235001311804,-10.180027545316928,-1.170005543710019
0,14.483439998778481,-7.666164439422007,-8.711782600092317,2.0798990031918043,-1.1650055200189513
0,25.585176548015927,2.7027884392131827,9.008791840344132,17.77983189440216,-1.16000549632788
0,-5.003081528820809,24.411748805271525,19.17937331072691,18.45977111976611,-1.1550054726368124
0,-37.991334234824485,-3.4492833317831932,-11.650038186740701,-0.3502833303501385,-1.1500054489457447
0,-12.959581572611965,-10.960307963247757,-9.74944265037966,6.0196685332712665,-1.145005425254677
0,-39.52782354289055,-19.621325080516996,-14.148840078283973,-2.6503733008270163,-1.1400054015636094
0,-16.556060143874085,-12.302334674097931,-3.7082304676567386,1.7595911556274788,-1.1350053778725382
0,6.735708628574803,6.556663266767576,9.742386185154725,15.02956189072578,-1.1300053541814705
0,-34.51251721971184,-36.044331246109294,-42.11699011563832,-36.86046110761966,-1.1250053304904029
0,29.099262318156846,3.954681800116093,5.59364063498755,1.4595221488165564,-1.1200053067993352
0,-25.468952750282757,-2.5062975805607697,-19.5557215566379,-18.59048835069207,-1.115005283108264
0,-23.207162416997104,-16.337269373290532,-20.145076682823085,-23.990492615521276,-1.1100052594171963
0,24.084633326897876,7.55176643734248,9.275575265390607,4.119509346381374,-1.1050052357261286
0,7.356434490945737,-0.07919013279532999,1.1962342979082496,-9.320482471656355,-1.100005212035061
0,31.938241084156612,19.159860932184692,16.066900424778083,4.169531924442744,-1.0950051883439933
0,-7.989946885902201,7.62891964757687,10.887573655443548,-3.8504474709363894,-1.090005164652922
0,18.661870586925573,-8.06201397220554,-6.981746001546548,-10.420420663201751,-1.0850051409618544
0,-25.51630649203422,-21.16293991316844,-25.821058538112798,-28.670387657237498,-1.0800051172707867
0,12.87552188240628,17.276141839084076,19.399636054227354,14.409651543131613,-1.075005093579719
0,18.137355715536497,9.335231299393879,15.070337784439394,6.229696935017029,-1.0700050698886479
0,8.65919501218912,1.164328482301364,4.781046661054761,-0.11025148438597632,-1.0650050461975802
0,-12.86896022375634,-5.926566598278022,-13.588237308294397,-13.960193718198688,-1.0600050225065125
0,23.942890010910844,6.402546071301329,15.00248588360438,16.099870230464926,-1.0550049988154448
0,-21.755254280900264,-13.59833349525684,-12.906783756035486,-19.920059641306004,-1.0500049751243772
0,-2.10339309635238,23.080794715845474,15.973953779970529,4.470016663788666,-1.045004951433306
0,-7.101526432222996,-5.030069281748519,-0.4853015013900752,-17.519900856532487,-1.0400049277422383
0,-13.399654284574652,-5.480925474790728,-6.0345495934432245,-20.049812203778707,-1.0350049040511706
0,18.75222335118442,12.808226149727131,8.976209510287083,9.730282621622283,-1.030004880360103
0,9.644106479807899,11.957385604610772,12.926975816112947,1.2603836201297525,-1.0250048566690317
0,-2.2840048944889206,-0.8334470979242437,-9.212250670089524,-12.059509207514132,-1.020004832977964
0,15.287889231745567,6.515728053603292,8.468530057073387,6.5406041395248975,-1.0150048092868964
0,26.929788861160734,41.784911069922536,37.759318002528296,32.51072366207474,-1.0100047855958287
0,15.391693995094935,31.77410196026124,22.790113169978213,14.160849360132936,-1.005004761904761
0,-39.32639536659085,-16.136699268508274,-22.01908443882437,-27.699018767753106,-1.0000047382136898
0,22.395520775474374,29.312507388482825,21.621725176475433,20.521119276164193,-0.9950047145226222
0,14.827442420923969,12.61172193487406,10.312542015661757,7.521263489557535,-0.9900046908315545
0,-14.71063043083487,-20.289055626749665,-12.586633922048257,-6.49858613020655,-0.9850046671404868
0,-23.75869778073915,-43.16982529412292,-21.67580263776729,-21.598429586076847,-0.9800046434494156
0,6.743240370852219,-13.930587063588804,8.015035867947025,7.721733119405209,-0.975004619758348
0,16.405184024450733,13.108659070763458,22.05588159524356,23.061901984271984,-0.9700045960672803
0,8.897133180536743,-0.10208688379048159,4.006734544021357,14.82207700618672,-0.9650045723762126
0,-11.160912161176691,-19.952824919727554,-11.482405286716943,-6.4077418184072865,-0.960004548685145
0,-23.118952001330165,-14.153555029183456,-14.06153789833628,-6.897554494019663,-0.9550045249940737
0,4.9430136600598535,10.205722796640174,5.489336708295641,10.742638974675643,-0.9500045013030061
0,-15.975015175982964,-2.784991432686407,-7.789781467006563,-4.6771614169105025,-0.9450044776119384
0,2.946961492385225,-2.7556977074147637,-3.8388924240031477,-2.186955673425938,-0.9400044539208707
0,11.478943667470777,1.7036039821996252,-5.267996162092721,0.7632562004819253,-0.9350044302297995
0,51.520931351238445,40.27291364572054,25.632907319595105,21.983474200141174,-0.9300044065387318
0,9.292924543947441,39.94223129151015,7.593818021593639,13.933698320314221,-0.9250043828476642
0,7.104923243409052,-15.278443074445057,-11.92526405646063,-5.4360714453521615,-0.9200043591565965
0,-53.343072554079406,-25.65910944808057,-23.68433891536674,-15.505835104032819,-0.9150043354655288
0,-55.79106285137929,-35.97976782514752,-31.113406555062603,-14.485592662710818,-0.9100043117744576
0,12.900952351644612,4.699581800516734,6.427533026341824,10.454655872533307,-0.90500428808339
0,-17.907026941781897,-14.371060562920308,-16.641520167532576,-15.45508950360153,-0.9000042643923223
0,-1.025000726780084,10.628305093855323,2.4094338679920986,7.115171203981058,-0.8950042407012546
0,-33.80296899755914,-5.402321219439113,-12.239604861748827,-13.374562009314667,-0.8900042170101834
0,25.089068252736062,23.567060506834977,16.36136364905593,29.51571085211322,-0.8850041933191157
0,-2.7588889682640865,5.176450281736681,-1.517660593681525,7.995989783509014,-0.8800041696280481
0,-0.2868406529484443,2.805848113388068,8.123322415624413,20.526274779001177,-0.8750041459369804
0,-10.174786793940225,2.89525400909493,5.3943126820596525,12.886565831211184,-0.8700041222459127
0,-1.6827273836798389,13.154667975640647,0.8053102102152172,15.18686293122884,-0.8650040985548415
0,1.7793375858170448,-10.405909980654044,-3.353684995703744,7.277166068711233,-0.8600040748637738
0,20.901408122675818,21.613520146085268,28.487327068206863,34.69747523193375,-0.8550040511727062
0,-32.2465157652531,-13.337041638670033,-17.031653594669546,-7.182209592343641,-0.8500040274816385
0,29.815565929688177,1.4724046702511502,12.59937301842517,33.158111581074145,-0.8450040037905673
0,30.567653214902943,19.281859077890715,20.640406909765428,28.09843873577745,-0.8400039800994996
0,11.779746096548097,-0.08867841103888907,1.3014480808958764,3.418771853403845,-0.835003956408432
0,-12.728155421075623,-7.88920779243384,-18.927503467512445,-10.930889086216336,-0.8300039327173643
0,-2.5160513346995628,0.41027093752343385,6.433552265006792,7.109455895959869,-0.8250039090262966
0,-0.9439416409936869,-0.41024221718340215,0.034615279297179335,15.129806778854777,-0.8200038853352254
0,-56.47182633593258,-32.06074725218841,-24.704314423430723,-13.72983645890868,-0.8150038616441577
0,-4.079705413918047,-9.631244162232674,-8.863236841353404,2.4305261609533617,-0.8100038379530901
0,-1.1975788671428345,-8.211732940594437,-15.752151971472916,-0.7691053832409613,-0.8050038142620224
0,39.26455331352044,15.397786420689222,9.958940190456811,21.801268886867078,-0.8000037905709512
0,-12.043308863198119,4.637313929908313,4.490039649353513,10.171648949094411,-0.7950037668798835
0,-7.301165389609082,6.886849594893228,0.8511464100946258,7.522034780173749,-0.7900037431888158
0,13.830983741559484,12.786393422735342,12.452260477149046,21.26242635562642,-0.7850037194977482
0,-17.836861462325654,-21.394054580114037,-30.26661814533269,-25.8171763500421,-0.7800036958066805
0,-14.744700993629834,-5.374494407312407,-9.995489452905945,-12.056773362645481,-0.7750036721156093
0,-15.982534843900154,-14.34492605187111,-15.97435343998823,-13.47636470724301,-0.7700036484245416
0,6.369636996552442,4.444650494160426,6.596789900378903,-0.8259504076201936,-0.7650036247334739
0,-0.4181854616815829,-1.195764760583325,4.717940575974232,1.0144695133936428,-0.7600036010424063
0,-4.666002207728598,-3.1861718071995258,-1.070901405321645,-3.935104966599334,-0.755003577351335
0,12.256186769282882,5.433429363282067,3.6202639641398875,4.075326130138852,-0.7500035536602674
0,12.618381479989432,8.803038759764018,10.511436691739126,0.5157627813679806,-0.7450035299691997
0,21.58058193425874,23.41265639067866,26.302616784305286,12.006204964703478,-0.740003506278132
0,41.562788140448106,25.922282263295322,31.413804247370642,14.156652657287225,-0.7350034825870644
0,53.35500010440792,47.901916382858275,52.00499908414664,29.067105835264073,-0.7300034588959932
0,52.187217828251114,36.73155875165093,37.39620129449869,5.7575644732224855,-0.7250034352049255
0,38.429441309492745,41.51120936828566,27.55741087438915,-0.9019714558619523,-0.7200034115138578
0,77.54167054078206,68.0508682272839,72.67862781584299,36.85849801977818,-0.7150033878227902
0,90.25390550933064,87.4705353182743,88.0398521063448,46.3689728704467,-0.7100033641317189
0,60.12614619569968,57.87021062468328,54.17108372735278,15.089453063867495,-0.7050033404406513
0,75.62839257310688,61.90989412304603,60.302322653484616,17.42993856470403,-0.7000033167495836
0,85.500644607542,86.50958578320446,81.08356885283108,39.99042933504728,-0.6950032930585159
0,67.84290225772222,69.05928556827075,58.67482228709197,21.85092533459527,-0.6900032693674483
0,18.345165475270733,47.848993434363635,38.126082911547414,0.15142652053559447,-0.685003245676377
0,71.08743420591033,80.46870933094044,60.95735067569211,19.2319328480566,-0.6800032219853094
0,39.149708390550636,62.93843320115956,35.918625524002756,-2.3775557288873967,-0.6750031982942417
0,52.59198796537278,42.438164981863196,40.84990739632039,12.172960742801223,-0.670003174603174
0,13.534272861920474,20.367904604186027,25.231196228308235,5.683482215507266,-0.6650031509121028
0,31.726563007907938,18.907651995078904,13.142491952198316,-7.775991358979072,-0.6600031272210352
0,-2.0411416717241178,10.637407078806685,3.72379449774329,-13.205460029087783,-0.6550031035299675
0,14.38115874611762,22.557169777793213,27.165103793098062,9.835076157084384,-0.6500030798388998
0,10.563464183333046,10.016940012878322,17.626419765037994,-2.3743828481473566,-0.6450030561478322
0,3.5957745608728144,6.156717703423172,10.94774233867967,6.926162907557806,-0.6400030324567609
0,-6.721910201082372,-0.45349723233923367,3.6590714375230164,5.896713376263626,-0.6350030087656933
0,3.6804098173137936,3.476295123208576,10.850406983918502,14.53726850954661,-0.6300029850746256
0,10.522734535846835,-8.40390531254398,-5.968251100519696,-6.9321717416975535,-0.6250029613835579
0,4.8550638740242595,-14.4640986220681,-10.28690289452049,-14.05160742703689,-0.6200029376924903
0,20.547397750677263,6.715715112701107,-4.535548476604305,4.9289614041373,-0.615002914001419
0,-49.140263916020224,-23.994464189476822,-20.024187924603183,-9.070465297038066,-0.6100028903103514
0,-54.21792120730108,-20.544636608974848,-25.352821315255227,-3.119887578981544,-0.6050028666192837
0,-25.535574201656175,-24.10480222471807,-20.481448723651596,4.4006945102335,-0.600002842928216
0,-5.133222973872108,-18.144961113639855,-19.000070222827873,2.701280922716399,-0.5950028192371448
0,-22.710867595919552,-5.795113350669954,-21.808685883736295,-2.3881283895051313,-0.5900027955460772
0,-30.228508137891684,-26.485259009060456,-15.707295775356204,1.452466525458461,-0.5850027718550095
0,-14.26614466795002,-7.885398160570356,-3.5858999648773624,14.053065619371477,-0.5800027481639418
0,-40.05377725197648,-25.585530875391864,-16.114498518084215,0.4136688436418243,-0.5750027244728741
0,-31.421405953289998,-21.195657221996647,-23.963091499576905,-8.155723850817436,-0.5700027007818029
0,-43.72903083218281,-39.91577726680928,-34.28167897239115,-16.265112513161913,-0.5650026770907353
0,-35.066651945459306,-32.845891073637,-26.300260997278226,-5.544497191914749,-0.5600026533996676
0,-60.07426934609986,-51.6359987030432,-48.09883763212233,-20.973877934546195,-0.5550026297085999
0,-52.63188308276049,-27.236100211866383,-25.357408931540387,-2.653254787350691,-0.5500026060175287
0,-41.78949319924974,-33.13619565315161,-38.3759749466921,-6.322627795520402,-0.545002582326461
0,-50.31709973445133,-50.066285076379614,-50.074535725240516,-25.191997003298518,-0.5400025586353934
0,-14.174702722764215,-9.846368527563872,-19.21309131119905,4.73863754608041,-0.5350025349443257
0,-42.84230219480525,-56.68644604933161,-54.171641744866236,-31.16072418945432,-0.530002511253258
0,-29.489898177970367,-20.646517681022896,-19.300187062948474,-4.060082250710967,-0.5250024875621868
0,-46.8074906964361,-43.136583458597244,-37.288727298704174,-24.979436677069927,-0.5200024638711191
0,-23.245079770891053,-33.45664341456568,-21.1672624822132,-5.498787506391593,-0.5150024401800515
0,13.927334581146734,-6.066697578163617,0.37420735912012004,16.88186522469519,-0.5100024164889838
0,-0.970247656005724,0.7132540239150005,-4.414317800293471,15.562521479889641,-0.5050023927979126
0,-15.517826497571487,-27.766788633572983,-34.392837984996035,-13.486818777735897,-0.5000023691068449
0,-8.135401958507869,-15.856825574772525,-17.941353218302147,-1.5561555857177,-0.49500234541577726
0,-21.692974052936293,-20.966856822281095,-9.019863521673528,-6.9654889815014185,-0.4900023217247096
0,-12.270542793693584,-14.986882396843434,-6.3283689147939945,0.7351809979241943,-0.4850022980336419
0,6.131891807727592,-13.856902317433489,-6.306869416178195,-7.954145684025752,-0.4800022743425707
0,-29.48567025910694,-18.696916601419566,-18.185365043517283,-11.683469063518448,-0.47500225065150303
0,-13.76322900362325,-9.186925264659953,0.43614418637799424,-2.7127891761047076,-0.47000222696043537
0,-11.270784433840847,-12.986928321598537,-10.452341742394797,-9.432106056596854,-0.4650022032693677
0,11.75166344360575,2.0430742145001872,5.899177154946856,3.678580260832982,-0.4600021795782965
0,-7.155885377232968,-20.11691766874402,-12.709299136399464,-20.85073025746871,-0.4550021558872288
0,-10.943430902136702,-16.996903982820292,-4.987770630859803,-10.290037644472907,-0.45000213219616114
0,8.789026863371397,8.43311526190924,7.21376265760174,8.040658067780313,-0.4450021085050935
0,-1.2885120859355343,11.683140055903783,9.235300715244893,7.201356847873004,-0.4400020848140258
0,4.50395224470865,-5.966829610396829,-2.6831564719442613,-0.9179413356996515,-0.4350020611229546
0,-23.613580149995986,-22.43679374679993,-19.301608918278582,-20.91723651468843,-0.4300020374318869
0,-15.231109274868993,-26.86675236252062,-17.010056637669148,-25.786528720368064,-0.42500201374081925
0,-53.66863513327068,-22.066705465091403,-22.47849964276134,-28.035817982473183,-0.4200019900497516
0,-6.7861577261090975,-12.596653059866943,-17.886937944435935,-12.365104328522353,-0.41500196635868036
0,-15.853677051555943,-20.98659515017052,-16.38537155168649,-14.78438778386492,-0.4100019426676127
0,9.808806894191694,-1.2565317376450456,4.1561995281726105,1.1363316277958733,-0.40500191897654503
0,-17.278705884126342,-11.02646282262845,-11.352224711035408,-9.642946116201767,-0.40000189528547736
0,-5.426215381247004,-2.586388404540679,-7.620644274807519,-9.082221037834616,-0.3950018715944097
0,-13.60372159120493,-8.826308482123771,-4.979059168011686,-17.401493158338088,-0.39000184790333847
0,27.14877549269302,-0.22622305353272987,3.3025306051144354,-10.330762497901551,-0.3850018242122708
0,1.3012758772031559,-5.766132116429592,-6.475874959270801,-18.37002907543521,-0.38000180052120314
0,5.003779568393539,0.9839643318973381,-1.6042758647952704,-17.389292908439458,-0.37500177683013547
0,-7.6737134283697035,14.304066294318174,8.127327885090018,-8.488554012911544,-0.37000175313906425
0,46.89879689180207,32.77417377326123,36.63893628670917,13.55218759642158,-0.3650017294479966
0,32.62131053260663,24.874286769693573,30.390549335090537,7.212931905304081,-0.3600017057569289
0,31.813827495197017,49.00440528212732,52.00216702267858,29.06367889894526,-0.35500168206586125
0,38.01634777743349,46.03452930580651,39.793789338357975,11.654428561233873,-0.3500016583747936
0,63.94887137361914,59.834658831894735,56.23541626683954,27.9251808742846,-0.34500163468372236
0,67.61139827372541,49.00479384677381,50.547047788250815,22.115935818220144,-0.3400016109926547
0,38.4639284623877,39.39493433178722,38.708683877914154,12.24669337106987,-0.335001587301587
0,53.50646191872139,49.025080263493294,42.790324506489284,20.237453508882076,-0.33000156361051936
0,48.0389986168049,51.29523161394701,46.83196964032273,22.488216205919997,-0.32500153991944813
0,33.931538526037436,47.58538835061656,36.12361924158656,8.818981434672843,-0.32000151622838047
0,38.38408161146622,48.64555043620727,39.43527326834479,17.159749165922356,-0.3150014925373128
0,42.226627834211556,35.42571782873875,24.96693167482833,8.100519368989314,-0.31000146884624513
0,-19.45082284803676,3.8458904820957684,-2.78140558792801,-14.948707987889337,-0.30500144515517746
0,16.7317295200991,13.15606834722182,2.80026142906899,-7.3579329368359865,-0.30000142146410624
0,-2.32571510694829,23.126251373298953,19.331932673879656,9.152844490395267,-0.2950013977730386
0,11.566843224845199,24.626439508007085,16.543608093807105,10.433624262346529,-0.2900013740819709
0,12.899404468940192,5.026632697206903,5.645287634959118,2.014406347230248,-0.28500135039090324
0,20.1619685778916,1.6468308850833675,12.336971242139196,6.905190712608761,-0.280001326699832
0,-37.78546449674421,-2.522965985126562,-4.711341140848181,5.305977325459345,-0.27500130300876435
0,-15.322894803519436,-17.762757970349593,-15.949649570675064,-13.833233847648774,-0.2700012793176967
0,-14.140322389715806,-21.112545126929753,-19.117954103671988,-14.272442840098492,-0.265001255626629
0,-23.367747300771565,-12.862327509918025,-9.166254795025035,-0.9416496845844251,-0.26000123193556135
0,1.6048304195550511,-5.942105172796822,-12.84455169850422,4.399145587020261,-0.25500120824449013
0,-14.79258927115337,-30.85187816762453,-23.212844866527313,-7.720057056751079,-0.25000118455342246
0,5.259993585610667,-8.241646544998634,0.9388656498555075,9.490742352714403,-0.2450011608623548
0,8.872578948817203,-22.00141035383198,-13.34942019913013,0.1315437839777014,-0.24000113717128713
0,-9.744833222562695,-9.88116964135326,-18.227702462213948,-8.627652794536049,-0.2350011134802159
0,-31.232242969493804,-36.11092445313835,-32.065981186880485,-22.55684741424319,-0.23000108978914824
0,-24.119650331923154,-45.46067483266008,-36.324256418625936,-22.256040105621196,-0.22500106609808057
0,-26.387055347727795,-31.280420820399925,-28.852528200191035,-13.495230897489902,-0.2200010424070129
0,-32.664458052241635,-35.350162453262605,-31.000796571206195,-26.32441981676531,-0.21500101871594524
0,-34.53185847805218,-48.73989976452514,-37.10906156818729,-41.953606888295695,-0.21000099502487402
0,-22.059256654787056,-46.98963278366225,-38.00732322445823,-32.31279213428358,-0.20500097133380635
0,-22.68665260918319,-29.199361535994633,-16.89558157002906,-11.441975573820686,-0.20000094764273868
0,-3.8440463655554913,-10.219086042951389,-6.883836631975342,9.55884277658485,-0.195000923951671
0,-6.511437946508659,-18.078806323094586,-10.382088435373161,4.009662901627537,-0.1900009002605998
0,-12.038827373589678,-19.46852239305729,-17.66033700404414,-1.4195152139604499,-0.18500087656953212
0,2.0437853324069675,-4.028234267887227,-8.288582360679413,2.471308414262637,-0.18000085287846446
0,-11.323599848674895,-20.077941961197503,-18.016824526718942,-5.387866229393051,-0.1750008291873968
0,-1.5809829364468286,-11.717645485310081,-7.455063522322877,9.662960839375797,-0.17000080549632912
0,-2.7083639500275485,-1.5873448513017108,-3.6132993664795316,10.993789604714303,-0.1650007818052579
0,2.2542570918365366,8.852959930676914,6.478467922632662,26.414620050103505,-0.16000075811419023
0,-16.663119829347362,-4.756731149245554,-4.019761672874925,9.295452157719245,-0.15500073442312257
0,-21.290494731544154,-20.9364181009109,-21.387988170765947,-8.773714091725843,-0.1500007107320549
0,10.212132368309025,-6.506100933643663,-1.986211588260312,3.567121281621575,-0.14500068704098368
0,-20.845238545678534,-14.915779655691956,-18.464431941577725,-11.082041742469109,-0.140000663349916
0,-11.112607488575089,-21.215454274035604,-18.772649245755403,-15.54120318383943,-0.13500063965884834
0,-0.3599744745317208,-2.0051247942947006,2.509136485464461,2.979636938402019,-0.13000061596778067
0,16.772660483056335,-3.9547912208382296,5.490925239391942,7.810478605842066,-0.125000592276713
0,-16.65470262910156,-6.0644535572217855,-11.727282996246855,-5.63867819975156,-0.12000056858564179
0,-3.062063824409649,-7.494111806484595,0.724511766407628,-1.0778334967295393,-0.11500054489457412
0,9.540576883949697,-4.113765971128898,-10.083690484461497,-12.336987303344543,-0.11000052120350645
0,8.50321948292212,13.03658394680994,14.308110239713255,11.303860362511827,-0.10500049751243878
0,-14.634136040835918,-4.473062054624658,-3.5000860724071092,-12.1952905167417,-0.10000047382136756
0,-19.60148970071603,-21.00270397748214,-20.32827943223182,-18.154439958384597,-0.0950004501302999
0,-4.968841509334276,-14.512341823341783,-11.446469850766661,-12.123587978935864,-0.09000042643923223
0,-32.43619147796554,-19.39197559251418,-28.214657337824946,-22.56273459358988,-0.08500040274816456
0,-21.84353961621623,-22.781605283630398,-18.29284190148791,-13.80187981594886,-0.0800003790570969
0,-27.170885931569394,-23.371230893434955,-25.531023547801578,-25.321023657894457,-0.07500035536602567
0,-27.82823042905745,-22.84085241657088,-23.749202280622114,-28.490166129390737,-0.070000331674958
0,-47.63557311102524,-29.000469845422373,-24.557378101526595,-20.699307238183934,-0.06500030798389034
0,3.4570860231337255,-3.0200831701066475,-6.535551009854466,2.5015530102104373,-0.06000028429282267
0,-12.360253023400233,-14.649692378820314,-9.243721003098749,-7.407585388135346,-0.05500026060175145
0,-5.337590245910116,-9.98929745838709,-11.331888077476604,-0.946722436376505,-0.05000023691068378
0,1.6750743610981156,-0.0688983946010327,-8.210052228233454,5.524141862657021,-0.045000213219616114
0,2.777740803535955,-12.308495172440296,-7.188213449692368,-1.574992493790389,-0.04000018952854845
0,-53.29959091228385,-36.74808777602422,-42.41637173511054,-42.684125508309485,-0.03500016583748078
0,-26.43692077870074,-14.11767618797935,-22.274527076045043,-25.25325718236864,-0.03000014214640956
0,8.87575121440658,9.27273961099778,11.227320538195457,7.127612484698509,-0.02500011845534189
0,44.658425078916956,40.503159641223824,37.279171119691604,34.868483495144574,-0.020000094764274223
0,23.711100826121175,6.193583922219739,7.281024679963614,8.669355850934535,-0.015000071073206556
0,-46.8062215346676,-37.31598752803617,-34.607118770935394,-28.419770447298696,-0.010000047382135335
0,-39.62354199476453,-28.725554691751164,-30.475259223165594,-25.428895399283725,-0.005000023691067668
0,16.169139456243688,-5.4151175494340595,-0.9333966652796433,-5.218019003483784,0.0
0,-15.588177169086379,-4.464676079514658,-7.221531083851994,2.0228587433205774,0.005000023691067668
0,-6.11549185712283,0.41576974080827345,5.7403375356709185,7.013737845240461,0.010000047382135335
0,-0.26280459366473885,4.986219934765148,12.692209208097594,11.854618306351162,0.015000071073206556
0,-10.77011536393515,-7.113325474365366,-5.065916052069592,-1.7144998698233636,0.020000094764274223
0,-4.2774241526166215,2.3171335366898953,0.4659617692321377,0.5463833196624798,0.02500011845534189
0,0.04526905615119958,7.367596991238178,0.1178426858952254,1.0072678774669663,0.03000014214640956
0,7.287964278601015,12.048064912392688,3.0597267118191542,7.178153806129253,0.03500016583748078
0,14.760661530868514,15.368537322596817,13.14161386076425,16.9090411078708,0.04000018952854845
0,22.413360828351255,26.72901424312378,21.563504145922494,34.32992978400286,0.045000213219616114
0,21.396062185053164,7.779495693648707,9.205397579348613,11.220819834133708,0.05000023691068378
0,23.688765613091398,8.779981692180238,12.407294171672211,16.521711255787654,0.05500026060175145
0,11.831471122516497,-9.149527744460352,-9.800806067661634,-9.047395955206543,0.06000028429282267
0,-0.9858212784264802,-4.069032599876939,-5.858903129742116,-15.736501803789857,0.06500030798389034
0,-8.503111582554558,1.0114671424928428,-3.196997005496444,-7.445606294615204,0.070000331674958
0,-11.32039978280607,-5.62802850046124,0.404912314600989,-1.564709431449624,0.07500035536602567
0,-29.327685871402807,-14.127519511508424,-11.853175159543134,-8.37381121726117,0.0800003790570969
0,11.315030160705644,-5.347005872835689,-3.981259417610358,0.04708834552050806,0.08500040274816456
0,17.54774832358587,-1.0164875658466155,7.52065955121198,7.667989254806213,0.09000042643923223
0,84.74046862673131,42.31403542839608,19.612581757865208,5.818891508497779,0.0950004501302999
0,-13.106808923086044,51.21456312774037,3.8445072126836712,-13.51020489579342,0.10000047382136756
0,-28.864084322192397,41.41509554704707,-10.673564074902126,-15.729299960431579,0.10500049751243878
0,35.48864243188331,41.37563269702135,17.41836790402934,-0.7383936870871367,0.11000052120350645
0,35.831371341385555,26.77617458417993,22.400303158014275,-1.39748607653608,0.11500054489457412
0,18.87410240705911,-36.033278788224685,-2.9877583053368606,1.093422870964996,0.12000056858564179
0,-38.43316437257583,-50.95272741799038,-25.05581647936595,-19.395666844583914,0.125000592276713
0,-61.6304289994643,-34.942171301049136,-17.953871357238867,-9.954755222652006,0.13000061596778067
0,-26.83769147316181,-18.42161042979382,-4.741922930802087,-6.753842261733905,0.13500063965884834
0,-40.77495178925097,-13.281044793351686,-16.50997119040325,-13.672927959247673,0.140000663349916
0,-21.85220993947024,11.909525621235323,0.9719838747695932,-1.0320123116643964,0.14500068704098368
0,2.0005340874765793,18.570100827668632,12.29394227625775,14.348904685206712,0.1500007107320549
0,-3.436719695184719,19.91068083907631,17.56590402559178,10.399823035555809,0.15500073442312257
0,48.52602872626599,56.141265666872734,48.34786913320784,38.110742742672045,0.16000075811419023
0,44.7987793643044,57.11185531950531,44.5698376071461,33.37166380798947,0.1650007818052579
0,40.23153222836918,53.40244980105641,44.721809451820256,31.26258623020772,0.17000080549632912
0,56.30428732377931,59.25304911037312,53.40378466731812,35.883510004834946,0.1750008291873968
0,58.31704465127222,57.89365324082355,50.3257632491068,26.284435124159483,0.18000085287846446
0,73.0498042064101,68.51426218013643,62.55774518773574,38.15536157732149,0.18500087656953212
0,61.63256597885569,51.85487591017317,44.95973046854649,25.036289350356302,0.1900009002605998
0,63.00532995195505,50.215494406953404,46.46171907166645,22.087218426301376,0.195000923951671
0,24.488096102986333,32.67611764116019,21.853710972486954,1.8881487856421897,0.20000094764273868
0,25.320864404229535,24.886745579014658,21.2557061425646,0.8590804071640019,0.20500097133380635
0,32.173634824348476,33.227378183197814,35.62770455051825,13.6900132687877,0.21000099502487402
0,35.46640732910224,39.76801541332863,32.439706162309605,21.870947347757095,0.21500101871594168
0,-8.130818118505433,10.698657225973855,9.09171094110335,-4.548117379722636,0.2200010424070129
0,11.29195844242641,-0.5506964249704152,-0.25628115233787563,-8.167180938422927,0.22500106609808057
0,-7.025263028197443,-6.360045587117327,-6.334270158545454,-18.696243353251788,0.23000108978914824
0,-1.6324825707205486,-11.759390308336103,-6.802256118264804,-20.915304648259514,0.2350011134802159
0,12.890299774505085,-1.5487306360197053,-0.08023907189264579,-10.304364846014149,0.24000113717128713
0,-15.466916032929234,-14.798066616845528,-11.63821905934917,-5.673423967529375,0.2450011608623548
0,-2.434130033430372,-5.4773982967153865,-8.416196120011694,4.717517967289728,0.25000118455342246
0,-18.941342266968473,-8.946725720693468,-13.144170292505345,-3.201539060971239,0.25500120824449013
0,-38.8785527724298,-37.32604893282904,-38.32214161430973,-23.070595071480074,0.2600012319355578
0,-16.265761586807493,-23.075367975571343,-19.370110121097614,-16.87965008270287,0.265001255626629
0,-36.09296874458553,-31.904682888999037,-34.608075846087814,-22.94870411166355,0.2700012793176967
0,-12.84017427763102,-10.30399371054505,-10.386038819872816,-0.6177571736255558,0.27500130300876435
0,-12.44737821547442,-18.163300475325244,-16.8439990707199,5.273190717521206,0.280001326699832
0,-37.304580585666265,-33.51260321651629,-26.611956624985044,-8.255860451508259,0.28500135039090324
0,-27.151781413698565,-20.091901965247093,-17.91991150718666,0.0450893061644585,0.2900013740819709
0,-25.648980722500802,-32.07119675023327,-25.757863739805565,-7.943960022357696,0.2950013977730386
0,3.623821467576145,-25.850487597590938,-15.615813343194919,-1.863008449600132,0.30000142146410624
0,-18.773374861968474,-14.169774530856103,-9.503760335729659,-0.9520559876972212,0.3050014451551739
0,-4.310569728492563,-10.959057571305358,-12.611704734171107,-2.931102648481986,0.31000146884624513
0,12.582236851426236,-5.3483367385729705,-6.009646554051191,5.81985155637818,0.3150014925373128
0,-33.56495513829795,-16.877612051157858,-15.917585809872307,-6.339193384746442,0.32000151622838047
0,-35.07214571296104,-30.19688352641567,-30.07552251498115,-23.7182374833218,0.32500153991944813
0,-48.70933488576181,-45.44615117987627,-46.13345668090698,-46.3672807498471,0.33000156361051936
0,-26.486522666531112,-28.895415024239988,-26.681388316369414,-28.066323192535446,0.335001587301587
0,-32.90370906141402,-40.73467506875817,-34.559317426714415,-39.475364816365975,0.3400016109926547
0,-50.37089407308413,-29.583931319163217,-28.15724401399374,-26.6444056228963,0.34500163468372236
0,-29.35807770066254,-14.133183777912908,-17.465168077273365,-2.7034456106102773,0.35000165837479
0,-22.275259939620376,-16.642432444771003,-8.173089613111983,8.977515224124392,0.35500168206586125
0,-13.222440782303648,-21.251677317482017,-20.331008616211363,-0.8915231142849716,0.3600017057569289
0,-7.939620218854812,-27.55091839197294,-21.378925079752932,-6.930560621467064,0.3650017294479966
0,-6.556798237978154,-24.5601556620826,-12.696838995271548,-2.069597293038941,0.37000175313906425
0,-6.023974827434719,-6.8393891193848155,-3.1147503526491014,0.1913668756517044,0.37500177683013547
0,-10.001149974262946,-7.588618753543294,-11.872659140510233,-14.12766811041109,0.38000180052120314
0,-1.8283236648195924,0.8121554469736559,-9.920565346577595,-7.3667022457695435,0.3850018242122708
0,-19.755495884744708,-13.19706650564812,-26.398468957583972,-15.21573552416942,0.39000184790333847
0,-30.642666618664258,-27.286284598538654,-19.966369958827872,-12.314767938299454,0.39500187159440614
0,-19.369835849510817,-21.065498817526898,-16.104268333745274,-4.183799479700832,0.40000189528547736
0,-31.267003557946072,-17.83470914650683,-19.492164063827957,-5.962830138912004,0.40500191897654503
0,-26.164169722135398,-33.10391556722224,-29.00005712868249,-26.66185990561835,0.4100019426676127
0,-0.011334317806827698,-27.533118059112756,-29.367947505803876,-31.260888768271567,0.41500196635868036
0,1.3315026811393218,-6.272316599137298,2.114164829647078,-7.479916713371328,0.4200019900497516
0,12.71434130151967,-5.181511162150511,0.5562799043522886,0.011056274592271875,0.42500201374081925
0,-11.872818429974409,-3.1207017217599153,3.6083977457727965,4.302030212299129,0.4300020374318869
0,-9.70997648680081,-9.009888250933054,-4.339481618584706,2.7230051166803264,0.4350020611229546
0,18.862867157820567,9.93092927779998,7.142641838689778,21.983981004354874,0.44000208481402225
0,22.00571253064274,4.351750892077343,4.414768144873728,19.564957891082763,0.4450021085050935
0,6.118559657465559,3.052576619288206,5.16689732692734,1.615935791242089,0.45000213219616114
0,-32.20859143706873,-2.1265935135851826,-12.700970588545518,-12.96308528201587,0.4550021558872288
0,-18.665740728293834,-3.1757594797680766,-6.108835574935125,-9.52210531583575,0.4600021795782965
0,-13.65288819011101,-12.284921252356206,-9.276697605114768,-11.261124296746434,0.4650022032693677
0,3.8399662053137265,-2.2940788039831568,4.375443348743068,7.159857789607196,0.47000222696043537
0,6.542822486833056,-0.43323210668481205,4.897587314893398,8.440840958077464,0.47500225065150303
0,2.775680683427506,-9.692381132025497,2.829734321558485,8.111825223331065,0.4800022743425707
0,14.578540823673219,1.028474148807007,9.991884396602096,14.00281059933931,0.48500229803363837
0,0.5914029355024291,-3.7506662349989153,2.744037567377972,-0.6262029008105647,0.4900023217247096
0,1.3842670461852515,-1.4898022539533056,-1.513806139280277,-2.5652152647596473,0.49500234541577726
0,7.297133182520403,0.5510661216376738,4.748353303107543,1.4157735195363244,0.5000023691068449
0,20.380001370850913,12.301938921519119,18.720515920718995,8.03676346406241,0.5050023927979126
0,15.092871636627194,12.7428161750979,16.7426817390219,6.567754580582701,0.5100024164889838
0,23.395744003859395,33.313697910813865,36.484850782062274,21.54874688025728,0.5150024401800515
0,33.01861849469491,31.374584155336656,37.58702307167426,33.51974037307312,0.5200024638711191
0,32.20149512893522,22.18547493283404,20.779198626793974,13.450735067123333,0.5250024875621868
0,2.5743739237135768,17.22637026479422,20.09137746336701,3.0117309683661153,0.5300025112532545
0,-2.84274510600455,7.837270170460833,6.613559594912501,-11.027271918686301,0.5350025349443257
0,3.2101380537161264,8.308174667475352,12.065745033246351,-1.106273589886567,0.5400025586353934
0,11.963023416505788,11.669083772365083,13.377933788952046,8.13472595913656,0.545002582326461
0,-2.914089004342882,-2.8000024992091093,-6.459874128397668,-9.394273267095583,0.5500026060175287
0,10.098800803973843,9.730915867746669,6.942321290061644,4.696728735935317,0.5550026297085999
0,10.621692853745596,14.721838887666902,11.504520052793243,9.147731972729618,0.5600026533996676
0,0.9345871566261015,3.6627665742471467,2.216722167788019,-4.111263552403119,0.5650026770907353
0,8.727483723577334,12.133698940262263,8.018927642384513,6.72974216451503,0.5700027007818029
0,-8.90961743495142,6.724635997598582,2.2511364833086924,7.740749127149908,0.5750027244728706
0,6.493283691261022,-5.284422242610303,-5.5666513031511675,8.121757338727829,0.5800027481639418
0,5.886187112347615,-3.313475769646035,0.07556428913702723,9.412766801798014,0.5850027718550095
0,13.199092838145384,10.857475427179935,11.557783266332986,18.953777518039697,0.5900027955460772
0,9.562000877792993,3.6984313584778934,1.7600056344236574,0.8047894880762345,0.5950028192371448
0,5.1949112394990875,1.2693920344768927,-0.7577686010327511,0.3858027115382508,0.600002842928216
0,22.057823930504725,4.580357464967485,10.144460565132364,-4.423182812474076,0.6050028666192837
0,-17.1592610428838,5.541327659392796,0.8666931377499902,7.397832915052581,0.6100028903103514
0,-10.88634367486733,2.2023026268263726,2.028929121254718,12.538849893022604,0.615002914001419
0,-2.3034239593094625,-13.636717623950183,-19.19883148012468,-2.3101318801160047,0.6200029376924867
0,-14.84050188924636,-16.17573308396781,-14.49658866176252,-9.86911240640983,0.6250029613835579
0,-26.347577456737323,-13.524743743371,-8.384342417980497,-6.858091687889599,0.6300029850746256
0,-2.434650652522084,1.746250408924444,6.017907258050695,6.542930273881219,0.6350030087656933
0,5.3382785340246075,4.787249384902103,5.040160373760001,14.523953477596741,0.6400030324567609
0,-24.618789885630957,-9.891746803147084,-11.987583063400859,-2.405022078399631,0.6450030561478322
0,-0.16585589939703077,10.799261857108338,7.2146769539878335,15.406003603551985,0.6500030798388998
0,-16.172919494296245,-19.339724621911888,-18.083059566440816,-4.732969479541019,0.6550031035299675
0,3.5300193435948035,1.2612937724930522,3.379207383363552,10.898058668785584,0.6600031272210352
0,-0.6370393711375247,8.482317053445218,5.551477811892865,15.599088044447527,0.6650031509121028
0,1.2459043763667947,1.683345234208716,3.8437517277542015,3.02011864258602,0.670003174603174
0,-16.951149398923988,1.8043783277730632,4.596029139257012,4.231150457436716,0.6750031982942417
0,8.101799318270412,3.8454163467845874,8.478310054251793,6.132183482538059,0.6800032219853094
0,-0.2852494563717211,-5.283540696330407,-2.259405519899569,-4.706782289015338,0.685003245676377
0,-0.7922957070521348,1.6775072107784896,5.032882423744737,-3.3657468643390533,0.6900032693674483
0,-14.719339417947015,-8.80143991943776,-10.414826108084116,-21.064710250341598,0.6950032930585159
0,12.053619427039685,5.329617925698461,7.6274688913701345,1.7863275467709816,0.7000033167495836
0,18.13658084415782,17.160680758942643,12.389767428875487,12.54736652155289,0.7050033404406513
0,8.369544849088289,-4.728251407329406,-3.577930489135775,-4.251593331253496,0.7100033641317189
0,-8.877488543504159,7.312821438626175,4.864375143251386,5.949447982788271,0.7150033878227902
0,19.50548068032121,7.243899308052771,14.036684331529813,7.600490457762505,0.7200034115138578
0,4.728452534011958,4.684982211733168,5.418997080652792,-5.058465912592326,0.7250034352049255
0,-8.638572969594588,-15.433929839984646,-6.258686605131107,-19.197421134692064,0.7300034588959932
0,34.45440418174612,-3.1728368367490116,9.173633277955222,0.5936247854727748,0.7350034825870644
0,6.847383999479524,-0.5417387677223497,4.225956733449861,-8.175328157273789,0.740003506278132
0,-3.349633506172132,-10.420635621527234,-5.9617162353906075,-6.3842799673932795,0.7450035299691997
0,-10.996648325874851,0.37047261365644835,1.670614374485237,-3.1732306487716753,0.7500035536602674
0,1.486339549710055,2.241585950039032,3.722948566124962,-9.70218020472982,0.755003577351335
0,-11.590669869603039,-5.8372955999442855,-9.944713657396338,-22.06112863789634,0.7600036010424063
0,-14.577676573394799,-18.636172023630813,-13.752372292817315,-21.0100759497648,0.7650036247334739
0,5.815319449527964,5.554956692219555,7.409972663675758,1.280977859736658,0.7700036484245416
0,4.668318210994456,0.1460905615189707,3.3523212164165184,5.23203279198095,0.7750036721156093
0,2.0213197229204356,5.047229598432433,5.114673369751811,7.253088848768231,0.7800036958066805
0,-12.325676002975928,-2.1916261830120436,-2.392970872301425,-6.515853968332191,0.7850037194977482
0,9.527331045044189,1.509523231035926,4.529388493990688,-7.9947956579447,0.7900037431888158
0,7.8803408788097755,9.260677854290064,12.001751472121873,3.756263781508449,0.7950037668798835
0,7.323353509854851,7.681837700159134,13.204118065074486,11.027324351852803,0.8000037905709512
0,-11.923631050837827,-12.446997218421192,-8.933511724970627,-7.281613945213492,0.8050038142620224
0,-3.5006127924901085,-6.295826888688832,-8.391137896365578,-9.080551108205109,0.8100038379530901
0,5.462408295935276,6.425348702443679,2.631239552657009,3.0505128645402566,0.8150038616441577
0,2.975432225700351,-4.373470431579934,-3.526379375733957,-12.558422024870177,0.8200038853352254
0,-4.161540992023232,-0.1622842772136317,-9.263994679065243,-16.70735577376903,0.8250039090262966
0,-15.358511346088175,-0.06109282086596679,-10.081606354460163,-9.306288378584249,0.8300039327173643
0,-24.00547882478206,-11.009896048803606,-14.17921439830283,-14.505219834532419,0.835003956408432
0,-12.522443415086176,-3.09869394697302,-6.61681880597531,-4.234150135627268,0.8400039800994996
0,-1.8094051023904976,1.0525134991527725,-4.164419571854052,0.05692072507833801,0.8450040037905673
0,-15.136363870812236,-14.296273695456025,-17.332016689460158,-19.672007244785195,0.850004027481635
0,3.8566802963922138,7.184944484578924,7.690389848460211,7.019065963037226,0.8550040511727026
0,-2.430272583438038,-13.513831944941195,-12.077199950178102,-14.259859642539194,0.8600040748637774
0,-7.1372224926232475,-4.322602967780177,-3.6547860769775484,-12.038784051957412,0.8650040985548451
0,2.5558305867621804,6.948631432766845,4.4576314768816445,0.2922927451010364,0.8700041222459127
0,22.878886672737828,21.489871273547276,16.64005272038833,1.4633707596836454,0.8750041459369804
0,25.791945782704932,16.951116570716515,17.592477662020862,1.2144500031629244,0.8800041696280481
0,14.645007932492819,21.70236733895649,15.744906309037837,-0.21446951310289633,0.8850041933191157
0,44.55807313578876,38.12362359100412,33.44733866703597,20.366612222042892,0.8900042170101834
0,51.80114140357611,48.45488533703662,40.75977473944442,21.41769521909999,0.8950042407012511
0,19.904212743313984,34.39615258381699,21.07221452685953,5.348779487268696,0.9000042643923187
0,20.207287158789146,32.91742533424016,21.0846580268369,4.909865034311294,0.9050042880833935
0,33.05036465083352,32.0187035875357,27.28710523428613,13.320951866948763,0.9100043117744612
0,31.493445217744654,39.65998733957709,35.2495561417062,19.74203999101765,0.9150043354655288
0,52.11652885491592,52.991276582768876,50.942010738789406,31.303129411044008,0.9200043591565965
0,49.84961555408869,54.00257130546729,55.29446901157002,36.424220129494785,0.9250043828476642
0,49.67270530261681,42.52387149135803,47.72693094156028,27.68531214607602,0.9300044065387318
0,30.905798083174705,33.985177119380296,32.81939650543504,18.936405457490824,0.9350044302297995
0,51.748893874022606,44.536488164183,41.94186567541441,34.387500057683624,0.9400044539208672
0,35.20199264930447,41.357804596473244,32.78433841980019,27.44859593800569,0.9450044776119348
0,13.085094379282733,17.579126383130003,19.4968147033548,11.869693087183078,0.9500045013030096
0,-4.69180096880557,7.830453487755305,10.939294487880236,5.710791491661288,0.9550045249940773
0,19.511306570621628,7.791785871791781,7.61177773310121,9.741891136377035,0.960004548685145
0,27.634416962142975,8.53312349547462,16.04426439738379,17.772992005256143,0.9650045723762126
0,19.87753016886352,14.78446631815885,16.596754437939644,18.084094081115218,0.9700045960672803
0,2.4506461519337606,-3.2241857016897413,2.409247810724254,7.645197345361783,0.975004619758348
0,1.163764870920244,-10.292832606259738,-3.768255529386495,3.396301778043788,0.9800046434494156
0,9.286886284561724,6.68852556217589,0.3342443719829751,12.567407358222939,0.9850046671404833
0,-1.5299896488426565,6.589888761505954,3.986747469153938,7.318514064189496,0.990004690831551
0,17.093137028557074,23.051256949344307,19.719253716295444,25.1396218733145,0.9950047145226257
0,-1.8237337259715307,-5.377369917564871,-2.688236933017477,0.810730761756526,1.0000047382136934
0,-9.960601955699794,4.524008116582822,2.534275474019903,8.771840704429524,1.005004761904761
0,-17.817467703888518,-16.624608992822093,-10.883209110189727,-12.657048324576532,1.0100047855958287
0,-21.254331012930052,-27.443221289991914,-24.240690732976688,-18.695936351242118,1.0150048092868964
0,-15.961191923698689,-33.17182881773873,-29.98816944054809,-22.314823400713244,1.020004832977964
0,-29.548050475228724,-40.84043161643844,-32.20564527704844,-29.113709496477238,1.0250048566690317
0,-23.24490670448336,-25.05902972333878,-18.903118283971033,-11.842594659893356,1.0300048803600994
0,7.688239353689248,-16.827623172507902,-9.990588500233304,-0.9214789103055572,1.035004904051167
0,-2.2686123340654683,-32.76621199529269,-17.508055962746703,-15.250362265665014,1.0400049277422418
0,-29.01546180040536,-7.264796220724541,-6.535520706933884,-1.5592447430431586,1.0450049514333095
0,-51.76230907692994,-19.293375875781148,-25.642982766904904,-14.588126358733188,1.0500049751243772
0,-19.749154192789195,-9.091950985748962,-18.290442175308623,-4.287007128211845,1.0550049988154448
0,-32.245997173843676,-26.590521574450385,-24.75789896299399,-13.305887066108262,1.0600050225065125
0,0.08716195698799623,-3.9390876641899473,2.5146468411091125,4.545233813767386,1.0650050461975802
0,-34.579676821030304,-30.07764927568303,-24.612804790335094,-8.773644501773886,1.0700050698886479
0,-11.83651352681764,-11.026206427998394,-11.970253883366468,-0.06252202552283659,1.0750050935797155
0,4.236651822426495,-10.994759138512993,-0.16770046274474626,8.048601229973233,1.0800051172707832
0,-5.810180789291429,-11.373307423107777,-11.405144552134464,9.769725252099974,1.085005140961858
0,-18.557011377366024,-25.941851296375436,-18.522586174362218,-0.00914997223421432,1.0900051646529256
0,-22.86383995642001,-17.430390771420225,-17.140025351205406,-6.348024456633939,1.0950051883439933
0,-8.450666539674206,-13.838925859546345,-15.697462102973802,-9.796898214777556,1.100005212035061
0,-13.517491138739269,-17.687456570275764,-18.744896448333442,-11.335771259861202,1.1050052357261286
0,-12.274313763842512,-4.415982911584416,0.2576715956079405,0.5653563957024349,1.1100052594171963
0,-6.1811344240366966,0.9654951097420301,-3.189757987072964,1.9664847401673686,1.115005283108264
0,-23.927953127248873,-8.723022512375623,-10.197185211617386,-6.842386237904497,1.1200053067993316
0,-24.274769880069268,-23.49153578348192,-22.24461009265811,-25.951256549643002,1.1250053304903993
0,-6.071584687360739,-17.200044708121965,-12.232032643762869,-9.820126205286599,1.130005354181474
0,-16.008397552233557,-17.68854928924968,-18.209452877010637,-15.358995213640167,1.1350053778725417
0,-14.605208476360282,4.462950471837565,-0.9768708029805406,-8.077863582051593,1.1400054015636094
0,-19.912017460056305,2.714454574925924,-7.394286431084321,-10.986731316648221,1.145005425254677
0,-8.8588245021377,-0.28403697989086313,1.2983002299922908,-1.0355984225531278,1.1500054489457447
0,-18.225629599915422,-0.19252419261089504,-9.349110828006777,-11.194464904106066,1.1550054726368124
0,-11.282432749286617,-12.911007063232184,-14.866519612880722,-13.053330764938888,1.16000549632788
0,-17.38923394476753,-15.479485591346297,-13.753926131627553,-11.072196007798084,1.1650055200189477
0,-32.246033179344764,-20.377959775565948,-17.061330390044386,-21.341060634273905,1.1700055437100154
0,-19.492830444079374,-12.176429613052374,-4.448732392563991,-0.6799246446430774,1.1750055674010902
0,-19.62962572776853,-19.414895099352197,-14.716132142372848,-10.788788037970907,1.1800055910921579
0,-14.466419017040264,-9.95335622844326,-12.743529641559215,-7.16765081240503,1.1850056147832255
0,-4.673210296753103,-6.331812992892763,-8.910924891097654,-7.046512965334464,1.1900056384742932
0,4.740000449443681,-3.710265384180706,3.2916821090851935,4.684625506523495,1.1950056621653609
0,-3.4467867615509173,-0.41871339310212463,-1.5357086402814628,7.895764606786847,1.2000056858564285
0,-3.9735719127002285,-1.0971570100848715,-0.6530971382539449,5.956904338889638,1.2050057095474962
0,-25.88035498667556,-18.965596225270343,-19.490483383723934,-10.58195529417564,1.2100057332385639
0,-14.127135965230972,-16.764031028163522,-12.137867374992286,-9.580814289537049,1.2150057569296315
0,-17.693914828606097,-14.642461407049504,-15.135249109236085,-15.829672643800773,1.2200057806207063
0,12.409308444485823,-0.7908873487715877,0.5373714176555511,-1.0685303526090277,1.225005804311774
0,8.812533876123497,0.45069116090250505,5.249994210715984,-3.1973874106833704,1.2300058280028416
0,19.23576148811681,16.862274136578584,13.032619275193111,15.893756187719635,1.2350058516939093
0,9.398991301234703,14.253861592457218,7.105246615862431,11.454900448125299,1.240005875384977
0,42.54222333476435,42.23545354151255,34.06787623651106,26.306045375123162,1.2450058990760446
0,50.37545760578549,48.85704999445872,47.73050813919784,36.547190971654665,1.2500059227671123
0,35.148694128037086,39.458650958587135,31.773142323127942,17.798337238325335,1.25500594645818
0,36.781932911244404,44.07025643706017,37.59577878388884,22.959484173122643,1.2600059701492476
0,43.585173961202344,54.441866428747076,47.7584175133303,32.84063177157428,1.2650059938403224
0,37.13841727991188,45.683480928045306,41.06105849945152,22.671780026776432,1.27000601753139
0,26.781662865604783,35.615099924720596,30.433701726213616,19.34292892928715,1.2750060412224578
0,8.834910713165081,11.266723404340018,10.106347173882265,-0.8459215325684676,1.2800060649135254
0,8.84816081505936,11.288351349382651,2.078994820062687,-0.23477137190181685,1.285006088604593
0,12.55141316226164,9.719983740436598,4.581644640921061,2.4063793975878456,1.2900061122956608
0,19.84466774461745,11.391620556879914,7.564296611958868,6.807530762013816,1.2950061359867284
0,11.037924550694864,6.57326177707537,9.276950708156772,8.468682707194152,1.300006159677796
0,-1.4488164322821078,11.744907378431956,13.289606903788581,6.99983521839236,1.3050061833688638
0,22.564444781844006,18.75655733738239,23.702265172109392,20.50098828008722,1.3100062070599385
0,-2.2922918216405295,-9.101788370700756,4.4749254850114,-4.38785812421861,1.3150062307510062
0,2.160973741737102,-2.7301297712181363,-0.25241218696509726,-1.6167040118766898,1.3200062544420739
0,3.5642414559185407,3.7415331102782567,3.630252125881265,2.6744505994026544,1.3250062781331415
0,2.7475113045806383,-7.42679975160304,-0.3170816070774716,-0.38439430811203956,1.3300063018242092
0,9.940783271105127,-7.765128382039872,-3.1844134165969793,2.306761247811295,1.3350063255152769
0,-21.31594266144034,-12.373452805748457,-11.711743333358664,2.357917249292845,1.3400063492063445
0,-4.532666509891614,3.548226953275751,-8.25907138760631,5.539073678270492,1.3450063728974122
0,-21.309388290326247,-7.9500891283138895,-26.946397608712314,-12.05976948351933,1.3500063965884799
0,-29.69610801749568,-22.29840107331579,-24.733722024634616,-18.53861225420744,1.3550064202795546
0,-25.402825704257143,-22.11670890357145,-20.86104466134603,-11.84745465111019,1.3600064439706223
0,-5.809541361181555,-21.075012639269076,-15.178365542608397,-9.306296690260213,1.36500646766169
0,-20.51625499679303,-22.10331229854939,-15.01568469019441,-11.795138386436141,1.3700064913527576
0,-8.562966618051567,-9.91160789751065,-5.993002124261972,0.14602024661279245,1.3750065150438253
0,-27.469676230497107,-27.529899450386605,-26.600317863615455,-14.79282080404682,1.380006538734893
0,-6.816383838109988,-12.568186969635839,-14.047631925648249,2.4083384493349422,1.3850065624259607
0,-11.11308944330129,-10.326470465965796,-9.284944326147807,1.2094979950515632,1.3900065861170283
0,-5.319793047207534,-9.314749948586503,-9.372255079419775,1.8806578216256127,1.395006609808096
0,-15.506494650003097,-11.773025425558298,-10.939564198631569,-8.208182082427019,1.4000066334991708
0,4.406805748995004,-8.241296903936487,-10.386871695968042,-7.647021728458451,1.4050066571902384
0,-23.139891848733182,-13.119564389775997,-17.70417758256791,-18.62586112727386,1.410006680881306
0,-19.476587440775745,-12.237827888093321,-15.351481868343136,-9.284700288700293,1.4150067045723738
0,8.216718976534153,-3.7760874028323936,-6.428784561826312,3.8964607785536374,1.4200067282634414
0,11.830027407841003,-2.2143429370148184,-1.1360856703309703,-0.3823779334732461,1.425006751954509
0,-36.84666214195989,-23.512594492949482,-26.543385200265067,-25.621216432380205,1.4300067756455768
0,7.506650332364538,-7.370842072080603,-7.7306831570521215,-14.210054725080372,1.4350067993366444
0,2.3599648368584982,-8.119085674687412,-1.0679795448838687,-10.088892817158303,1.440006823027712
0,-0.8067186219355955,-15.687325299900559,-17.105274366886178,-23.42773071266351,1.4450068467187869
0,6.4565999624601025,-0.5755609458462526,-5.6225676253459795,-9.606568414147704,1.4500068704098545
0,-5.670079403672988,1.4862073901699275,-0.5098593217116412,-7.705405922692163,1.4550068941009222
0,-1.4367567141365296,-0.9920202887345926,-7.517149456744995,-7.914243238161185,1.4600069177919899
0,23.22656803721571,20.59975602051049,13.795561969150565,9.986919640372806,1.4650069414830575
0,32.40989485591778,24.841536320327098,25.33827495540326,15.808082714030867,1.4700069651741252
0,30.943223745747574,13.243320611713598,11.020989500438988,10.039245983364996,1.4750069888651929
0,3.686554707966717,18.935108893827945,13.913705601114307,8.920409447854885,1.4800070125562605
0,33.13988774148387,31.126901163962994,31.956423252649934,15.531573105856234,1.4850070362473282
0,5.333222843282793,15.058697417396555,-0.990857551437252,-7.307263045276248,1.4900070599383959
0,50.37656000842206,52.59049764704108,47.051863180533864,31.7239009909528,1.4950070836294707
0,5.489899229675284,13.582301843022007,2.5545854382569915,-4.674934789872829,1.5000071073205383
0,36.44324049728907,37.68410999242746,27.407309209306927,10.7262296068052,1.505007131011606
0,60.276583798796096,57.98592207920605,52.860034479036884,34.79739417451393,1.5100071547026737
0,88.51992911795007,83.977738083356,79.10276122968047,57.84855890511025,1.5150071783937413
0,39.27327643298713,49.129557979412226,48.69548943863533,22.26972378740297,1.520007202084809
0,41.19662571601362,39.59138173576372,37.26821907754243,15.130888806540385,1.5250072257758767
0,26.849976934011107,33.853209315436345,27.04095011294348,9.02205394481318,1.5300072494669443
0,45.36333005003206,41.69504067722356,39.43368250745323,17.52321918273824,1.535007273158012
0,27.08668502363538,31.306875776213126,23.146416220393235,6.9043844995307575,1.5400072968490868
0,31.640041810966263,33.94871456393531,28.36915120802273,18.945549873169877,1.5450073205401544
0,35.19340036492715,27.490556988561156,27.551887423772065,14.74671528035064,1.550007344231222
0,-6.923239364485061,-6.217597004626175,-7.595375181393477,-15.892119303462337,1.5550073679222898
0,-17.629877429219,-11.325747472144897,-7.882636658113116,-7.700953903411779,1.5600073916133574
0,23.58348611826477,13.346105529032549,14.550102942510325,20.66021145552703,1.565007415304425
0,27.226851225365458,6.54796194196662,8.862843569270847,10.801376748389146,1.5700074389954928
0,-5.269782161540137,2.0798217093716427,8.775585170400197,-0.8074580505205367,1.5750074626865604
0,-16.63641409730569,-9.758315226524466,-7.601672306666934,-4.586292967698411,1.5800074863776281
0,-10.713044636930508,-18.586448923459574,-15.288928914843503,-18.385128029777984,1.5850075100687029
0,17.600326165312836,-10.604579438388766,-2.2861847066457104,-4.183963262797071,1.5900075337597706
0,-10.976301744384719,-14.36270682701716,-12.573439733767291,-15.962798691807329,1.5950075574508382
0,-12.032928419768728,-7.820831143753175,-12.570694047017486,-7.401634340797601,1.6000075811419059
0,13.060446085662855,9.981047558020297,9.482052303650983,12.129529767146918,1.6050076048329736
0,-20.596178281179057,-20.317070774498674,-20.985200731038113,-22.369306390534227,1.6100076285240412
0,3.047198426982159,-1.8751861936926595,2.407546800171457,3.5218571639570317,1.615007652215109
0,-11.859423842071951,-9.113298751296394,-4.319705150884785,-1.386979591092576,1.6200076759061766
0,-13.386045139878288,-19.501408498201343,-18.42695663178746,-13.875816676935866,1.6250076995972442
0,-4.052665517138743,-10.069515484260958,-2.634207689426229,3.8453458855907527,1.630007723288319
0,-0.6092850236938929,-4.047619758112645,0.5585416301337627,7.976508076026793,1.6350077469793867
0,-8.4159037087715,-3.275721367377315,-0.8887087186091196,11.337669873855779,1.6400077706704543
0,4.937478378776721,-3.023820359065726,-0.36595878097736634,10.888831257916781,1.645007794361522
0,4.500861190299945,6.368083220125612,6.836791397708938,23.609992206008997,1.6500078180525897
0,-39.14575532269632,-31.240010676249693,-31.00045822781598,-15.518847305270906,1.6550078417436573
0,-11.202371207918437,-10.918102093949937,-12.657707702221863,0.9423126998484005,1.660007865434725
0,-10.508986511445706,-10.146191077401195,-4.084957068877352,5.413472197008359,1.6650078891257927
0,-21.38560127763667,-10.274277669599263,-9.982206369814403,-2.885368838064148,1.6700079128168603
0,-41.27221554918158,-35.41236191224719,-34.989455645963375,-28.124210429526748,1.6750079365079351
0,-26.948829366497584,-22.350443845360882,-20.426704936736648,-18.933052600769454,1.6800079601990028
0,-24.495442767104137,-37.24852350657968,-37.09395427927746,-34.101895373448926,1.6850079838900704
0,-11.622055785732282,-17.026600930790874,-18.04120370805701,-9.970738766935634,1.6900080075811381
0,-18.898668454913086,-17.614676150239106,-17.448453254934773,-11.639582798409789,1.6950080312722058
0,-36.755280805310164,-28.622749194900916,-32.04570294946433,-28.11842748328618,1.7000080549632735
0,-1.951892865555346,0.6091799072256064,-4.912952819086064,6.512727164540573,1.7050080786543411
0,4.431495337612569,-0.8688888702894366,-8.090202889365832,-0.6361188676068077,1.7100081023454088
0,-17.355116221466805,-18.4569555529602,-10.577453184543037,-10.504965591809425,1.7150081260364765
0,-20.35172756779644,-25.595020165504124,-25.244703727834352,-21.743813019723287,1.7200081497275512
0,-14.878338725255324,-9.713082731265025,-8.871954541175079,-3.842661162092597,1.725008173418619
0,9.935050283717146,-2.7911432719431533,-2.519205645039544,-3.1315100284949833,1.7300081971096866
0,-53.84156056208649,-33.35920180787707,-38.41645705860407,-32.5503596275003,1.7350082208007542
0,-60.10817128207414,-29.67725835791851,-27.1137087994825,-23.369209966401822,1.740008244491822
0,32.155218107430485,11.214687061081326,20.429039116765832,21.071938949235637,1.7450082681828896
0,-21.941392407100377,-28.703365565913792,-28.258213323802796,-18.996912884884317,1.7500082918739572
0,-24.878002837891533,-19.31141625260767,-22.32546613415933,-13.525765472515616,1.755008315565025
0,-22.044613196042555,-21.879465011143985,-20.182719325909073,-16.704618816657735,1.7600083392560926
0,-33.42122349066612,-28.10751185162691,-31.609972908593612,-22.513472918939456,1.7650083629471673
0,19.93216627136324,12.30444321789368,8.61277311041518,14.497672220527472,1.770008386638235
0,-3.1344439153878905,-10.563599809190832,-13.454481274599804,-7.901183397362431,1.7750084103293027
0,-19.551054055936216,-23.33164093872099,-18.04173606834043,-20.880039771275978,1.7800084340203703
0,-34.527664154779536,-22.28968017557633,-25.508991274439218,-27.56889689912974,1.785008457711438
0,-21.54427421477422,-21.20771752292985,-22.106246894839742,-23.757754777157558,1.7900084814025057
0,-41.950884236241706,-38.885752981754976,-37.923502929262064,-39.67661339921019,1.7950085050935733
0,5.882505783230336,-10.083786550556399,-14.840759374874652,-13.735472756421924,1.800008528784641
0,-22.604104151684766,-25.721818225365023,-25.918016226247968,-30.404332837211317,1.8050085524757087
0,5.479285965142329,-13.359848000059005,-16.17527347562138,-11.703193627573311,1.8100085761667835
0,-17.987323859246185,-19.077875866653557,-23.79253111315725,-20.592055111405372,1.8150085998578511
0,-8.223933617004867,-8.295901815472554,-7.989789127078169,-8.950917270797827,1.8200086235489188
0,22.079456700438755,16.856074164438027,18.232952495898758,17.36021991349398,1.8250086472399865
0,-7.077152898132855,-2.6019479155131386,2.61569376956516,7.281356461147064,1.8300086709310541
0,-31.75376240406815,-23.329968044010062,-27.691565292507555,-21.747507608496964,1.8350086946221218
0,-25.880371808012256,-25.47798620927773,-32.21882467637,-26.00637227604303,1.8400087183131895
0,6.533018901174554,1.7239976018811007,0.9039156335441616,10.964762478981426,1.8450087420042571
0,-30.42359026357664,-22.904016595723785,-27.54334434521759,-24.094103321635025,1.8500087656953248
0,-21.900199287877626,-13.712028785941797,-15.280604593425092,-9.202969655097197,1.8550087893863996
0,4.36319184427717,11.049961048593387,10.762134909639885,15.728163502291018,1.8600088130774672
0,5.846583150252425,0.04195292602795564,1.9948741856441448,3.3592961746779944,1.865008836768535
0,-8.500025352119087,-9.206053135367931,-14.232386743560568,-16.309571613974306,1.8700088604596026
0,-2.0166336449707396,3.0359428826947457,-3.5196478559963706,-2.7684398397392407,1.8750088841506702
0,-12.033241710173447,-6.212059001263316,-8.416909129142484,-11.03730847813746,1.880008907841738
0,24.890150470789703,2.879941231525629,1.6358294601795134,6.4738224960174975,1.8850089315328056
0,-39.76645708338816,-10.138056399970315,-9.331432064354543,-1.7650468916649307,1.8900089552238732
0,-28.94306435347477,-27.296051876342116,-25.83869367851825,-17.223916615378318,1.895008978914941
0,-43.04967131834878,-26.704045177015736,-25.825955356946093,-12.55278664884616,1.9000090026060157
0,4.513722046004099,-2.2020362795266966,7.136782927473638,4.3783430351200545,1.9050090262970834
0,50.4271157657017,20.349974840220824,29.03952120313201,27.98947246431943,1.910009049988151
0,-3.519490133284812,-8.27801179322517,-0.16774050176102429,0.21060166611993636,1.9150090736792187
0,17.97390437330164,5.144003844326054,7.674997839884739,9.101730666776296,1.9200090973702864
0,7.837299308105761,13.626021776677305,14.887736254137467,13.842859491520384,1.925009121061354
0,39.050694692466585,20.43804202706515,19.54047476613114,10.20398816467762,1.9300091447524217
0,3.984090546044195,9.160064617599462,8.713213399739876,-0.12488329040252977,1.9350091684434894
0,24.287486886527788,11.08208956899076,14.885952177413134,3.3562451488456833,1.940009192134557
0,10.900883729804011,-2.4058830992216005,-0.05130887964662645,-1.7426264954105433,1.9450092158256318
0,-3.3557189097067197,-0.8238533681869507,-4.71856975108246,2.8685017988391914,1.9500092395166995
0,-19.022321018401055,0.1081787807275153,-1.3058304168281758,0.479630053514714,1.9550092632077671
0,-22.878922582363067,-15.049786633735797,-16.633090856601065,-8.369241709506415,1.9600092868988348
0,-8.525523586359007,-11.057749592369477,-12.950351049471939,-7.458113468176033,1.9650093105899025
0,-1.2721240136195244,12.214289924780662,6.732389026430375,10.963014799947201,1.9700093342809701
0,0.5212761536378958,0.7663319381368017,-2.844870606282311,-6.415856882451164,1.9750093579720378
0,15.994676933477376,1.7783764680060088,-0.3121299247574765,-7.254728492652517,1.9800093816631055
0,-8.54192165630933,-9.0995764655504,-18.399388906003125,-21.133600007619975,1.9850094053541731
0,-9.348519598255574,-14.177526842321381,-15.596647526445823,-11.942471403375473,1.990009429045248
0,14.4348831251646,14.6245253584447,12.076094238492784,16.838657345236214,1.9950094527363156
0,-25.14171346826879,-6.653419842087057,-6.791163585843591,-5.970213736009701,2.0000094764273832
0,16.511690639488155,13.78863757719221,9.181579026050347,15.970915378515993,2.005009500118451
0,-28.544904533125226,-6.599302362930271,-11.89567790042344,4.762044713903947,2.0100095238095186
0,4.0485010329218145,2.5527603580468585,5.21706566015183,17.193174294484212,2.0150095475005863
0,8.741907357302335,-12.275174239416849,-4.40019026665461,-0.25569585635665315,2.020009571191654
0,-21.634685539945043,-9.563106134520861,-6.917445655081856,-0.6945657160630292,2.0250095948827216
0,-24.831277638347427,-13.92103530572076,-20.14470047897072,-4.483435262473181,2.0300096185737893
0,-20.767868916149776,-13.668961730417246,-16.1419547112465,2.467695526595187,2.035009642264864
0,-21.284459349579016,-5.9868853848254115,-5.529208323475548,12.71882667336961,2.0400096659559317
0,-15.821048912754014,-6.22480624408028,-10.486461285903419,14.279958199703556,2.0450096896469994
0,-2.46763757795729,-7.972724282480364,-10.833713567737588,6.52109012656673,2.050009713338067
0,-19.294225316071945,-18.56063947356072,-16.210965137205825,-4.307777526051218,2.0550097370291347
0,-4.8308120968774855,-19.148551789808153,-15.788215961361063,0.033355261281410975,2.0600097607202024
0,3.0226021108080974,-10.466461202270105,0.654533994044308,4.684488507877875,2.06500978441127
0,-0.5539826612426655,2.0656323194490382,9.417284764222343,6.795622232960606,2.0700098081023377
0,-2.6605663811023477,8.01772880660706,17.330036384509228,13.466756455358857,2.0750098317934054
0,-18.05714901669375,-12.260171709362927,-10.667211110379682,-12.492108806713276,2.08000985548448
0,-4.323730535379919,14.45193080290338,6.485542313624657,6.3490264645388335,2.085009879175548
0,-18.440310903579647,1.07403637465198,-4.071703309631067,-7.399837713113031,2.0900099028666155
0,-13.896890086563712,-7.983854963126963,-8.248947946234022,-18.068701321616885,2.095009926557683
0,27.07653195145928,-7.841743179517963,5.473808437952731,6.292435657672757,2.100009950248751
0,42.6499552463446,16.890371756660684,21.97656587715931,23.053573243910186,2.1050099739398185
0,8.403379832319235,3.202489876633864,2.079324405094365,7.884711455894578,2.110009997630886
0,-18.853194258611715,-15.04538878873743,-14.707915945381773,-8.104149688603313,2.115010021321954
0,40.990233004255956,19.546735791174946,25.06484485815411,34.57698982728758,2.1200100450130215
0,20.19366165072897,16.17886364679306,19.08760684775089,24.22813001941185,2.1250100687040963
0,-18.202908290856197,5.820994807742798,0.05037005442112119,-5.5007290980557855,2.130010092395164
0,21.990523206525523,11.443129302462753,9.77313450789968,3.6004124874933225,2.1350101160862316
0,-15.606043830617404,-5.524732841578733,-5.974099762899143,-7.668445211972646,2.1400101397772993
0,31.407390623929814,17.567408402455797,21.42866727047896,18.20269781544551,2.145010163468367
0,10.690826595695553,24.34955306071557,19.57143563582646,17.29384158132384,2.1500101871594346
0,-4.795735890922265,5.2217011581483375,5.224205359732293,0.8649860963124769,2.1550102108505023
0,-1.4522968124614417,-4.266147281683356,-5.433023532510726,-10.553868629923748,2.16001023454157
0,10.101143854238464,5.346007763964147,0.9197489837203731,-10.052722587965462,2.1650102582326376
0,5.0545861321651175,-1.6218336824057857,-0.9574770670173708,-8.851575767835177,2.1700102819237124
0,-10.351969956057726,3.940328401602791,-2.7847016600582664,-6.110428158683945,2.17501030561478
0,8.111475611974761,14.692494038155491,8.488075229324327,16.7607202510159,2.1800103293058477
0,-3.7450771413147512,9.05466324886796,11.360853625700885,15.321869472791978,2.1850103529969154
0,16.188371806415553,19.926836054391156,17.02363355302523,17.293019517282428,2.190010376687983
0,0.5418224771102649,-0.2509875258203682,-0.17358496576762683,-2.8758296062081667,2.1950104003790507
0,13.595274892070185,9.701192526597556,2.48919809129704,-7.444677889366345,2.2000104240701184
0,28.47872907170012,11.713376229169981,14.421982745567547,5.166474675860986,2.205010447761186
0,9.362185035045211,12.82556359858923,10.854769017784541,5.797628097602315,2.2100104714522537
0,-18.814357200336165,-7.092245349384361,-4.752443072132512,-15.781217616047421,2.2150104951433285
0,-0.3608976175449873,-7.630050599583774,-12.679653504835075,-18.62006245678968,2.220010518834396
0,-5.47743619935327,-8.437852136729507,-8.34686226079224,-10.388906415403815,2.225010542525464
0,-14.303972927898323,-1.8056499449523822,-8.674069319705417,-11.917749481315006,2.2300105662165315
0,-15.490507784552388,1.1565559921908382,-1.4512746604125257,-10.296591642667222,2.235010589907599
0,12.54295925027277,13.068765691354303,18.621521738767314,6.484567113409274,2.240010613598667
0,10.226428196744592,19.000979168810268,16.354319899277108,9.515726800297607,2.2450106372897345
0,1.8498990747762694,-12.716803560048216,-17.942880158320843,-16.44311256866412,2.250010660980802
0,20.623371903525342,15.365417519368513,13.18992158584989,16.358049019720596,2.25501068467187
0,-25.80315329858805,2.2076424211848753,0.10272515148757844,0.7292115785745643,2.2600107083629446
0,-21.58967651324501,-4.420128840869327,-9.124469441800285,-12.049624879179214,2.2650107320540123
0,39.163802278589685,25.532103746510963,22.538337825462587,4.39153965932451,2.27001075574508
0,0.3172830962874995,11.71434019595196,-0.21885302754429603,-20.03729479271115,2.2750107794361476
0,27.07076595829876,32.99658051875497,22.483958017625326,-1.3161282214590897,2.2800108031272153
0,32.184250881385175,33.77882472418936,30.05677097820096,5.925039387602727,2.285010826818283
0,37.94773788005919,53.26107281873191,48.84958586943115,21.586208049229644,2.2900108505093506
0,23.081226965931233,39.05332480521541,29.48240270355044,14.817377777499415,2.2950108742004183
0,48.83471814741761,46.95558068226725,37.22522148919481,24.858548585051643,2.300010897891486
0,59.84821142941802,64.22784044405047,58.75804223128759,39.859720482575845,2.3050109215825607
0,57.21170681244933,59.76010407981018,54.58086493061303,39.34089347815053,2.3100109452736284
0,53.625204291793054,39.002371573371015,35.89368958317623,21.422067576614488,2.315010968964696
0,78.99870385709904,40.55464290332807,33.676516180250864,11.843242779652977,2.3200109926557637
0,10.1822054923139,37.556918043789274,26.389344709132466,1.4144190866721158,2.3250110163468314
0,22.275709176462442,22.199196965017798,21.512175153905986,-12.114403504078076,2.330011040037899
0,40.53921488515689,38.241479633906515,33.38500749592674,7.386775005434264,2.3350110637289667
0,32.252722591283714,30.603766014257914,28.12784171393258,10.587954613330728,2.3400110874200344
0,10.066232264797284,11.656056066892436,15.580677783977196,5.199135317460382,2.345011111111102
0,38.46974387287137,36.978349749937095,40.403515679517795,35.72031711483561,2.350011134802177
0,6.483257380304081,13.190647019134145,13.526355371487565,14.90150000101568,2.3550111584932445
0,35.88677274967007,23.342947827941643,34.549196828253486,27.312683969534397,2.360011182184312
0,11.090289941367459,4.17525212777082,10.222040015706526,6.703869011774042,2.36501120587538
0,12.513808913744928,12.637559868454614,17.874884897541502,13.335055117293878,2.3700112295664475
0,25.467329623374223,14.919870998626468,24.43773143557334,23.346242274185887,2.375011253257515
0,-7.27914797469581,-3.777814534126126,3.2605795898891357,6.237430469119542,2.380011276948583
0,12.274376073383186,10.374503216935508,20.343429318981627,22.72861968725439,2.3850113006396505
0,-2.102098279254845,-7.923175801957656,-5.413719419940643,-1.500190087671092,2.390011324330718
0,-2.988571079834932,-10.670851644693352,-14.45086667042068,-9.838998872946437,2.395011348021793
0,-17.41504237557992,-19.958524364719036,-20.988012475839977,-20.90780668603046,2.4000113717128606
0,4.338487786770446,-13.586194014393403,-17.3451568784273,-10.626613543551699,2.4050113954039283
0,-18.557980638794902,-8.943860644652801,-9.632299918778674,-6.335419460827976,2.410011419094996
0,17.49555230234263,-3.0215243051500504,2.6405583639610084,2.815775547917017,2.4150114427860636
0,-4.760913434917141,-10.51918504462141,-5.516582068481787,-2.963028530973351,2.4200114664771313
0,-20.22737789564928,-18.436842911023717,-14.383721253914839,-14.771831710877775,2.425011490168199
0,-10.11384112451433,-15.694497951256952,-13.030859229520788,-10.040634004675809,2.4300115138592666
0,-9.710303165117017,-6.802150210849696,-11.037996031453991,-10.349435424344994,2.4350115375503343
0,-11.626764059866431,-19.75979973395799,-22.75513169460123,-23.168235980724077,2.440011561241409
0,-16.063223850064706,-27.217446563348123,-25.672266252330953,-27.227035683210996,2.4450115849324767
0,-56.74968257555542,-20.10509074001839,-24.399399736059078,-17.925834539271307,2.4500116086235444
0,-58.39614027351578,-21.992732302826468,-22.93653217490818,-15.53463255421757,2.455011632314612
0,-10.162596977103245,-6.520371288537522,-5.943663595750457,3.1365702684555354,2.4600116560056797
0,-2.4290527156005917,-15.628007732203972,-7.5807940236802445,5.297773926314713,2.4650116796967474
0,0.5744924839037143,-1.5656416675915779,-8.007923482633135,10.318978417107221,2.470011703387815
0,-21.15196140487184,-10.37327312750209,-6.355051995749902,7.7601837381070595,2.4750117270788827
0,-23.31841440745272,-13.090902143926728,-11.592179585433271,-5.328610114094196,2.4800117507699504
0,-34.43486654781182,-22.928528747886457,-19.469306273211522,-16.29740314324169,2.485011774461025
0,-10.851317847655494,-8.296152969053313,-5.676432079476881,-1.3561953527341961,2.490011798152093
0,2.7922316735128554,-0.1937748356761877,0.1564429765473203,11.035013254674848,2.4950118218431605
0,19.035781997382387,5.2086056249098025,7.229318876342108,20.326222676316732,2.500011845534228
0,7.62933310550391,16.54098838549118,19.33219560134608,25.207432908605057,2.505011869225296
0,32.27288497834862,3.6433734182940656,10.615073132228817,17.70864394622749,2.5100118929163635
0,4.196437594817607,-14.384239305186464,-15.682048551386316,-13.20014421796146,2.515011916607431
0,20.469990932103837,17.488150186220995,9.530830529545197,9.231068407773494,2.520011940298499
0,-1.9764550340715514,10.10054186353649,8.163710353983854,7.242281814795638,2.5250119639895665
0,-5.072900328954486,-2.297064302762717,5.096590900627654,4.123495994143813,2.5300119876806413
0,-12.76934497804246,-17.034668342746976,-8.090527852334038,1.7147109363374433,2.535012011371709
0,-16.225789006312127,-13.282270286259244,-3.277645926937902,1.815926631458541,2.5400120350627766
0,-7.832232437698472,6.230129837759514,3.4652366549596127,14.797143069248765,2.5450120587538443
0,11.091324704922993,5.482532001097216,14.568119871614954,16.538360238855415,2.550012082444912
0,8.034882399117505,-7.29506382434746,-1.5589962990584114,-3.170421871553222,2.5550121061359796
0,-46.50155937757947,-23.02265766662974,-19.856111879584887,-31.68920327451394,2.5600121298270473
0,13.551999352902385,-4.310249553122191,3.856773107652398,-8.427983982117563,2.565012153518115
0,38.93555856950181,-6.127839510070207,-7.830341359101155,-5.8567640050801755,2.5700121772091826
0,-5.690881749168366,-7.415427562762346,2.6225446989266414,2.7144566471077143,2.5750122009002574
0,-1.687321625814592,-7.543013735791671,-1.9845687392311309,8.15567796545104,2.580012224591325
0,-35.59376108370885,-4.98059805309069,-2.8316816944039056,4.536899940824361,2.5850122482823927
0,-30.090200145109304,-1.2981805379697358,-1.3887941872877638,8.84812256360812,2.5900122719734604
0,0.28336116983179327,5.964238786667557,3.1440937615720124,8.399345823536542,2.595012295664528
0,-4.163077157042359,1.1266598979796598,2.466982131669991,3.6005697096338123,2.6000123193555957
0,-24.269515142701685,-15.760917226962313,-24.090129097476712,-29.69820578953322,2.6050123430466634
0,-8.585952803141799,4.911507389088328,-0.32723994591985495,-10.756980684998444,2.610012366737731
0,8.007609846785734,-9.596066276171147,-9.844350432842948,-13.335754986506684,2.6150123904287987
0,17.831172792857107,5.196361755356328,11.108539423325931,11.28547129754777,2.6200124141198735
0,17.744736020370134,2.9987914619497156,7.951429604354968,8.896698159370763,2.625012437810941
0,1.6882995133859031,-2.008777178158835,-2.7956799083294044,9.917925590869535,2.630012461502009
0,10.341863254730885,-2.0163441868537144,7.367210866221842,11.559153583121622,2.6350124851930765
0,-9.114572773567613,7.286090413954604,4.8301019085900485,19.92038212615219,2.640012508884144
0,-43.24100858952445,-7.351473397673136,-14.50700680092225,-10.198388791152091,2.645012532575212
0,-24.82744420987865,-21.57903564357065,-23.95411528185262,-29.467159180548308,2.6500125562662795
0,11.896120350901395,-14.65659634485335,-20.60122355266233,-32.405929053060966,2.655012579957347
0,-15.840314919830725,-26.20415552119715,-26.668331629949662,-37.284698417494845,2.660012603648415
0,-3.806750033879381,-20.48171319040981,-21.665439528106987,-20.47346727965825,2.6650126273394896
0,-22.353185002380183,-21.729269368222457,-21.77254725924546,-6.382235642492743,2.6700126510305573
0,1.370380164520887,-8.28682406831104,-8.249654833329139,9.068996493014335,2.675012674721625
0,13.583945457566035,3.2856226972827605,2.8132377413470135,21.10022912648545,2.6800126984126926
0,-19.212489132198865,-24.13192908246016,-20.073869542494737,-3.638537743001128,2.6850127221037603
0,15.741076386250803,0.6405205822398048,10.509023308522995,17.442695882663635,2.690012745794828
0,0.7146420039154275,-3.1970283179827637,-3.818083711739595,2.82393000071068,2.6950127694858956
0,-16.37179228831299,-8.164575791820537,-12.155190609168255,-6.824835392334373,2.7000127931769633
0,1.4517735005554588,-1.912121847508239,-1.652297389336072,3.266399699695983,2.705012816868031
0,-8.184660637990707,-4.769666492832606,-2.9294040572852302,-4.322364727010928,2.7100128405591057
0,-4.911094711891291,1.742790264813341,4.963489382362524,-1.5011286761227514,2.7150128642501734
0,24.622471271245647,6.905248418222472,8.016382925036787,3.8701078488257346,2.720012887941241
0,-19.11396269630082,1.97770796007171,5.4192765658396835,-1.9186551556433162,2.7250129116323087
0,-9.96039662245574,3.3801688827035266,1.0021702993394408,-3.1574176930196116,2.7300129353233764
0,4.313169485201625,-9.717368821813679,-14.134935880258126,-14.106179766645374,2.735012959014444
0,-6.79326438029389,-14.184905161302204,-16.9820419785166,-17.89494137927174,2.7400129827055117
0,12.860301774382059,-3.5624401429568495,1.65085199986287,-8.623702532558005,2.7450130063965794
0,8.513867942392558,0.9800262268427536,4.063746051072519,-4.3824632269103985,2.750013030087647
0,-8.922565883582985,-2.3175060577579196,-4.943359828324618,-5.5012234617577835,2.755013053778722
0,-30.728999711043517,-18.77503700230562,-22.14046564159613,-15.329983235822807,2.7600130774697895
0,0.46456645329752455,-6.622566611766699,-6.467571391358985,-3.598742547072965,2.765013101160857
0,3.9981326039788416,-15.410094890116499,-14.274677079081698,-9.617501392608762,2.770013124851925
0,-25.0683012636197,-16.797621840139307,-18.201782704968842,-19.196259768641333,2.7750131485429925
0,-8.88473515342369,-14.785147463282172,-18.398888267855558,-14.05501767029684,2.78001317223406
0,2.6788309316565417,-14.962671759511375,-20.985993764950024,-18.57377509128815,2.785013195925128
0,-38.41760301021031,-25.47019472723106,-26.113099191587466,-20.202532023713545,2.7900132196161955
0,-25.964036979489737,-9.917716363155874,-12.78020454106385,0.08871154195712949,2.795013243307263
0,-23.310470974483152,-6.215236662336448,-3.317309804767876,14.899955616437408,2.800013266998338
0,-14.576904990963602,-1.5727556185885159,-1.904414972763701,17.10120021057616,2.8050132906894056
0,-18.253339022524486,-14.260273224979295,-12.731520034401505,-0.9675546656125699,2.8100133143804733
0,-19.53977306093595,-6.727789473918507,-7.728624978445953,5.083690996890143,2.815013338071541
0,15.083792903579463,13.294695642863967,6.184270207020743,13.96493720642271,2.8200133617626086
0,16.20735888158066,7.737182133870333,4.667165534341751,13.71618397063383,2.8250133854536763
0,-4.789075116704223,11.569670007108261,9.970061015724589,13.667431296126665,2.830013409144744
0,-22.97550908162931,-6.007840730224292,-8.087043337089893,-5.9213208116643665,2.8350134328358116
0,11.75805699662617,5.8846499284884555,2.8658524873026754,1.6799276519104938,2.8400134565268793
0,-13.498376871463403,-7.982858010341587,-8.321251499688234,-6.958823308696471,2.845013480217954
0,-21.794810674802555,9.139635459697281,8.061644713532061,13.192426311054096,2.8500135039090218
0,36.18875559836076,14.44213034489083,13.944541138560552,18.223676515519998,2.8550135276000894
0,-19.547678039930876,-1.3653733489934392,-9.692562213395632,0.15492730829130108,2.860013551291157
0,-10.904111577800965,6.327124383104809,5.660334668416622,8.71617869195605,2.8650135749822248
0,3.2694549968385087,0.7496235457300849,-2.9667682054031923,2.6874306683449176,2.8700135986732924
0,11.653021696578206,29.842124142940644,23.856129175615372,24.84868323863783,2.87501362236436
0,-1.8034114659987808,-11.4453738220348,-4.330973178582078,-6.230063596863259,2.8800136460554278
0,-19.469844478585394,-30.452870346650553,-27.738075258609566,-29.438809838551578,2.8850136697464954
0,-14.656277328548464,-21.250365427803107,-18.435177054697196,-20.06755548637591,2.89001369343757
0,-3.592710002193915,6.632140939297536,11.5377214442757,2.1836994612670293,2.895013717128638
0,-10.129142484655516,-3.215351239113107,-2.809379749457791,-11.265044992516852,2.9000137408197055
0,-10.275574760153555,5.2571580437075625,5.473519376566615,-3.4937888437378315,2.905013764510773
0,17.907993187781926,13.739668794375618,13.746418834530216,11.147467912092223,2.910013788201841
0,17.441561375721008,7.782181018971671,8.06931863602848,13.818725279493675,2.9150138118929085
0,16.65512981936584,5.7046947227406575,12.062218791768416,14.059983262311349,2.920013835583976
0,6.438698532963303,-2.382790089846855,2.9451193114828804,-7.148758136663511,2.925013859275044
0,24.682267529310568,19.019726585140223,28.778020203937047,17.7525010845087,2.9300138829661115
0,6.355836819817923,12.432244750994354,8.320921476694068,3.0537609271503574,2.9350139066571863
0,-6.570593585377313,0.024764410034222903,-3.3761768640622427,-8.104978607999783,2.940013930348254
0,31.472976322955773,21.567285563543436,20.436725186788475,20.4062824793682,2.9450139540393216
0,37.136546552992115,7.759808211813675,9.039627633558297,5.557544189147695,2.9500139777303893
0,-4.429882888998948,-2.52766764590067,2.3825304796105584,-1.3211934794607965,2.955014001421457
0,37.63368800104615,18.414857988794992,20.005433727320632,17.700069472015667,2.9600140251125246
0,-1.3127407746500181,17.40738511351313,25.09833737799286,21.6713330412762,2.9650140488035923
0,10.980830784606843,13.899913724699024,12.75124143139872,11.742597224772409,2.97001407249466
0,9.144402678345363,15.67244381729578,18.14414588547014,11.273862017386943,2.9750140961857277
0,38.28797490504192,7.164975384776555,10.14705073643722,3.255127412643412,2.9800141198768024
0,-1.6384525383447173,1.7175084194130443,13.079955979076328,-5.20360659681227,2.98501414356787
0,10.855120343431052,-11.809957087220681,-13.70713839296099,-19.132340018554693,2.9900141672589378
0,15.758693544326192,-9.217421143540031,-14.164232386437765,-5.511072859618156,2.9950141909500054
0,25.282267057169395,9.12511624255498,-3.1413260076341216,3.9101948738799677,3.000014214641073
0,9.805840873285142,7.407655063510223,-1.0384192619749797,7.731463176378613,3.0050142383321408
0,-3.600585017593241,-1.939804688433195,2.1744878456705266,14.442732042148725,3.0100142620232084
0,-1.0070106267078154,1.3527369785673393,8.437395310528668,19.434001464646762,3.015014285714276
0,16.0065640343651,7.825280056109478,14.030303127499868,15.715271436020297,3.0200143094053438
0,-28.299861046104407,-5.922175464411622,-5.476788709178033,-7.703458053026491,3.0250143330964185
0,-12.396285879618448,-19.58962959164362,-25.07388020571257,-27.562187012570362,3.030014356787486
0,-16.632710476626144,7.70291766621329,4.369028632079413,-3.4509154522149292,3.035014380478554
0,10.380865153808296,5.3254663015509545,4.311937799212234,-6.259643380343057,3.0400144041696215
0,-46.69555899626475,-11.031983693069593,-5.865152708883755,-9.068370804285792,3.045014427860689
0,-26.981982933391887,-8.319432325030943,-10.952242896681206,-2.2270977306598674,3.050014451551757
0,-3.8584066618861543,-10.306879601223512,-11.149332768234862,-9.225824165465925,3.0550144752428245
0,-27.364830183740658,-6.574325527707016,-8.64642232675839,1.6554498858499558,3.060014498933892
0,19.73874650068171,-3.1617701097152144,-3.713511574523416,2.2667244182337534,3.06501452262496
0,-29.73767660802484,-17.459213351757427,-17.54060051294945,-18.36200057313387,3.0700145463160347
0,28.04590049125654,14.493344742333328,14.052310857298798,7.969274907259005,3.0750145700071023
0,13.419477799649712,12.755904169047248,13.585222535916108,7.160550855292598,3.08001459369817
0,-26.25694468230853,-7.331535075475932,-1.3118654777891208,-6.728172733144652,3.0850146173892377
0,-6.103366954397596,-10.808972995564952,-15.038953185117219,-11.126895862275697,3.0900146410803053
0,-3.189789015765213,-23.136409595275328,-16.956040587266763,-18.2456185359196,3.095014664771373
0,-5.666210864669065,-13.723844877520074,-10.373127684462236,-12.004340756850224,3.1000146884624407
0,-15.122632498709752,-4.421278843697966,-0.48021447567872966,-0.913062526566152,3.1050147121535083
0,31.080946085012577,3.3212885060099966,7.4626990409583245,7.658216154361462,3.110014735844576
0,-11.015475110582965,0.4438571719762881,4.175612867489651,0.6794952856060608,3.1150147595356508
0,-4.65189608301284,2.63642715461585,3.5085270056352904,2.0907748666282195,3.1200147832267184
0,-24.578316829793113,-5.361001545757975,-4.0785585432766265,-7.717945103320344,3.125014806917786
0,42.56526265214972,3.0315710711532518,2.5643562218901037,3.833335375035082,3.1300148306088538
0,-22.52115763393448,-6.415854994258283,-3.112728697733485,-8.405383698844442,3.1350148542999214
0,-0.9375776851678748,11.386720258490781,12.380186698968696,15.42589767464803,3.140014877990989
0,-1.4339974987054553,5.519296829765316,5.98310241285047,9.137179494947834,3.1450149016820568
0,1.5395829286456821,8.77187471946509,4.986018444197804,7.198461760842777,3.1500149253731244
0,3.4631636002330017,8.714453926782506,5.8889347926378495,1.6697444702762423,3.155014949064192
0,-17.68325548058806,-6.712965549784869,-7.938148542700025,-8.388972379376648,3.1600149727552598
0,-20.37967431006338,-8.47038371209019,-5.4752315628328105,-12.777688790750524,3.1650149964463345
0,19.413907116492865,7.292199438154778,4.997685731441174,2.9635952340341163,3.170015020137402
0,-3.272511195534217,6.4847838994411795,1.8806033395483368,-1.83512030654284,3.17501504382847
0,0.1510707592149198,4.057369670058278,-1.756478739120661,-9.943835413642386,3.1800150675195376
0,-28.395347013959316,-13.350043252085028,-11.313560505221425,-16.06255008801255,3.185015091210605
0,36.61823549066685,-2.547454869090099,1.2893580408469338,7.388735670334378,3.190015114901673
0,9.411818278922105,-0.714865182641941,5.052276899067082,5.390021862013714,3.1950151385927406
0,10.375401355696022,15.167725805892198,13.415196069455959,12.851308487612446,3.2000151622838082
0,-6.781015275396865,3.350318094925362,-3.3018844484217773,-9.067404452818373,3.205015185974876
0,-6.517431611367538,9.492911682209929,5.121035344425143,-4.326116959627048,3.2100152096659507
0,15.236152350777221,9.565506564721417,8.583955446575505,-8.324829033020006,3.2150152333570183
0,3.479736613976757,3.6281027386594467,1.5268758562002678,-6.40354067266126,3.220015257048086
0,5.773321180695538,-3.959299800441168,-3.4602034289632124,-5.312251877561847,3.2250152807391537
0,-3.8230939471784815,0.5432989426237294,7.132717588567424,5.0690373538282065,3.2300153044302213
0,29.310491231768914,11.805898962971646,11.005638906070367,15.02032702324502,3.235015328121289
0,4.514076718188731,0.4085002554842522,1.1285605203632945,1.4116171320336597,3.2400153518123567
0,-14.312337488302822,-7.108897185343467,-5.288517572286169,-8.397092319084527,3.2450153755034243
0,12.331248611326671,11.443706634781112,11.624404624096124,9.474198670312141,3.250015399194492
0,19.08483501592971,7.766311710001865,9.907327105237966,-0.7645098994020815,3.255015422885567
0,-6.681578276196173,-17.201081965868305,-16.32975013357652,-27.653218027814855,3.2600154465766344
0,-18.817991267385665,-11.638474399046006,-15.406827097184108,-19.82192571387105,3.265015470267702
0,-20.654403959685883,-8.275865595044927,-8.883903789708807,-18.330632954951817,3.27001549395877
0,-15.64081635381069,-3.713255558357676,-7.130980214114013,-10.64933974652334,3.2750155176498374
0,4.452771551131851,5.819355707268844,9.461943627551765,5.691953917492921,3.280015541340905
0,8.946359757060652,2.5419681983382363,11.92486773350746,15.133248043900876,3.285015565031973
0,-11.730051733908596,-0.9254180887735433,-1.5422078984265855,8.074542639249948,3.2900155887230405
0,30.283537080101972,5.137196842088275,8.80071672893112,22.135837709131163,3.295015612414108
0,-3.8628737995610654,14.969812986799042,20.623641612130648,22.95713325775914,3.300015636105183
0,41.55071562741581,9.572430340630362,11.2565667467947,6.468429287652389,3.3050156597962506
0,-2.935694640174068,-2.414951102030187,-1.340507872678239,-4.90027420022523,3.3100156834873182
0,-16.892104604969767,-13.442331347400842,-10.857582252757588,-18.04897720561008,3.315015707178386
0,3.6514857298962857,2.140289598379451,0.44534359999761247,-1.7876797279074375,3.3200157308694536
0,11.075076361572444,1.7429117295999397,6.698269679338019,11.573618234190658,3.3250157545605212
0,-11.041332712700587,4.865535040741818,-2.188804020879861,13.634916682161432,3.330015778251589
0,-2.9377414957862023,2.2281595261202987,2.4841224930497208,5.536215616847525,3.3350158019426566
0,26.10585000947727,16.93078517966,15.41704921459209,16.057515038089317,3.3400158256337242
0,-19.560558199957324,1.9634119946509294,2.479976136744023,1.8688149447203184,3.345015849324799
0,-10.286966127412907,0.31603996363103104,9.712903251772033,7.530115334678628,3.3500158730158667
0,-3.923373775840348,-8.531330921315504,-0.7841694487698143,-3.898583794750877,3.3550158967069343
0,5.510218852563034,-1.4087006680499603,2.0987580261698695,-5.287282446573709,3.360015920398002
0,-14.346188243932506,-2.3360692840936164,-3.3783143326118323,-15.07598062362792,3.3650159440890697
0,-3.4425950667313976,8.896563223292553,3.3746134656281,-9.574678328083946,3.3700159677801373
0,30.43099838307686,7.769196846754949,8.567541411574744,-1.2333755611677448,3.375015991471205
0,0.8845921040962058,5.4218315784584,5.100469495620179,-7.152072323282986,3.3800160151622727
0,20.188186093845562,15.464467409855573,16.653397707555946,7.519231385665073,3.3850160388533403
0,-0.7582196513951871,0.027104331580524277,-1.1236739636401358,-6.369464434023605,3.390016062544415
0,-4.59462513624288,5.639742333488252,4.78925447022251,-4.0181597819620976,3.395016086235483
0,12.098969634252617,1.0623814048794198,0.502182996820273,-5.5868546575397975,3.4000161099265505
0,11.742564654739827,3.4050215347073105,0.2651116035659242,-7.395549059706973,3.405016133617618
0,-6.203840080706595,18.91766271155049,1.068040277731083,6.145757013068024,3.410016157308686
0,4.629755421415302,-4.62969507662938,-9.28903099343247,-5.832936437365856,3.4150161809997535
0,9.663351154302848,-2.7670518425209787,-4.306102222470276,-6.921629408986318,3.420016204690821
0,-8.513052889119809,4.715592400912631,-2.693173421493587,-1.0703218994873034,3.425016228381889
0,-12.019456716075783,5.738237640657474,-1.1402446021648815,2.1709860938073846,3.4300162520729565
0,8.674139666499537,4.400883863456766,-3.3873157758381343,3.9622945737404978,3.4350162757640312
0,-11.232263747885444,-7.3964689443167035,-4.974386953621182,2.4036035430316103,3.440016299455099
0,-18.788666965305772,-12.243820796364085,-14.231458146246025,-4.485086995820642,3.4450163231461666
0,-30.00506999092503,-17.88117170585171,-18.07852936371713,-16.913777040304286,3.4500163468372342
0,-4.891472828238014,3.93147831506615,1.6843993850526,-4.082466587388401,3.455016370528302
0,-11.717875478927935,-0.035870744863757964,-8.472671907802162,-3.2011556332111666,3.4600163942193696
0,-3.7442779433467237,-7.713218896480605,-3.2497432494545393,3.0201558267370285,3.4650164179104372
0,-14.200680220936746,-7.830566150373675,-5.966814646584229,-4.488532202761136,3.470016441601505
0,-27.177082310180023,-16.997912516579152,-18.17388610529982,-13.507219716738675,3.4750164652925726
0,-33.783484208006996,-21.41525800411493,-17.140957630814626,-18.975906709674227,3.4800164889836473
0,2.100114090820078,-9.522602620560995,-14.898029227005045,1.1354068249926794,3.485016512674715
0,-4.396287406500499,-0.449946372018448,-4.105100896253532,-1.573279105145611,3.4900165363657827
0,14.78731130815753,-3.5172892635838253,1.0178273602216823,4.448035508017171,3.4950165600568504
0,0.4409102428723185,2.1253687000983907,1.5307555417871004,9.35935067256734,3.500016583747918
0,9.354509405208628,8.228027514479072,6.063683647887605,9.140666396176382,3.5050166074389857
0,-5.2618911978143865,1.430687174810621,5.096611677733976,11.111982685784643,3.5100166311300534
0,10.351708440445606,3.5533476759582534,-2.1504603698392293,8.323299547423106,3.515016654821121
0,-17.89469167355073,-5.843990987529307,-2.1775324962746088,1.6446169862240703,3.5200166785121887
0,-26.101091533054813,-19.831328821055227,-19.844604702923515,-10.3840649932875,3.5250167022032635
0,-12.387491130173325,-16.388665829321514,-13.921676990469287,-13.182746386583167,3.530016725894331
0,-4.903890455356474,-17.636002015678766,-15.898749358366643,-5.611427188491742,3.535016749585399
0,9.899710502204051,4.696662618040368,6.104178195283106,8.909892606965881,3.5400167732764665
0,7.8333117536655,8.649328071000674,6.607105673230987,13.00121300606111,3.545016796967534
0,-4.443086690144215,-2.328005657472343,0.3500330783145096,3.1425340146206677,3.550016820658602
0,-0.31948481878550483,-1.6653385683086983,3.952960413044389,1.7138556377281284,3.5550168443496695
0,6.674117378060817,0.7373293374427867,3.7858876796015077,1.9951778799263407,3.560016868040737
0,-1.602280089367386,-5.99000194118277,-9.841185120058284,-7.75349925446143,3.565016891731805
0,18.53132278888518,14.872667594932663,16.27174201592458,15.157824238851186,3.5700169154228796
0,31.4949260220289,23.40533794461338,23.84466908911119,26.219148363845914,3.5750169391139472
0,11.408529617758973,19.188009105594908,10.507596100040812,16.96047312338561,3.580016962805015
0,0.5821335818970195,4.48068107393787,3.840523047765056,19.081798518524273,3.5850169864960826
0,16.74573791885274,-7.836646155720436,-2.7065500698038205,5.823124548465352,3.5900170101871502
0,-17.970657367753905,-17.373972589218834,-11.723623255158794,-3.845548788975365,3.595017033878218
0,-18.127052274450648,-15.991298231816174,-11.030696510497663,-2.584221496653676,3.6000170575692856
0,12.246553202848004,3.3713769123961774,5.56223016268616,12.487106422444416,3.6050170812603533
0,4.620159068897522,0.02405284029973473,-2.534843236514755,6.608434965139867,3.610017104951421
0,-8.986234671500387,-0.16327045085183478,3.5580832911684928,3.47976412770351,3.6150171286424957
0,-1.762628013671161,-3.0405929637677604,0.9210097449363869,3.9610939057660666,3.6200171523335634
0,1.340979047236796,-0.9479147010927498,-0.8860638761288665,8.532424294447303,3.625017176024631
0,2.514586516280633,-2.0052356653213805,-2.793137573011762,5.943755288351598,3.6300171997156987
0,18.738194398391638,15.347444141117192,8.08978865330984,16.845086881408296,3.6350172234067664
0,20.45180269780628,24.93012471538266,18.682714801666126,27.95641906651624,3.640017247097834
0,40.00541141726574,7.052806053478966,10.475640870146384,15.2577518349894,3.6450172707889017
0,-4.180979442656508,-2.5945118500182454,0.16856685572024557,7.559085176255541,3.6500172944799694
0,-20.157369883236008,-3.5418290014067724,-0.2685072455301084,-1.939580921769287,3.655017318171037
0,-4.073759906178631,1.930854592861456,4.274418562081238,-5.088246471909917,3.660017341862112
0,-17.060149512391774,1.7935389264261443,3.7873442740557177,-7.236911487028308,3.6650173655531795
0,-15.166538701610174,-9.123776007029724,-8.18973011429832,-14.975575979532904,3.670017389244247
0,1.6770725276337655,-18.41109021357962,-19.086804607597482,-22.06423996093288,3.675017412935315
0,-1.0393158222294656,-4.5784036985431324,-3.1738792097933506,-0.7229034414406446,3.6800174366263825
0,2.564296251649284,-6.745716466203763,-4.620953923859227,-6.661566429996538,3.68501746031745
0,3.5279087521269634,-6.403028519970174,2.7719712479588026,-7.5902289346774365,3.690017484008518
0,2.051521681882453,11.199660137306747,14.994896303617766,-1.2688909629722471,3.6950175076995855
0,40.9451350431104,29.142349502751593,27.437821240572276,13.312447478024428,3.700017531390653
0,38.64874883659705,20.085039572445208,23.540746054880188,8.703786381111641,3.705017555081728
0,28.502363060446488,36.30773034045984,35.8636707404217,16.785125738365686,3.7100175787727956
0,58.645977709290214,39.610421798230774,42.17659528832829,21.996465540685374,3.7150176024638633
0,56.019592773759385,35.14311393402235,34.989519686441405,19.597805777409253,3.720017626154931
0,27.00320823988428,46.29580673250745,42.2724439189349,27.339146435965365,3.7250176498459986
0,39.83682408914716,43.708500174496265,39.70536796618759,27.040487501598957,3.7300176735370663
0,51.160440299041646,40.391194236700564,39.018291804722125,27.821828957116956,3.735017697228134
0,37.75405684313162,40.90388889166118,32.2512154072202,14.023170782791183,3.7400177209192016
0,-1.6223263089329651,8.166584108052017,6.024138742893761,-9.385487043233196,3.7450177446102693
0,-5.9387091902928475,11.569279851533459,9.067061778381333,-10.384144543872477,3.750017768301344
0,13.374908164802767,29.081976085766577,27.4699844786909,11.157198257973286,3.7550177919924117
0,22.518525721667835,32.804672772634206,33.902906807280836,18.528541339542166,3.7600178156834794
0,3.5921434447124234,13.977369871741761,5.215828725491345,2.999884677505174,3.765017839374547
0,26.125761296988166,15.150067340284505,12.138750192498923,12.571228247498906,3.7700178630656147
0,35.03937923993557,16.072765133504753,12.081671165927784,10.242572024161703,3.7750178867566824
0,-20.577002766911495,3.1754632051405176,-0.31540839766715356,0.273915981236871,3.78001791044775
0,14.31661523445716,-9.061838492133695,-6.93248854245002,-6.354739908199439,3.7850179341388177
0,-17.499766798451905,-3.999140005997784,-5.6695693127380205,-7.533395671206502,3.7900179578298854
0,-19.38614890782295,-19.546441383759348,-22.926650752383203,-18.75205133438268,3.79501798152096
0,-13.752531134868056,-11.85374267183034,-15.293732904208365,-14.980706923349878,3.800018005212028
0,-28.408913519244063,-17.36104391536226,-12.04081580957306,-14.0993624623728,3.8050180289030955
0,-5.565296098801813,-16.42834515805036,-13.387899508310056,-9.63801797426412,3.810018052594163
0,5.708321090198611,-5.075646442116476,-3.424984038953795,4.363326519365547,3.815018076285231
0,1.5819380123293352,-6.602947808524144,1.2079305609120858,6.9246709975436955,3.8200180999762985
0,-18.634445367664647,-18.57024929727169,-12.399155745724055,-0.06398456070858582,3.825018123667366
0,-7.120829084702104,-20.587550947315187,-16.536242995351678,-13.782640176586023,3.830018147358434
0,-32.2972131727263,-21.364852796108934,-17.633331223505557,-15.631295871045015,3.8350181710495015
0,-22.97359766404973,-24.112154879196147,-19.610420464272654,-23.82995166405346,3.8400181947405763
0,-9.459982588898944,-15.519457230043196,-17.017510750037125,-16.198607573993183,3.845018218431644
0,2.7136320243792333,-7.246759880167932,-0.5546021115181288,-2.1372636175040904,3.8500182421227116
0,-8.852753851469144,-8.664062859575221,-5.721694578180554,-0.7359198099020459,3.8550182658137793
0,-15.56914024311941,-15.911366197172345,-20.718788178669502,-12.124576165792709,3.860018289504847
0,-0.5255271765479439,-23.188669920750524,-14.605882940710424,-9.453232699252625,3.8650183131959146
0,23.228085322906967,-13.045974056620475,-6.922978890731753,-7.101889423610041,3.8700183368869823
0,-28.718302770030512,9.516721370454238,9.499923946022063,14.189453648537253,3.87501836057805
0,5.335308519288192,-11.36058366331487,-11.237174455121215,-3.3992034951688352,3.8800183842691176
0,-28.791080833954133,-19.917889181206725,-23.15427411850972,-14.727860867202505,3.8850184079601924
0,-25.037470853360787,-4.545195205724749,-6.121375067667949,-4.8365184798269745,3.89001843165126
0,-7.933861560777498,-11.412501758246298,-8.738477324857975,0.20482365534377472,3.8950184553423277
0,7.819747023676633,-0.05980885915004208,2.894419088710405,15.436165527154232,3.9000184790333954
0,-22.446645119096296,0.522883471832484,5.597314152331522,16.79750712417021,3.905018502724463
0,-6.943038007543811,1.595575215254895,8.010207845259462,12.738848433931837,3.9100185264155307
0,-17.439431659162004,-0.2917336483140083,-4.456899853642579,6.390189442638486,3.9150185501065984
0,-32.58582609007068,-5.629043138335258,-4.254008965821986,-3.0084698646151913,3.920018573797666
0,-8.182221314602982,-9.356353274106782,-13.861119512605509,-16.557129503206625,3.9250185974887337
0,-11.478617345166178,-6.03366407445902,-3.6882315147449054,-6.905789488191705,3.9300186211798085
0,-9.165014192634438,-12.55097555751865,-13.985344992178362,-12.094449833744783,3.935018644870876
0,-9.101411866784503,-12.788287740546327,-15.82245996391072,-8.72311055301927,3.940018668561944
0,-5.03781037647802,-14.425600639740875,-11.10957644780797,-11.381771658175754,3.9450186922530115
0,3.6557902701499008,-0.9129142701345987,-0.8766944605194436,5.319566839524466,3.950018715944079
0,-14.020609934578552,-8.68022864577043,-8.863814017742705,-8.079095070557488,3.955018739635147
0,-8.307010997904415,-9.817543779957205,-7.450935134515276,-12.717757398650695,3.9600187633262145
0,-19.103412926295338,1.5651403146526006,-6.558057825241012,-12.616420154362697,3.965018787017282
0,7.350184274821744,-4.70217637402729,-9.075182103614827,-21.145083346236948,3.97001881070835
0,4.623780600800866,4.530506142238744,-2.0123079826237213,-5.8237469814457095,3.9750188343994246
0,-4.582623952842822,5.823187851733753,-1.539435474659282,-4.942411065832721,3.9800188580904923
0,0.6609706092820713,-10.104131257400145,-10.916564591675488,-6.6010756042763665,3.98501888178156
0,-14.015435717353487,-17.361451196963294,-18.673695345085466,-8.499740600992473,3.9900189054726276
0,-10.451842936814833,-1.068771978127046,-2.6408277453838576,-0.9484060595858419,3.9950189291636953
0,12.301748947536863,3.333906388787721,13.292038197876458,17.19292801675738,4.000018952854763
0,3.765339932736026,-8.213416106047692,-2.3150975245504775,-1.315738375277098,4.005018976545831
0,1.808930015605831,-2.9607394722340796,1.2077650778316378,0.4455947604720564,4.010019000236898
0,1.4625191925421392,-10.288063719011996,-3.7393740047107324,4.796927419761592,4.015019023927966
0,-1.2938925403186243,-16.91538885498094,-7.146514781845823,-3.591740401835081,4.020019047619041
0,3.359694813049259,-9.06271488777499,-5.053657262914205,-4.990408708805742,4.025019071310108
0,-0.8967187514025896,-4.84004182389156,-1.4508014567818164,-2.2890775054902974,4.030019095001176
0,-23.233133237660827,-3.647369668882784,-5.567947371863006,-4.217746795907552,4.035019118692244
0,-4.239548649159652,1.5553015722792882,-5.225095016184567,-5.496416583712026,4.040019142383311
0,15.844035011521026,9.697971894831868,0.06775560262206,-0.04508687218448583,4.045019166074379
0,1.077617742135963,1.520641293828247,-4.029395522715917,1.9462423357006575,4.050019189765447
0,9.521199540022293,-9.436690236027843,-11.35654839914569,-5.112428962885588,4.055019213456514
0,-26.18521959795553,-17.07402269999985,-21.14370303303113,-13.981100770599339,4.060019237147582
0,21.018360325106617,-5.2913561026549,-5.550859429675852,-5.059773089585859,4.065019260838657
0,-34.28806069347261,-6.948690447544366,-5.488017593140117,-8.268445921193255,4.0700192845297245
0,-19.27448265560904,-12.796025737306596,-11.245177526496565,-18.227119265901397,4.075019308220792
0,-36.91090556162629,-9.14336197372521,-14.692339231989623,-24.92579312308333,4.08001933191186
0,-7.5973294094891255,0.04930084230691201,-5.00950271089702,-16.184467490509427,4.0850193556029275
0,18.186245804934362,1.9819627105715036,-3.156667963512236,-8.983142364096151,4.090019379293995
0,-13.67017991328517,9.884623631040993,6.47616501051948,0.9581822617625637,4.095019402985063
0,12.463393440921903,18.737283603314346,10.778996211655185,9.679506393463534,4.1000194266761305
0,-4.943034127543325,-1.170057373867444,-3.7181743600170565,-4.069169962524172,4.105019450367198
0,-24.129462613747073,-5.207399302640841,-1.045346704844262,-0.07784679995436078,4.110019474058273
0,-7.6758920121597,2.8452578144932543,6.537479176646312,9.853475887267512,4.115019497749341
0,2.7876776838431403,-4.792086024900963,-3.7896967161461257,0.794798105035337,4.120019521440408
0,6.9412464816738595,-10.479430823049283,-4.676874383891894,-1.1338801411039476,4.125019545131476
0,-25.35518561103671,-17.306776581679422,-18.944053827046826,-15.39255884574943,4.130019568822544
0,13.448381413602451,6.635876698344412,0.7487649546135018,0.01876199683580987,4.135019592513611
0,18.561947563781914,8.198529016863025,8.271581962073725,21.850082392840328,4.140019616204679
0,10.765512847258089,-13.078819626160326,-4.865602803390565,-0.408597651695389,4.145019639895747
0,11.669077270604772,-0.44616923079664833,8.82721065935605,7.982721868525443,4.150019663586814
0,22.402640839046384,6.036480203095247,9.070022351150193,11.21404095801899,4.155019687277889
0,-27.10379644337433,-5.3708713241735895,2.2528322723390124,7.87535962056668,4.160019710968957
0,-28.81023457294587,-4.3082238122644725,0.12564042269904047,4.7666778591272365,4.165019734660024
0,-16.396673544784058,1.5644227393081318,10.608446801580717,11.367995675864112,4.170019758351092
