labels,F4,F3,Fz,Cz,timestamps
0,-2026.94,-913.29,-1579.33,-1680.42,-2.0000094764273832
0,-2088.35,-960.62,-1629.02,-1726.8,-1.995009452736312
0,-1988.22,-871.21,-1547.48,-1648.4,-1.9900094290452444
0,-2052.14,-921.36,-1594.84,-1705.16,-1.9850094053541767
0,-2050.52,-961.76,-1626.07,-1748.41,-1.980009381663109
0,-2003.82,-878.18,-1554.36,-1667.55,-1.9750093579720414
0,-2098.59,-979.89,-1648.11,-1759.55,-1.9700093342809701
0,-2058.54,-941.55,-1620.95,-1730.03,-1.9650093105899025
0,-2053.29,-938.46,-1604.8,-1720.09,-1.9600092868988348
0,-2061.0,-946.42,-1615.98,-1722.08,-1.9550092632077671
0,-2054.54,-939.67,-1600.93,-1705.48,-1.950009239516696
0,-2025.29,-907.04,-1573.98,-1680.16,-1.9450092158256282
0,-2053.58,-938.78,-1614.29,-1729.13,-1.9400091921345606
0,-2041.9,-919.26,-1595.25,-1699.4,-1.935009168443493
0,-2021.21,-909.03,-1579.69,-1690.21,-1.9300091447524252
0,-2042.89,-947.94,-1608.33,-1733.59,-1.925009121061354
0,-2072.88,-952.29,-1623.24,-1738.6,-1.9200090973702864
0,-2030.15,-915.97,-1583.75,-1694.63,-1.9150090736792187
0,-2027.34,-925.34,-1587.09,-1696.6,-1.910009049988151
0,-2061.62,-943.24,-1602.0,-1714.86,-1.9050090262970798
0,-2016.44,-912.63,-1575.47,-1689.59,-1.9000090026060121
0,-2027.59,-960.34,-1624.59,-1725.22,-1.8950089789149445
0,-2085.15,-948.89,-1609.36,-1725.23,-1.8900089552238768
0,-2033.88,-917.18,-1579.93,-1693.96,-1.8850089315328091
0,-2011.41,-902.91,-1567.72,-1686.66,-1.880008907841738
0,-2056.0,-932.2,-1599.2,-1723.22,-1.8750088841506702
0,-2030.66,-924.51,-1597.32,-1719.03,-1.8700088604596026
0,-2020.66,-916.22,-1579.31,-1705.49,-1.865008836768535
0,-2031.83,-920.12,-1591.67,-1705.28,-1.8600088130774637
0,-2000.91,-883.25,-1553.49,-1672.08,-1.855008789386396
0,-1981.23,-881.43,-1549.06,-1674.62,-1.8500087656953283
0,-1998.13,-889.07,-1556.31,-1682.5,-1.8450087420042607
0,-1988.4,-879.04,-1545.49,-1665.36,-1.840008718313193
0,-1961.2,-844.64,-1513.64,-1639.78,-1.8350086946221218
0,-2038.01,-908.46,-1581.76,-1707.16,-1.8300086709310541
0,-2060.95,-915.12,-1600.18,-1718.14,-1.8250086472399865
0,-2022.16,-898.29,-1572.82,-1695.4,-1.8200086235489188
0,-2052.49,-914.16,-1589.9,-1705.11,-1.8150085998578476
0,-2059.56,-940.08,-1614.54,-1728.29,-1.81000857616678
0,-2031.29,-899.45,-1568.7,-1679.16,-1.8050085524757122
0,-2048.07,-919.11,-1590.19,-1685.72,-1.8000085287846446
0,-2078.06,-955.04,-1620.57,-1718.68,-1.795008505093577
0,-2068.93,-945.18,-1613.43,-1709.27,-1.7900084814025057
0,-2060.31,-933.41,-1600.86,-1705.14,-1.785008457711438
0,-2074.94,-951.06,-1611.86,-1721.27,-1.7800084340203703
0,-2040.5,-918.72,-1581.5,-1684.84,-1.7750084103293027
0,-2006.4,-901.36,-1570.04,-1677.5,-1.7700083866382315
0,-2054.82,-922.61,-1582.41,-1695.41,-1.7650083629471638
0,-2084.22,-971.76,-1617.55,-1734.2,-1.7600083392560961
0,-2032.18,-930.94,-1583.21,-1695.08,-1.7550083155650285
0,-2030.16,-918.12,-1575.5,-1693.93,-1.7500082918739608
0,-2068.4,-944.94,-1607.3,-1719.89,-1.7450082681828896
0,-2035.75,-932.58,-1596.02,-1704.57,-1.740008244491822
0,-2084.14,-959.74,-1622.99,-1730.61,-1.7350082208007542
0,-2055.0,-954.96,-1614.06,-1727.2,-1.7300081971096866
0,-2031.53,-920.09,-1583.54,-1697.42,-1.7250081734186153
0,-2067.53,-957.57,-1619.11,-1732.43,-1.7200081497275477
0,-2022.49,-920.03,-1577.23,-1689.36,-1.71500812603648
0,-2065.74,-970.72,-1626.19,-1732.17,-1.7100081023454123
0,-2072.86,-960.17,-1628.47,-1735.76,-1.7050080786543447
0,-2065.01,-952.72,-1619.19,-1720.56,-1.7000080549632735
0,-2037.44,-931.9,-1584.92,-1694.55,-1.6950080312722058
0,-2068.57,-948.05,-1606.54,-1717.21,-1.6900080075811381
0,-2065.6,-950.16,-1613.85,-1724.6,-1.6850079838900704
0,-2071.42,-951.47,-1614.96,-1722.18,-1.6800079601989992
0,-2091.56,-963.79,-1627.4,-1747.5,-1.6750079365079316
0,-2032.45,-929.49,-1594.14,-1708.09,-1.670007912816864
0,-2032.96,-925.2,-1595.57,-1713.62,-1.6650078891257962
0,-2041.31,-929.6,-1598.22,-1714.27,-1.6600078654347286
0,-2089.53,-962.85,-1629.34,-1749.51,-1.6550078417436573
0,-2069.15,-949.25,-1618.05,-1740.4,-1.6500078180525897
0,-2046.57,-940.22,-1609.14,-1724.36,-1.645007794361522
0,-2021.21,-905.75,-1576.05,-1695.23,-1.6400077706704543
0,-2058.7,-939.39,-1607.01,-1715.88,-1.6350077469793831
0,-2046.09,-916.47,-1584.02,-1701.45,-1.6300077232883154
0,-2031.02,-933.68,-1598.82,-1710.09,-1.6250076995972478
0,-2068.2,-963.85,-1623.58,-1734.02,-1.6200076759061801
0,-2042.96,-932.5,-1591.18,-1707.66,-1.6150076522151124
0,-2048.1,-934.59,-1605.4,-1711.35,-1.6100076285240412
0,-2040.01,-928.1,-1589.6,-1701.03,-1.6050076048329736
0,-2038.05,-928.3,-1591.98,-1701.93,-1.6000075811419059
0,-2035.26,-916.84,-1597.03,-1695.17,-1.5950075574508382
0,-2022.45,-917.06,-1574.79,-1686.06,-1.590007533759767
0,-2041.25,-937.48,-1603.08,-1699.06,-1.5850075100686993
0,-2010.02,-905.66,-1567.01,-1675.13,-1.5800074863776317
0,-2037.67,-941.36,-1602.53,-1709.74,-1.575007462686564
0,-2014.81,-918.81,-1578.58,-1686.7,-1.5700074389954963
0,-2024.39,-933.46,-1576.89,-1690.23,-1.565007415304425
0,-2007.7,-912.05,-1580.22,-1685.82,-1.5600073916133574
0,-2034.67,-938.28,-1600.77,-1713.43,-1.5550073679222898
0,-2057.91,-938.62,-1603.72,-1715.56,-1.550007344231222
0,-1978.23,-911.72,-1571.61,-1686.26,-1.5450073205401509
0,-2050.19,-929.2,-1596.03,-1707.65,-1.5400072968490832
0,-2094.12,-945.9,-1613.41,-1726.33,-1.5350072731580156
0,-2071.25,-923.57,-1586.69,-1693.73,-1.5300072494669479
0,-2070.48,-936.73,-1594.91,-1710.4,-1.5250072257758802
0,-2051.01,-912.85,-1576.45,-1682.63,-1.520007202084809
0,-2054.84,-950.03,-1616.35,-1723.8,-1.5150071783937413
0,-2045.92,-926.78,-1591.96,-1700.44,-1.5100071547026737
0,-2054.83,-933.58,-1590.04,-1702.13,-1.505007131011606
0,-2043.68,-945.52,-1605.92,-1713.47,-1.5000071073205348
0,-2038.97,-930.72,-1591.0,-1701.83,-1.495007083629467
0,-2067.22,-939.16,-1601.97,-1715.93,-1.4900070599383994
0,-2011.14,-912.35,-1580.67,-1686.67,-1.4850070362473318
0,-2047.83,-936.25,-1606.64,-1719.12,-1.480007012556264
0,-2043.42,-920.61,-1587.49,-1709.56,-1.4750069888651929
0,-2009.47,-910.73,-1577.79,-1694.06,-1.4700069651741252
0,-1991.55,-890.5,-1555.82,-1684.19,-1.4650069414830575
0,-2009.15,-911.93,-1579.97,-1706.19,-1.4600069177919899
0,-2002.27,-878.64,-1564.7,-1700.2,-1.4550068941009222
0,-2038.86,-895.13,-1582.43,-1717.96,-1.450006870409851
0,-1980.88,-871.29,-1557.45,-1689.27,-1.4450068467187833
0,-2006.55,-867.05,-1541.27,-1678.62,-1.4400068230277157
0,-1997.66,-888.61,-1560.48,-1696.87,-1.435006799336648
0,-1986.37,-860.83,-1555.05,-1686.89,-1.4300067756455768
0,-2011.07,-874.58,-1554.11,-1694.11,-1.425006751954509
0,-2005.46,-894.6,-1553.31,-1692.75,-1.4200067282634414
0,-2012.24,-891.2,-1554.44,-1684.61,-1.4150067045723738
0,-1967.23,-868.82,-1530.26,-1659.58,-1.410006680881306
0,-1974.99,-883.82,-1541.03,-1670.57,-1.4050066571902349
0,-1999.03,-889.81,-1550.12,-1678.23,-1.4000066334991672
0,-1951.77,-904.33,-1564.2,-1688.7,-1.3950066098080995
0,-2071.04,-902.22,-1579.73,-1694.44,-1.3900065861170319
0,-2046.07,-915.88,-1580.62,-1683.15,-1.3850065624259607
0,-2045.43,-921.76,-1580.42,-1685.17,-1.380006538734893
0,-2047.4,-914.26,-1568.88,-1680.01,-1.3750065150438253
0,-2019.08,-914.27,-1576.46,-1680.28,-1.3700064913527576
0,-1981.19,-883.94,-1549.65,-1656.46,-1.36500646766169
0,-2039.76,-902.34,-1580.16,-1696.3,-1.3600064439706188
0,-2024.58,-937.05,-1604.66,-1714.38,-1.355006420279551
0,-2071.37,-961.41,-1620.5,-1730.52,-1.3500063965884834
0,-2071.22,-955.53,-1607.45,-1714.25,-1.3450063728974158
0,-2047.93,-932.54,-1598.72,-1702.71,-1.3400063492063445
0,-2022.46,-926.25,-1598.75,-1701.54,-1.3350063255152769
0,-2051.21,-922.72,-1598.38,-1708.46,-1.3300063018242092
0,-2074.9,-931.08,-1607.55,-1716.43,-1.3250062781331415
0,-2086.11,-956.89,-1619.5,-1728.8,-1.3200062544420739
0,-2091.92,-949.04,-1607.9,-1713.5,-1.3150062307510026
0,-2054.9,-945.92,-1603.51,-1711.43,-1.310006207059935
0,-2073.93,-945.13,-1612.88,-1718.45,-1.3050061833688673
0,-2045.11,-923.01,-1589.09,-1693.51,-1.3000061596777996
0,-2030.54,-909.3,-1573.51,-1671.62,-1.2950061359867284
0,-2054.92,-922.6,-1594.8,-1699.54,-1.2900061122956608
0,-2082.7,-942.49,-1613.75,-1713.34,-1.285006088604593
0,-2068.36,-956.81,-1623.33,-1721.33,-1.2800060649135254
0,-2063.3,-952.03,-1611.99,-1711.47,-1.2750060412224578
0,-2065.36,-963.34,-1615.01,-1710.85,-1.2700060175313865
0,-2044.7,-962.8,-1617.55,-1715.28,-1.2650059938403189
0,-2087.99,-961.54,-1625.3,-1723.12,-1.2600059701492512
0,-2057.07,-945.13,-1605.47,-1703.71,-1.2550059464581835
0,-2041.94,-948.32,-1611.5,-1715.4,-1.2500059227671123
0,-2066.42,-923.91,-1591.89,-1687.76,-1.2450058990760446
0,-2060.55,-948.19,-1613.25,-1716.47,-1.240005875384977
0,-2032.95,-922.81,-1589.93,-1693.52,-1.2350058516939093
0,-2045.49,-929.84,-1601.91,-1705.16,-1.2300058280028416
0,-2010.59,-903.88,-1565.01,-1678.58,-1.2250058043117704
0,-2077.37,-960.06,-1628.73,-1740.21,-1.2200057806207028
0,-2054.87,-945.94,-1608.24,-1725.94,-1.215005756929635
0,-2040.73,-895.0,-1569.37,-1679.04,-1.2100057332385674
0,-2062.68,-918.0,-1598.87,-1695.14,-1.2050057095474962
0,-2049.83,-939.75,-1600.07,-1699.55,-1.2000056858564285
0,-2077.93,-963.98,-1612.91,-1713.27,-1.1950056621653609
0,-2028.69,-937.97,-1594.32,-1700.38,-1.1900056384742932
0,-2066.22,-953.97,-1611.7,-1715.57,-1.1850056147832255
0,-2030.08,-911.29,-1579.93,-1676.78,-1.1800055910921543
0,-2045.44,-926.17,-1580.48,-1679.52,-1.1750055674010866
0,-2063.53,-957.8,-1624.12,-1716.34,-1.170005543710019
0,-2028.88,-935.32,-1603.32,-1704.08,-1.1650055200189513
0,-2017.78,-924.95,-1585.6,-1688.38,-1.16000549632788
0,-2048.37,-903.24,-1575.43,-1687.7,-1.1550054726368124
0,-2081.36,-931.1,-1606.26,-1706.51,-1.1500054489457447
0,-2056.33,-938.61,-1604.36,-1700.14,-1.145005425254677
0,-2082.9,-947.27,-1608.76,-1708.81,-1.1400054015636094
0,-2059.93,-939.95,-1598.32,-1704.4,-1.1350053778725382
0,-2036.64,-921.09,-1584.87,-1691.13,-1.1300053541814705
0,-2077.89,-963.69,-1636.73,-1743.02,-1.1250053304904029
0,-2014.28,-923.69,-1589.02,-1704.7,-1.1200053067993352
0,-2068.85,-930.15,-1614.17,-1724.75,-1.115005283108264
0,-2066.59,-943.98,-1614.76,-1730.15,-1.1100052594171963
0,-2019.3,-920.09,-1585.34,-1702.04,-1.1050052357261286
0,-2036.03,-927.72,-1593.42,-1715.48,-1.100005212035061
0,-2011.45,-908.48,-1578.55,-1701.99,-1.0950051883439933
0,-2051.38,-920.01,-1583.73,-1710.01,-1.090005164652922
0,-2024.73,-935.7,-1601.6,-1716.58,-1.0850051409618544
0,-2068.91,-948.8,-1620.44,-1734.83,-1.0800051172707867
0,-2030.52,-910.36,-1575.22,-1691.75,-1.075005093579719
0,-2025.26,-918.3,-1579.55,-1699.93,-1.0700050698886479
0,-2034.74,-926.47,-1589.84,-1706.27,-1.0650050461975802
0,-2056.27,-933.56,-1608.21,-1720.12,-1.0600050225065125
0,-2019.46,-921.23,-1579.62,-1690.06,-1.0550049988154448
0,-2065.16,-941.23,-1607.53,-1726.08,-1.0500049751243772
0,-2045.51,-904.55,-1578.65,-1701.69,-1.045004951433306
0,-2050.51,-932.66,-1595.11,-1723.68,-1.0400049277422383
0,-2056.81,-933.11,-1600.66,-1726.21,-1.0350049040511706
0,-2024.66,-914.82,-1585.65,-1696.43,-1.030004880360103
0,-2033.77,-915.67,-1581.7,-1704.9,-1.0250048566690317
0,-2045.7,-928.46,-1603.84,-1718.22,-1.020004832977964
0,-2028.13,-921.11,-1586.16,-1699.62,-1.0150048092868964
0,-2016.49,-885.84,-1556.87,-1673.65,-1.0100047855958287
0,-2028.03,-895.85,-1571.84,-1692.0,-1.005004761904761
0,-2082.75,-943.76,-1616.65,-1733.86,-1.0000047382136898
0,-2021.03,-898.31,-1573.01,-1685.64,-0.9950047145226222
0,-2028.6,-915.01,-1584.32,-1698.64,-0.9900046908315545
0,-2058.14,-947.91,-1607.22,-1712.66,-0.9850046671404868
0,-2067.19,-970.79,-1616.31,-1727.76,-0.9800046434494156
0,-2036.69,-941.55,-1586.62,-1698.44,-0.975004619758348
0,-2027.03,-914.51,-1572.58,-1683.1,-0.9700045960672803
0,-2034.54,-927.72,-1590.63,-1691.34,-0.9650045723762126
0,-2054.6,-947.57,-1606.12,-1712.57,-0.960004548685145
0,-2066.56,-941.77,-1608.7,-1713.06,-0.9550045249940737
0,-2038.5,-917.41,-1589.15,-1695.42,-0.9500045013030061
0,-2059.42,-930.4,-1602.43,-1710.84,-0.9450044776119384
0,-2040.5,-930.37,-1598.48,-1708.35,-0.9400044539208707
0,-2031.97,-925.91,-1599.91,-1705.4,-0.9350044302297995
0,-1991.93,-887.34,-1569.01,-1684.18,-0.9300044065387318
0,-2034.16,-887.67,-1587.05,-1692.23,-0.9250043828476642
0,-2036.35,-942.89,-1606.57,-1711.6,-0.9200043591565965
0,-2096.8,-953.27,-1618.33,-1721.67,-0.9150043354655288
0,-2099.25,-963.59,-1625.76,-1720.65,-0.9100043117744576
0,-2030.56,-922.91,-1588.22,-1695.71,-0.90500428808339
0,-2061.37,-941.98,-1611.29,-1721.62,-0.9000042643923223
0,-2044.49,-916.98,-1592.24,-1699.05,-0.8950042407012546
0,-2077.27,-933.01,-1606.89,-1719.54,-0.8900042170101834
0,-2018.38,-904.04,-1578.29,-1676.65,-0.8850041933191157
0,-2046.23,-922.43,-1596.17,-1698.17,-0.8800041696280481
0,-2043.76,-924.8,-1586.53,-1685.64,-0.8750041459369804
0,-2053.65,-924.71,-1589.26,-1693.28,-0.8700041222459127
0,-2045.16,-914.45,-1593.85,-1690.98,-0.8650040985548415
0,-2041.7,-938.01,-1598.01,-1698.89,-0.8600040748637738
0,-2022.58,-905.99,-1566.17,-1671.47,-0.8550040511727062
0,-2075.73,-940.94,-1611.69,-1713.35,-0.8500040274816385
0,-2013.67,-926.13,-1582.06,-1673.01,-0.8450040037905673
0,-2012.92,-908.32,-1574.02,-1678.07,-0.8400039800994996
0,-2031.71,-927.69,-1593.36,-1702.75,-0.835003956408432
0,-2056.22,-935.49,-1613.59,-1717.1,-0.8300039327173643
0,-2046.01,-927.19,-1588.23,-1699.06,-0.8250039090262966
0,-2044.44,-928.01,-1594.63,-1691.04,-0.8200038853352254
0,-2099.97,-959.66,-1619.37,-1719.9,-0.8150038616441577
0,-2047.58,-937.23,-1603.53,-1703.74,-0.8100038379530901
0,-2044.7,-935.81,-1610.42,-1706.94,-0.8050038142620224
0,-2004.24,-912.2,-1584.71,-1684.37,-0.8000037905709512
0,-2055.55,-922.96,-1590.18,-1696.0,-0.7950037668798835
0,-2050.81,-920.71,-1593.82,-1698.65,-0.7900037431888158
0,-2029.68,-914.81,-1582.22,-1684.91,-0.7850037194977482
0,-2061.35,-948.99,-1624.94,-1731.99,-0.7800036958066805
0,-2058.26,-932.97,-1604.67,-1718.23,-0.7750036721156093
0,-2059.5,-941.94,-1610.65,-1719.65,-0.7700036484245416
0,-2037.15,-923.15,-1588.08,-1707.0,-0.7650036247334739
0,-2043.94,-928.79,-1589.96,-1705.16,-0.7600036010424063
0,-2048.19,-930.78,-1595.75,-1710.11,-0.755003577351335
0,-2031.27,-922.16,-1591.06,-1702.1,-0.7500035536602674
0,-2030.91,-918.79,-1584.17,-1705.66,-0.7450035299691997
0,-2021.95,-904.18,-1568.38,-1694.17,-0.740003506278132
0,-2001.97,-901.67,-1563.27,-1692.02,-0.7350034825870644
0,-1990.18,-879.69,-1542.68,-1677.11,-0.7300034588959932
0,-1991.35,-890.86,-1557.29,-1700.42,-0.7250034352049255
0,-2005.11,-886.08,-1567.13,-1707.08,-0.7200034115138578
0,-1966.0,-859.54,-1522.01,-1669.32,-0.7150033878227902
0,-1953.29,-840.12,-1506.65,-1659.81,-0.7100033641317189
0,-1983.42,-869.72,-1540.52,-1691.09,-0.7050033404406513
0,-1967.92,-865.68,-1534.39,-1688.75,-0.7000033167495836
0,-1958.05,-841.08,-1513.61,-1666.19,-0.6950032930585159
0,-1975.71,-858.53,-1536.02,-1684.33,-0.6900032693674483
0,-2025.21,-879.74,-1556.57,-1706.03,-0.685003245676377
0,-1972.47,-847.12,-1533.74,-1686.95,-0.6800032219853094
0,-2004.41,-864.65,-1558.78,-1708.56,-0.6750031982942417
0,-1990.97,-885.15,-1553.85,-1694.01,-0.670003174603174
0,-2030.03,-907.22,-1569.47,-1700.5,-0.6650031509121028
0,-2011.84,-908.68,-1581.56,-1713.96,-0.6600031272210352
0,-2045.61,-916.95,-1590.98,-1719.39,-0.6550031035299675
0,-2029.19,-905.03,-1567.54,-1696.35,-0.6500030798388998
0,-2033.01,-917.57,-1577.08,-1708.56,-0.6450030561478322
0,-2039.98,-921.43,-1583.76,-1699.26,-0.6400030324567609
0,-2050.3,-928.04,-1591.05,-1700.29,-0.6350030087656933
0,-2039.9,-924.11,-1583.86,-1691.65,-0.6300029850746256
0,-2033.06,-935.99,-1600.68,-1713.12,-0.6250029613835579
0,-2038.73,-942.05,-1605.0,-1720.24,-0.6200029376924903
0,-2023.04,-920.87,-1599.25,-1701.26,-0.615002914001419
0,-2092.73,-951.58,-1614.74,-1715.26,-0.6100028903103514
0,-2097.81,-948.13,-1620.07,-1709.31,-0.6050028666192837
0,-2069.13,-951.69,-1615.2,-1701.79,-0.600002842928216
0,-2048.73,-945.73,-1613.72,-1703.49,-0.5950028192371448
0,-2066.31,-933.38,-1616.53,-1708.58,-0.5900027955460772
0,-2073.83,-954.07,-1610.43,-1704.74,-0.5850027718550095
0,-2057.87,-935.47,-1598.31,-1692.14,-0.5800027481639418
0,-2083.66,-953.17,-1610.84,-1705.78,-0.5750027244728741
0,-2075.03,-948.78,-1618.69,-1714.35,-0.5700027007818029
0,-2087.34,-967.5,-1629.01,-1722.46,-0.5650026770907353
0,-2078.68,-960.43,-1621.03,-1711.74,-0.5600026533996676
0,-2103.69,-979.22,-1642.83,-1727.17,-0.5550026297085999
0,-2096.25,-954.82,-1620.09,-1708.85,-0.5500026060175287
0,-2085.41,-960.72,-1633.11,-1712.52,-0.545002582326461
0,-2093.94,-977.65,-1644.81,-1731.39,-0.5400025586353934
0,-2057.8,-937.43,-1613.95,-1701.46,-0.5350025349443257
0,-2086.47,-984.27,-1648.91,-1737.36,-0.530002511253258
0,-2073.12,-948.23,-1614.04,-1710.26,-0.5250024875621868
0,-2090.44,-970.72,-1632.03,-1731.18,-0.5200024638711191
0,-2066.88,-961.04,-1615.91,-1711.7,-0.5150024401800515
0,-2029.71,-933.65,-1594.37,-1689.32,-0.5100024164889838
0,-2044.61,-926.87,-1599.16,-1690.64,-0.5050023927979126
0,-2059.16,-955.35,-1629.14,-1719.69,-0.5000023691068449
0,-2051.78,-943.44,-1612.69,-1707.76,-0.49500234541577726
0,-2065.34,-948.55,-1603.77,-1713.17,-0.4900023217247096
0,-2055.92,-942.57,-1601.08,-1705.47,-0.4850022980336419
0,-2037.52,-941.44,-1601.06,-1714.16,-0.4800022743425707
0,-2073.14,-946.28,-1612.94,-1717.89,-0.47500225065150303
0,-2057.42,-936.77,-1594.32,-1708.92,-0.47000222696043537
0,-2054.93,-940.57,-1605.21,-1715.64,-0.4650022032693677
0,-2031.91,-925.54,-1588.86,-1702.53,-0.4600021795782965
0,-2050.82,-947.7,-1607.47,-1727.06,-0.4550021558872288
0,-2054.61,-944.58,-1599.75,-1716.5,-0.45000213219616114
0,-2034.88,-919.15,-1587.55,-1698.17,-0.4450021085050935
0,-2044.96,-915.9,-1585.53,-1699.01,-0.4400020848140258
0,-2039.17,-933.55,-1597.45,-1707.13,-0.4350020611229546
0,-2067.29,-950.02,-1614.07,-1727.13,-0.4300020374318869
0,-2058.91,-954.45,-1611.78,-1732.0,-0.42500201374081925
0,-2097.35,-949.65,-1617.25,-1734.25,-0.4200019900497516
0,-2050.47,-940.18,-1612.66,-1718.58,-0.41500196635868036
0,-2059.54,-948.57,-1611.16,-1721.0,-0.4100019426676127
0,-2033.88,-928.84,-1590.62,-1705.08,-0.40500191897654503
0,-2060.97,-938.61,-1606.13,-1715.86,-0.40000189528547736
0,-2049.12,-930.17,-1602.4,-1715.3,-0.3950018715944097
0,-2057.3,-936.41,-1599.76,-1723.62,-0.39000184790333847
0,-2016.55,-927.81,-1591.48,-1716.55,-0.3850018242122708
0,-2042.4,-933.35,-1601.26,-1724.59,-0.38000180052120314
0,-2038.7,-926.6,-1596.39,-1723.61,-0.37500177683013547
0,-2051.38,-913.28,-1586.66,-1714.71,-0.37000175313906425
0,-1996.81,-894.81,-1558.15,-1692.67,-0.3650017294479966
0,-2011.09,-902.71,-1564.4,-1699.01,-0.3600017057569289
0,-2011.9,-878.58,-1542.79,-1677.16,-0.35500168206586125
0,-2005.7,-881.55,-1555.0,-1694.57,-0.3500016583747936
0,-1979.77,-867.75,-1538.56,-1678.3,-0.34500163468372236
0,-1976.11,-878.58,-1544.25,-1684.11,-0.3400016109926547
0,-2005.26,-888.19,-1556.09,-1693.98,-0.335001587301587
0,-1990.22,-878.56,-1552.01,-1685.99,-0.33000156361051936
0,-1995.69,-876.29,-1547.97,-1683.74,-0.32500153991944813
0,-2009.8,-880.0,-1558.68,-1697.41,-0.32000151622838047
0,-2005.35,-878.94,-1555.37,-1689.07,-0.3150014925373128
0,-2001.51,-892.16,-1569.84,-1698.13,-0.31000146884624513
0,-2063.19,-923.74,-1597.59,-1721.18,-0.30500144515517746
0,-2027.01,-914.43,-1592.01,-1713.59,-0.30000142146410624
0,-2046.07,-904.46,-1575.48,-1697.08,-0.2950013977730386
0,-2032.18,-902.96,-1578.27,-1695.8,-0.2900013740819709
0,-2030.85,-922.56,-1589.17,-1704.22,-0.28500135039090324
0,-2023.59,-925.94,-1582.48,-1699.33,-0.280001326699832
0,-2081.54,-930.11,-1599.53,-1700.93,-0.27500130300876435
0,-2059.08,-945.35,-1610.77,-1720.07,-0.2700012793176967
0,-2057.9,-948.7,-1613.94,-1720.51,-0.265001255626629
0,-2067.13,-940.45,-1603.99,-1707.18,-0.26000123193556135
0,-2042.16,-933.53,-1607.67,-1701.84,-0.25500120824449013
0,-2058.56,-958.44,-1618.04,-1713.96,-0.25000118455342246
0,-2038.51,-935.83,-1593.89,-1696.75,-0.2450011608623548
0,-2034.9,-949.59,-1608.18,-1706.11,-0.24000113717128713
0,-2053.52,-937.47,-1613.06,-1714.87,-0.2350011134802159
0,-2075.01,-963.7,-1626.9,-1728.8,-0.23000108978914824
0,-2067.9,-973.05,-1631.16,-1728.5,-0.22500106609808057
0,-2070.17,-958.87,-1623.69,-1719.74,-0.2200010424070129
0,-2076.45,-962.94,-1625.84,-1732.57,-0.21500101871594524
0,-2078.32,-976.33,-1631.95,-1748.2,-0.21000099502487402
0,-2065.85,-974.58,-1632.85,-1738.56,-0.20500097133380635
0,-2066.48,-956.79,-1611.74,-1717.69,-0.20000094764273868
0,-2047.64,-937.81,-1601.73,-1696.69,-0.195000923951671
0,-2050.31,-945.67,-1605.23,-1702.24,-0.1900009002605998
0,-2055.84,-947.06,-1612.51,-1707.67,-0.18500087656953212
0,-2041.76,-931.62,-1603.14,-1703.78,-0.18000085287846446
0,-2055.13,-947.67,-1612.87,-1711.64,-0.1750008291873968
0,-2045.39,-939.31,-1602.31,-1696.59,-0.17000080549632912
0,-2046.52,-929.18,-1598.47,-1695.26,-0.1650007818052579
0,-2041.56,-918.74,-1588.38,-1679.84,-0.16000075811419023
0,-2060.48,-932.35,-1598.88,-1696.96,-0.15500073442312257
0,-2065.11,-948.53,-1616.25,-1715.03,-0.1500007107320549
0,-2033.61,-934.1,-1596.85,-1702.69,-0.14500068704098368
0,-2064.67,-942.51,-1613.33,-1717.34,-0.140000663349916
0,-2054.94,-948.81,-1613.64,-1721.8,-0.13500063965884834
0,-2044.19,-929.6,-1592.36,-1703.28,-0.13000061596778067
0,-2027.06,-931.55,-1589.38,-1698.45,-0.125000592276713
0,-2060.49,-933.66,-1606.6,-1711.9,-0.12000056858564179
0,-2046.9,-935.09,-1594.15,-1707.34,-0.11500054489457412
0,-2034.3,-931.71,-1604.96,-1718.6,-0.11000052120350645
0,-2035.34,-914.56,-1580.57,-1694.96,-0.10500049751243878
0,-2058.48,-932.07,-1598.38,-1718.46,-0.10000047382136756
0,-2063.45,-948.6,-1615.21,-1724.42,-0.0950004501302999
0,-2048.82,-942.11,-1606.33,-1718.39,-0.09000042643923223
0,-2076.29,-946.99,-1623.1,-1728.83,-0.08500040274816456
0,-2065.7,-950.38,-1613.18,-1720.07,-0.0800003790570969
0,-2071.03,-950.97,-1620.42,-1731.59,-0.07500035536602567
0,-2071.69,-950.44,-1618.64,-1734.76,-0.070000331674958
0,-2091.5,-956.6,-1619.45,-1726.97,-0.06500030798389034
0,-2040.41,-930.62,-1601.43,-1703.77,-0.06000028429282267
0,-2056.23,-942.25,-1604.14,-1713.68,-0.05500026060175145
0,-2049.21,-937.59,-1606.23,-1707.22,-0.05000023691068378
0,-2042.2,-927.67,-1603.11,-1700.75,-0.045000213219616114
0,-2041.1,-939.91,-1602.09,-1707.85,-0.04000018952854845
0,-2097.18,-964.35,-1637.32,-1748.96,-0.03500016583748078
0,-2070.32,-941.72,-1617.18,-1731.53,-0.03000014214640956
0,-2035.01,-918.33,-1583.68,-1699.15,-0.02500011845534189
0,-1999.23,-887.1,-1557.63,-1671.41,-0.020000094764274223
0,-2020.18,-921.41,-1587.63,-1697.61,-0.015000071073206556
0,-2090.7,-964.92,-1629.52,-1734.7,-0.010000047382135335
0,-2083.52,-956.33,-1625.39,-1731.71,-0.005000023691067668
0,-2027.73,-933.02,-1595.85,-1711.5,0.0
0,-2059.49,-932.07,-1602.14,-1704.26,0.005000023691067668
0,-2050.02,-927.19,-1589.18,-1699.27,0.010000047382135335
0,-2044.17,-922.62,-1582.23,-1694.43,0.015000071073206556
0,-2054.68,-934.72,-1599.99,-1708.0,0.020000094764274223
0,-2048.19,-925.29,-1594.46,-1705.74,0.02500011845534189
0,-2043.87,-920.24,-1594.81,-1705.28,0.03000014214640956
0,-2036.63,-915.56,-1591.87,-1699.11,0.03500016583748078
0,-2029.16,-912.24,-1581.79,-1689.38,0.04000018952854845
0,-2021.51,-900.88,-1573.37,-1671.96,0.045000213219616114
0,-2022.53,-919.83,-1585.73,-1695.07,0.05000023691068378
0,-2020.24,-918.83,-1582.53,-1689.77,0.05500026060175145
0,-2032.1,-936.76,-1604.74,-1715.34,0.06000028429282267
0,-2044.92,-931.68,-1600.8,-1722.03,0.06500030798389034
0,-2052.44,-926.6,-1598.14,-1713.74,0.070000331674958
0,-2055.26,-933.24,-1594.54,-1707.86,0.07500035536602567
0,-2073.27,-941.74,-1606.8,-1714.67,0.0800003790570969
0,-2032.63,-932.96,-1598.93,-1706.25,0.08500040274816456
0,-2026.4,-928.63,-1587.43,-1698.63,0.09000042643923223
0,-1959.21,-885.3,-1575.34,-1700.48,0.0950004501302999
0,-2057.06,-876.4,-1591.11,-1719.81,0.10000047382136756
0,-2072.82,-886.2,-1605.63,-1722.03,0.10500049751243878
0,-2008.47,-886.24,-1577.54,-1707.04,0.11000052120350645
0,-2008.13,-900.84,-1572.56,-1707.7,0.11500054489457412
0,-2025.09,-963.65,-1597.95,-1705.21,0.12000056858564179
0,-2082.4,-978.57,-1620.02,-1725.7,0.125000592276713
0,-2105.6,-962.56,-1612.92,-1716.26,0.13000061596778067
0,-2070.81,-946.04,-1599.71,-1713.06,0.13500063965884834
0,-2084.75,-940.9,-1611.48,-1719.98,0.140000663349916
0,-2065.83,-915.71,-1594.0,-1707.34,0.14500068704098368
0,-2041.98,-909.05,-1582.68,-1691.96,0.1500007107320549
0,-2047.42,-907.71,-1577.41,-1695.91,0.15500073442312257
0,-1995.46,-871.48,-1546.63,-1668.2,0.16000075811419023
0,-1999.19,-870.51,-1550.41,-1672.94,0.1650007818052579
0,-2003.76,-874.22,-1550.26,-1675.05,0.17000080549632912
0,-1987.69,-868.37,-1541.58,-1670.43,0.1750008291873968
0,-1985.68,-869.73,-1544.66,-1680.03,0.18000085287846446
0,-1970.95,-859.11,-1532.43,-1668.16,0.18500087656953212
0,-1982.37,-875.77,-1550.03,-1681.28,0.1900009002605998
0,-1981.0,-877.41,-1548.53,-1684.23,0.195000923951671
0,-2019.52,-894.95,-1573.14,-1704.43,0.20000094764273868
0,-2018.69,-902.74,-1573.74,-1705.46,0.20500097133380635
0,-2011.84,-894.4,-1559.37,-1692.63,0.21000099502487402
0,-2008.55,-887.86,-1562.56,-1684.45,0.21500101871594168
0,-2052.15,-916.93,-1585.91,-1710.87,0.2200010424070129
0,-2032.73,-928.18,-1595.26,-1714.49,0.22500106609808057
0,-2051.05,-933.99,-1601.34,-1725.02,0.23000108978914824
0,-2045.66,-939.39,-1601.81,-1727.24,0.2350011134802159
0,-2031.14,-929.18,-1595.09,-1716.63,0.24000113717128713
0,-2059.5,-942.43,-1606.65,-1712.0,0.2450011608623548
0,-2046.47,-933.11,-1603.43,-1701.61,0.25000118455342246
0,-2062.98,-936.58,-1608.16,-1709.53,0.25500120824449013
0,-2082.92,-964.96,-1633.34,-1729.4,0.2600012319355578
0,-2060.31,-950.71,-1614.39,-1723.21,0.265001255626629
0,-2080.14,-959.54,-1629.63,-1729.28,0.2700012793176967
0,-2056.89,-937.94,-1605.41,-1706.95,0.27500130300876435
0,-2056.5,-945.8,-1611.87,-1701.06,0.280001326699832
0,-2081.36,-961.15,-1621.64,-1714.59,0.28500135039090324
0,-2071.21,-947.73,-1612.95,-1706.29,0.2900013740819709
0,-2069.71,-959.71,-1620.79,-1714.28,0.2950013977730386
0,-2040.44,-953.49,-1610.65,-1708.2,0.30000142146410624
0,-2062.84,-941.81,-1604.54,-1707.29,0.3050014451551739
0,-2048.38,-938.6,-1607.65,-1709.27,0.31000146884624513
0,-2031.49,-932.99,-1601.05,-1700.52,0.3150014925373128
0,-2077.64,-944.52,-1610.96,-1712.68,0.32000151622838047
0,-2079.15,-957.84,-1625.12,-1730.06,0.32500153991944813
0,-2092.79,-973.09,-1641.18,-1752.71,0.33000156361051936
0,-2070.57,-956.54,-1621.73,-1734.41,0.335001587301587
0,-2076.99,-968.38,-1629.61,-1745.82,0.3400016109926547
0,-2094.46,-957.23,-1623.21,-1732.99,0.34500163468372236
0,-2073.45,-941.78,-1612.52,-1709.05,0.35000165837479
0,-2066.37,-944.29,-1603.23,-1697.37,0.35500168206586125
0,-2057.32,-948.9,-1615.39,-1707.24,0.3600017057569289
0,-2052.04,-955.2,-1616.44,-1713.28,0.3650017294479966
0,-2050.66,-952.21,-1607.76,-1708.42,0.37000175313906425
0,-2050.13,-934.49,-1598.18,-1706.16,0.37500177683013547
0,-2054.11,-935.24,-1606.94,-1720.48,0.38000180052120314
0,-2045.94,-926.84,-1604.99,-1713.72,0.3850018242122708
0,-2063.87,-940.85,-1621.47,-1721.57,0.39000184790333847
0,-2074.76,-954.94,-1615.04,-1718.67,0.39500187159440614
0,-2063.49,-948.72,-1611.18,-1710.54,0.40000189528547736
0,-2075.39,-945.49,-1614.57,-1712.32,0.40500191897654503
0,-2070.29,-960.76,-1624.08,-1733.02,0.4100019426676127
0,-2044.14,-955.19,-1624.45,-1737.62,0.41500196635868036
0,-2042.8,-933.93,-1592.97,-1713.84,0.4200019900497516
0,-2031.42,-932.84,-1594.53,-1706.35,0.42500201374081925
0,-2056.01,-930.78,-1591.48,-1702.06,0.4300020374318869
0,-2053.85,-936.67,-1599.43,-1703.64,0.4350020611229546
0,-2025.28,-917.73,-1587.95,-1684.38,0.44000208481402225
0,-2022.14,-923.31,-1590.68,-1686.8,0.4450021085050935
0,-2038.03,-924.61,-1589.93,-1704.75,0.45000213219616114
0,-2076.36,-929.79,-1607.8,-1719.33,0.4550021558872288
0,-2062.82,-930.84,-1601.21,-1715.89,0.4600021795782965
0,-2057.81,-939.95,-1604.38,-1717.63,0.4650022032693677
0,-2040.32,-929.96,-1590.73,-1699.21,0.47000222696043537
0,-2037.62,-928.1,-1590.21,-1697.93,0.47500225065150303
0,-2041.39,-937.36,-1592.28,-1698.26,0.4800022743425707
0,-2029.59,-926.64,-1585.12,-1692.37,0.48500229803363837
0,-2043.58,-931.42,-1592.37,-1707.0,0.4900023217247096
0,-2042.79,-929.16,-1596.63,-1708.94,0.49500234541577726
0,-2036.88,-927.12,-1590.37,-1704.96,0.5000023691068449
0,-2023.8,-915.37,-1576.4,-1698.34,0.5050023927979126
0,-2029.09,-914.93,-1578.38,-1699.81,0.5100024164889838
0,-2020.79,-894.36,-1558.64,-1684.83,0.5150024401800515
0,-2011.17,-896.3,-1557.54,-1672.86,0.5200024638711191
0,-2011.99,-905.49,-1574.35,-1692.93,0.5250024875621868
0,-2041.62,-910.45,-1575.04,-1703.37,0.5300025112532545
0,-2047.04,-919.84,-1588.52,-1717.41,0.5350025349443257
0,-2040.99,-919.37,-1583.07,-1707.49,0.5400025586353934
0,-2032.24,-916.01,-1581.76,-1698.25,0.545002582326461
0,-2047.12,-930.48,-1601.6,-1715.78,0.5500026060175287
0,-2034.11,-917.95,-1588.2,-1701.69,0.5550026297085999
0,-2033.59,-912.96,-1583.64,-1697.24,0.5600026533996676
0,-2043.28,-924.02,-1592.93,-1710.5,0.5650026770907353
0,-2035.49,-915.55,-1587.13,-1699.66,0.5700027007818029
0,-2053.13,-920.96,-1592.9,-1698.65,0.5750027244728706
0,-2037.73,-932.97,-1600.72,-1698.27,0.5800027481639418
0,-2038.34,-931.0,-1595.08,-1696.98,0.5850027718550095
0,-2031.03,-916.83,-1583.6,-1687.44,0.5900027955460772
0,-2034.67,-923.99,-1593.4,-1705.59,0.5950028192371448
0,-2039.04,-926.42,-1595.92,-1706.01,0.600002842928216
0,-2022.18,-923.11,-1585.02,-1710.82,0.6050028666192837
0,-2061.4,-922.15,-1594.3,-1699.0,0.6100028903103514
0,-2055.13,-925.49,-1593.14,-1693.86,0.615002914001419
0,-2046.55,-941.33,-1614.37,-1708.71,0.6200029376924867
0,-2059.09,-943.87,-1609.67,-1716.27,0.6250029613835579
0,-2070.6,-941.22,-1603.56,-1713.26,0.6300029850746256
0,-2046.69,-925.95,-1589.16,-1699.86,0.6350030087656933
0,-2038.92,-922.91,-1590.14,-1691.88,0.6400030324567609
0,-2068.88,-937.59,-1607.17,-1708.81,0.6450030561478322
0,-2044.43,-916.9,-1587.97,-1691.0,0.6500030798388998
0,-2060.44,-947.04,-1613.27,-1711.14,0.6550031035299675
0,-2040.74,-926.44,-1591.81,-1695.51,0.6600031272210352
0,-2044.91,-919.22,-1589.64,-1690.81,0.6650031509121028
0,-2043.03,-926.02,-1591.35,-1703.39,0.670003174603174
0,-2061.23,-925.9,-1590.6,-1702.18,0.6750031982942417
0,-2036.18,-923.86,-1586.72,-1700.28,0.6800032219853094
0,-2044.57,-932.99,-1597.46,-1711.12,0.685003245676377
0,-2045.08,-926.03,-1590.17,-1709.78,0.6900032693674483
0,-2059.01,-936.51,-1605.62,-1727.48,0.6950032930585159
0,-2032.24,-922.38,-1587.58,-1704.63,0.7000033167495836
0,-2026.16,-910.55,-1582.82,-1693.87,0.7050033404406513
0,-2035.93,-932.44,-1598.79,-1710.67,0.7100033641317189
0,-2053.18,-920.4,-1590.35,-1700.47,0.7150033878227902
0,-2024.8,-920.47,-1581.18,-1698.82,0.7200034115138578
0,-2039.58,-923.03,-1589.8,-1711.48,0.7250034352049255
0,-2052.95,-943.15,-1601.48,-1725.62,0.7300034588959932
0,-2009.86,-930.89,-1586.05,-1705.83,0.7350034825870644
0,-2037.47,-928.26,-1591.0,-1714.6,0.740003506278132
0,-2047.67,-938.14,-1601.19,-1712.81,0.7450035299691997
0,-2055.32,-927.35,-1593.56,-1709.6,0.7500035536602674
0,-2042.84,-925.48,-1591.51,-1716.13,0.755003577351335
0,-2055.92,-933.56,-1605.18,-1728.49,0.7600036010424063
0,-2058.91,-946.36,-1608.99,-1727.44,0.7650036247334739
0,-2038.52,-922.17,-1587.83,-1705.15,0.7700036484245416
0,-2039.67,-927.58,-1591.89,-1701.2,0.7750036721156093
0,-2042.32,-922.68,-1590.13,-1699.18,0.7800036958066805
0,-2056.67,-929.92,-1597.64,-1712.95,0.7850037194977482
0,-2034.82,-926.22,-1590.72,-1714.43,0.7900037431888158
0,-2036.47,-918.47,-1583.25,-1702.68,0.7950037668798835
0,-2037.03,-920.05,-1582.05,-1695.41,0.8000037905709512
0,-2056.28,-940.18,-1604.19,-1713.72,0.8050038142620224
0,-2047.86,-934.03,-1603.65,-1715.52,0.8100038379530901
0,-2038.9,-921.31,-1592.63,-1703.39,0.8150038616441577
0,-2041.39,-932.11,-1598.79,-1719.0,0.8200038853352254
0,-2048.53,-927.9,-1604.53,-1723.15,0.8250039090262966
0,-2059.73,-927.8,-1605.35,-1715.75,0.8300039327173643
0,-2068.38,-938.75,-1609.45,-1720.95,0.835003956408432
0,-2056.9,-930.84,-1601.89,-1710.68,0.8400039800994996
0,-2046.19,-926.69,-1599.44,-1706.39,0.8450040037905673
0,-2059.52,-942.04,-1612.61,-1726.12,0.850004027481635
0,-2040.53,-920.56,-1587.59,-1699.43,0.8550040511727026
0,-2046.82,-941.26,-1607.36,-1720.71,0.8600040748637774
0,-2051.53,-932.07,-1598.94,-1718.49,0.8650040985548451
0,-2041.84,-920.8,-1590.83,-1706.16,0.8700041222459127
0,-2021.52,-906.26,-1578.65,-1704.99,0.8750041459369804
0,-2018.61,-910.8,-1577.7,-1705.24,0.8800041696280481
0,-2029.76,-906.05,-1579.55,-1706.67,0.8850041933191157
0,-1999.85,-889.63,-1561.85,-1686.09,0.8900042170101834
0,-1992.61,-879.3,-1554.54,-1685.04,0.8950042407012511
0,-2024.51,-893.36,-1574.23,-1701.11,0.9000042643923187
0,-2024.21,-894.84,-1574.22,-1701.55,0.9050042880833935
0,-2011.37,-895.74,-1568.02,-1693.14,0.9100043117744612
0,-2012.93,-888.1,-1560.06,-1686.72,0.9150043354655288
0,-1992.31,-874.77,-1544.37,-1675.16,0.9200043591565965
0,-1994.58,-873.76,-1540.02,-1670.04,0.9250043828476642
0,-1994.76,-885.24,-1547.59,-1678.78,0.9300044065387318
0,-2013.53,-893.78,-1562.5,-1687.53,0.9350044302297995
0,-1992.69,-883.23,-1553.38,-1672.08,0.9400044539208672
0,-2009.24,-886.41,-1562.54,-1679.02,0.9450044776119348
0,-2031.36,-910.19,-1575.83,-1694.6,0.9500045013030096
0,-2049.14,-919.94,-1584.39,-1700.76,0.9550045249940773
0,-2024.94,-919.98,-1587.72,-1696.73,0.960004548685145
0,-2016.82,-919.24,-1579.29,-1688.7,0.9650045723762126
0,-2024.58,-912.99,-1578.74,-1688.39,0.9700045960672803
0,-2042.01,-931.0,-1592.93,-1698.83,0.975004619758348
0,-2043.3,-938.07,-1599.11,-1703.08,0.9800046434494156
0,-2035.18,-921.09,-1595.01,-1693.91,0.9850046671404833
0,-2046.0,-921.19,-1591.36,-1699.16,0.990004690831551
0,-2027.38,-904.73,-1575.63,-1681.34,0.9950047145226257
0,-2046.3,-933.16,-1598.04,-1705.67,1.0000047382136934
0,-2054.44,-923.26,-1592.82,-1697.71,1.005004761904761
0,-2062.3,-944.41,-1606.24,-1719.14,1.0100047855958287
0,-2065.74,-955.23,-1619.6,-1725.18,1.0150048092868964
0,-2060.45,-960.96,-1625.35,-1728.8,1.020004832977964
0,-2074.04,-968.63,-1627.57,-1735.6,1.0250048566690317
0,-2067.74,-952.85,-1614.27,-1718.33,1.0300048803600994
0,-2036.81,-944.62,-1605.36,-1707.41,1.035004904051167
0,-2046.77,-960.56,-1612.88,-1721.74,1.0400049277422418
0,-2073.52,-935.06,-1601.91,-1708.05,1.0450049514333095
0,-2096.27,-947.09,-1621.02,-1721.08,1.0500049751243772
0,-2064.26,-936.89,-1613.67,-1710.78,1.0550049988154448
0,-2076.76,-954.39,-1620.14,-1719.8,1.0600050225065125
0,-2044.43,-931.74,-1592.87,-1701.95,1.0650050461975802
0,-2079.1,-957.88,-1620.0,-1715.27,1.0700050698886479
0,-2056.36,-938.83,-1607.36,-1706.56,1.0750050935797155
0,-2040.29,-938.8,-1595.56,-1698.45,1.0800051172707832
0,-2050.34,-939.18,-1606.8,-1696.73,1.085005140961858
0,-2063.09,-953.75,-1613.92,-1706.51,1.0900051646529256
0,-2067.4,-945.24,-1612.54,-1712.85,1.0950051883439933
0,-2052.99,-941.65,-1611.1,-1716.3,1.100005212035061
0,-2058.06,-945.5,-1614.15,-1717.84,1.1050052357261286
0,-2056.82,-932.23,-1595.15,-1705.94,1.1100052594171963
0,-2050.73,-926.85,-1598.6,-1704.54,1.115005283108264
0,-2068.48,-936.54,-1605.61,-1713.35,1.1200053067993316
0,-2068.83,-951.31,-1617.66,-1732.46,1.1250053304903993
0,-2050.63,-945.02,-1607.65,-1716.33,1.130005354181474
0,-2060.57,-945.51,-1613.63,-1721.87,1.1350053778725417
0,-2059.17,-923.36,-1596.4,-1714.59,1.1400054015636094
0,-2064.48,-925.11,-1602.82,-1717.5,1.145005425254677
0,-2053.43,-928.11,-1594.13,-1707.55,1.1500054489457447
0,-2062.8,-928.02,-1604.78,-1717.71,1.1550054726368124
0,-2055.86,-940.74,-1610.3,-1719.57,1.16000549632788
0,-2061.97,-943.31,-1609.19,-1717.59,1.1650055200189477
0,-2076.83,-948.21,-1612.5,-1727.86,1.1700055437100154
0,-2064.08,-940.01,-1599.89,-1707.2,1.1750055674010902
0,-2064.22,-947.25,-1610.16,-1717.31,1.1800055910921579
0,-2059.06,-937.79,-1608.19,-1713.69,1.1850056147832255
0,-2049.27,-934.17,-1604.36,-1713.57,1.1900056384742932
0,-2039.86,-931.55,-1592.16,-1701.84,1.1950056621653609
0,-2048.05,-928.26,-1596.99,-1698.63,1.2000056858564285
0,-2048.58,-928.94,-1596.11,-1700.57,1.2050057095474962
0,-2070.49,-946.81,-1614.95,-1717.11,1.2100057332385639
0,-2058.74,-944.61,-1607.6,-1716.11,1.2150057569296315
0,-2062.31,-942.49,-1610.6,-1722.36,1.2200057806207063
0,-2032.21,-928.64,-1594.93,-1707.6,1.225005804311774
0,-2035.81,-927.4,-1590.22,-1709.73,1.2300058280028416
0,-2025.39,-910.99,-1582.44,-1690.64,1.2350058516939093
0,-2035.23,-913.6,-1588.37,-1695.08,1.240005875384977
0,-2002.09,-885.62,-1561.41,-1680.23,1.2450058990760446
0,-1994.26,-879.0,-1547.75,-1669.99,1.2500059227671123
0,-2009.49,-888.4,-1563.71,-1688.74,1.25500594645818
0,-2007.86,-883.79,-1557.89,-1683.58,1.2600059701492476
0,-2001.06,-873.42,-1547.73,-1673.7,1.2650059938403224
0,-2007.51,-882.18,-1554.43,-1683.87,1.27000601753139
0,-2017.87,-892.25,-1565.06,-1687.2,1.2750060412224578
0,-2035.82,-916.6,-1585.39,-1707.39,1.2800060649135254
0,-2035.81,-916.58,-1593.42,-1706.78,1.285006088604593
0,-2032.11,-918.15,-1590.92,-1704.14,1.2900061122956608
0,-2024.82,-916.48,-1587.94,-1699.74,1.2950061359867284
0,-2033.63,-921.3,-1586.23,-1698.08,1.300006159677796
0,-2046.12,-916.13,-1582.22,-1699.55,1.3050061833688638
0,-2022.11,-909.12,-1571.81,-1686.05,1.3100062070599385
0,-2046.97,-936.98,-1591.04,-1710.94,1.3150062307510062
0,-2042.52,-930.61,-1595.77,-1708.17,1.3200062544420739
0,-2041.12,-924.14,-1591.89,-1703.88,1.3250062781331415
0,-2041.94,-935.31,-1595.84,-1706.94,1.3300063018242092
0,-2034.75,-935.65,-1598.71,-1704.25,1.3350063255152769
0,-2066.01,-940.26,-1607.24,-1704.2,1.3400063492063445
0,-2049.23,-924.34,-1603.79,-1701.02,1.3450063728974122
0,-2066.01,-935.84,-1622.48,-1718.62,1.3500063965884799
0,-2074.4,-950.19,-1620.27,-1725.1,1.3550064202795546
0,-2070.11,-950.01,-1616.4,-1718.41,1.3600064439706223
0,-2050.52,-948.97,-1610.72,-1715.87,1.36500646766169
0,-2065.23,-950.0,-1610.56,-1718.36,1.3700064913527576
0,-2053.28,-937.81,-1601.54,-1706.42,1.3750065150438253
0,-2072.19,-955.43,-1622.15,-1721.36,1.380006538734893
0,-2051.54,-940.47,-1609.6,-1704.16,1.3850065624259607
0,-2055.84,-938.23,-1604.84,-1705.36,1.3900065861170283
0,-2050.05,-937.22,-1604.93,-1704.69,1.395006609808096
0,-2060.24,-939.68,-1606.5,-1714.78,1.4000066334991708
0,-2040.33,-936.15,-1605.95,-1714.22,1.4050066571902384
0,-2067.88,-941.03,-1613.27,-1725.2,1.410006680881306
0,-2064.22,-940.15,-1610.92,-1715.86,1.4150067045723738
0,-2036.53,-931.69,-1602.0,-1702.68,1.4200067282634414
0,-2032.92,-930.13,-1596.71,-1706.96,1.425006751954509
0,-2081.6,-951.43,-1622.12,-1732.2,1.4300067756455768
0,-2037.25,-935.29,-1603.31,-1720.79,1.4350067993366444
0,-2042.4,-936.04,-1596.65,-1716.67,1.440006823027712
0,-2045.57,-943.61,-1612.69,-1730.01,1.4450068467187869
0,-2038.31,-928.5,-1601.21,-1716.19,1.4500068704098545
0,-2050.44,-926.44,-1596.1,-1714.29,1.4550068941009222
0,-2046.21,-928.92,-1603.11,-1714.5,1.4600069177919899
0,-2021.55,-907.33,-1581.8,-1696.6,1.4650069414830575
0,-2012.37,-903.09,-1570.26,-1690.78,1.4700069651741252
0,-2013.84,-914.69,-1584.58,-1696.55,1.4750069888651929
0,-2041.1,-909.0,-1581.69,-1697.67,1.4800070125562605
0,-2011.65,-896.81,-1563.65,-1691.06,1.4850070362473282
0,-2039.46,-912.88,-1596.6,-1713.9,1.4900070599383959
0,-1994.42,-875.35,-1548.56,-1674.87,1.4950070836294707
0,-2039.31,-914.36,-1593.06,-1711.27,1.5000071073205383
0,-2008.36,-890.26,-1568.21,-1695.87,1.505007131011606
0,-1984.53,-869.96,-1542.76,-1671.8,1.5100071547026737
0,-1956.29,-843.97,-1516.52,-1648.75,1.5150071783937413
0,-2005.54,-878.82,-1546.93,-1684.33,1.520007202084809
0,-2003.62,-888.36,-1558.36,-1691.47,1.5250072257758767
0,-2017.97,-894.1,-1568.59,-1697.58,1.5300072494669443
0,-1999.46,-886.26,-1556.2,-1689.08,1.535007273158012
0,-2017.74,-896.65,-1572.49,-1699.7,1.5400072968490868
0,-2013.19,-894.01,-1567.27,-1687.66,1.5450073205401544
0,-2009.64,-900.47,-1568.09,-1691.86,1.550007344231222
0,-2051.76,-934.18,-1603.24,-1722.5,1.5550073679222898
0,-2062.47,-939.29,-1603.53,-1714.31,1.5600073916133574
0,-2021.26,-914.62,-1581.1,-1685.95,1.565007415304425
0,-2017.62,-921.42,-1586.79,-1695.81,1.5700074389954928
0,-2050.12,-925.89,-1586.88,-1707.42,1.5750074626865604
0,-2061.49,-937.73,-1603.26,-1711.2,1.5800074863776281
0,-2055.57,-946.56,-1610.95,-1725.0,1.5850075100687029
0,-2027.26,-938.58,-1597.95,-1710.8,1.5900075337597706
0,-2055.84,-942.34,-1608.24,-1722.58,1.5950075574508382
0,-2056.9,-935.8,-1608.24,-1714.02,1.6000075811419059
0,-2031.81,-918.0,-1586.19,-1694.49,1.6050076048329736
0,-2065.47,-948.3,-1616.66,-1728.99,1.6100076285240412
0,-2041.83,-929.86,-1593.27,-1703.1,1.615007652215109
0,-2056.74,-937.1,-1600.0,-1708.01,1.6200076759061766
0,-2058.27,-947.49,-1614.11,-1720.5,1.6250076995972442
0,-2048.94,-938.06,-1598.32,-1702.78,1.630007723288319
0,-2045.5,-932.04,-1595.13,-1698.65,1.6350077469793867
0,-2053.31,-931.27,-1596.58,-1695.29,1.6400077706704543
0,-2039.96,-931.02,-1596.06,-1695.74,1.645007794361522
0,-2040.4,-921.63,-1588.86,-1683.02,1.6500078180525897
0,-2084.05,-959.24,-1626.7,-1722.15,1.6550078417436573
0,-2056.11,-938.92,-1608.36,-1705.69,1.660007865434725
0,-2055.42,-938.15,-1599.79,-1701.22,1.6650078891257927
0,-2066.3,-938.28,-1605.69,-1709.52,1.6700079128168603
0,-2086.19,-963.42,-1630.7,-1734.76,1.6750079365079351
0,-2071.87,-950.36,-1616.14,-1725.57,1.6800079601990028
0,-2069.42,-965.26,-1632.81,-1740.74,1.6850079838900704
0,-2056.55,-945.04,-1613.76,-1716.61,1.6900080075811381
0,-2063.83,-945.63,-1613.17,-1718.28,1.6950080312722058
0,-2081.69,-956.64,-1627.77,-1734.76,1.7000080549632735
0,-2046.89,-927.41,-1600.64,-1700.13,1.7050080786543411
0,-2040.51,-928.89,-1603.82,-1707.28,1.7100081023454088
0,-2062.3,-946.48,-1606.31,-1717.15,1.7150081260364765
0,-2065.3,-953.62,-1620.98,-1728.39,1.7200081497275512
0,-2059.83,-937.74,-1604.61,-1710.49,1.725008173418619
0,-2035.02,-930.82,-1598.26,-1709.78,1.7300081971096866
0,-2098.8,-961.39,-1634.16,-1739.2,1.7350082208007542
0,-2105.07,-957.71,-1622.86,-1730.02,1.740008244491822
0,-2012.81,-916.82,-1575.32,-1685.58,1.7450082681828896
0,-2066.91,-956.74,-1624.01,-1725.65,1.7500082918739572
0,-2069.85,-947.35,-1618.08,-1720.18,1.755008315565025
0,-2067.02,-949.92,-1615.94,-1723.36,1.7600083392560926
0,-2078.4,-956.15,-1627.37,-1729.17,1.7650083629471673
0,-2025.05,-915.74,-1587.15,-1692.16,1.770008386638235
0,-2048.12,-938.61,-1609.22,-1714.56,1.7750084103293027
0,-2064.54,-951.38,-1613.81,-1727.54,1.7800084340203703
0,-2079.52,-950.34,-1621.28,-1734.23,1.785008457711438
0,-2066.54,-949.26,-1617.88,-1730.42,1.7900084814025057
0,-2086.95,-966.94,-1633.7,-1746.34,1.7950085050935733
0,-2039.12,-938.14,-1610.62,-1720.4,1.800008528784641
0,-2067.61,-953.78,-1621.7,-1737.07,1.8050085524757087
0,-2039.53,-941.42,-1611.96,-1718.37,1.8100085761667835
0,-2063.0,-947.14,-1619.58,-1727.26,1.8150085998578511
0,-2053.24,-936.36,-1603.78,-1715.62,1.8200086235489188
0,-2022.94,-911.21,-1577.56,-1689.31,1.8250086472399865
0,-2052.1,-930.67,-1593.18,-1699.39,1.8300086709310541
0,-2076.78,-951.4,-1623.49,-1728.42,1.8350086946221218
0,-2070.91,-953.55,-1628.02,-1732.68,1.8400087183131895
0,-2038.5,-926.35,-1594.9,-1695.71,1.8450087420042571
0,-2075.46,-950.98,-1623.35,-1730.77,1.8500087656953248
0,-2066.94,-941.79,-1611.09,-1715.88,1.8550087893863996
0,-2040.68,-917.03,-1585.05,-1690.95,1.8600088130774672
0,-2039.2,-928.04,-1593.82,-1703.32,1.865008836768535
0,-2053.55,-937.29,-1610.05,-1722.99,1.8700088604596026
0,-2047.07,-925.05,-1599.34,-1709.45,1.8750088841506702
0,-2057.09,-934.3,-1604.24,-1717.72,1.880008907841738
0,-2020.17,-925.21,-1594.19,-1700.21,1.8850089315328056
0,-2084.83,-938.23,-1605.16,-1708.45,1.8900089552238732
0,-2074.01,-955.39,-1621.67,-1723.91,1.895008978914941
0,-2088.12,-954.8,-1621.66,-1719.24,1.9000090026060157
0,-2040.56,-930.3,-1588.7,-1702.31,1.9050090262970834
0,-1994.65,-907.75,-1566.8,-1678.7,1.910009049988151
0,-2048.6,-936.38,-1596.01,-1706.48,1.9150090736792187
0,-2027.11,-922.96,-1588.17,-1697.59,1.9200090973702864
0,-2037.25,-914.48,-1580.96,-1692.85,1.925009121061354
0,-2006.04,-907.67,-1576.31,-1696.49,1.9300091447524217
0,-2041.11,-918.95,-1587.14,-1706.82,1.9350091684434894
0,-2020.81,-917.03,-1580.97,-1703.34,1.940009192134557
0,-2034.2,-930.52,-1595.91,-1708.44,1.9450092158256318
0,-2048.46,-928.94,-1600.58,-1703.83,1.9500092395166995
0,-2064.13,-928.01,-1597.17,-1706.22,1.9550092632077671
0,-2067.99,-943.17,-1612.5,-1715.07,1.9600092868988348
0,-2053.64,-939.18,-1608.82,-1714.16,1.9650093105899025
0,-2046.39,-915.91,-1589.14,-1695.74,1.9700093342809701
0,-2044.6,-927.36,-1598.72,-1713.12,1.9750093579720378
0,-2029.13,-926.35,-1596.19,-1713.96,1.9800093816631055
0,-2053.67,-937.23,-1614.28,-1727.84,1.9850094053541731
0,-2054.48,-942.31,-1611.48,-1718.65,1.990009429045248
0,-2030.7,-913.51,-1583.81,-1689.87,1.9950094527363156
0,-2070.28,-934.79,-1602.68,-1712.68,2.0000094764273832
0,-2028.63,-914.35,-1586.71,-1690.74,2.005009500118451
0,-2073.69,-934.74,-1607.79,-1701.95,2.0100095238095186
0,-2041.1,-925.59,-1590.68,-1689.52,2.0150095475005863
0,-2036.41,-940.42,-1600.3,-1706.97,2.020009571191654
0,-2066.79,-937.71,-1602.82,-1707.41,2.0250095948827216
0,-2069.99,-942.07,-1616.05,-1711.2,2.0300096185737893
0,-2065.93,-941.82,-1612.05,-1704.25,2.035009642264864
0,-2066.45,-934.14,-1601.44,-1694.0,2.0400096659559317
0,-2060.99,-934.38,-1606.4,-1692.44,2.0450096896469994
0,-2047.64,-936.13,-1606.75,-1700.2,2.050009713338067
0,-2064.47,-946.72,-1612.13,-1711.03,2.0550097370291347
0,-2050.01,-947.31,-1611.71,-1706.69,2.0600097607202024
0,-2042.16,-938.63,-1595.27,-1702.04,2.06500978441127
0,-2045.74,-926.1,-1586.51,-1699.93,2.0700098081023377
0,-2047.85,-920.15,-1578.6,-1693.26,2.0750098317934054
0,-2063.25,-940.43,-1606.6,-1719.22,2.08000985548448
0,-2049.52,-913.72,-1589.45,-1700.38,2.085009879175548
0,-2063.64,-927.1,-1600.01,-1714.13,2.0900099028666155
0,-2059.1,-936.16,-1604.19,-1724.8,2.095009926557683
0,-2018.13,-936.02,-1590.47,-1700.44,2.100009950248751
0,-2002.56,-911.29,-1573.97,-1683.68,2.1050099739398185
0,-2036.81,-924.98,-1593.87,-1698.85,2.110009997630886
0,-2064.07,-943.23,-1610.66,-1714.84,2.115010021321954
0,-2004.23,-908.64,-1570.89,-1672.16,2.1200100450130215
0,-2025.03,-912.01,-1576.87,-1682.51,2.1250100687040963
0,-2063.43,-922.37,-1595.91,-1712.24,2.130010092395164
0,-2023.24,-916.75,-1586.19,-1703.14,2.1350101160862316
0,-2060.84,-933.72,-1601.94,-1714.41,2.1400101397772993
0,-2013.83,-910.63,-1574.54,-1688.54,2.145010163468367
0,-2034.55,-903.85,-1576.4,-1689.45,2.1500101871594346
0,-2050.04,-922.98,-1590.75,-1705.88,2.1550102108505023
0,-2046.7,-932.47,-1601.41,-1717.3,2.16001023454157
0,-2035.15,-922.86,-1595.06,-1716.8,2.1650102582326376
0,-2040.2,-929.83,-1596.94,-1715.6,2.1700102819237124
0,-2055.61,-924.27,-1598.77,-1712.86,2.17501030561478
0,-2037.15,-913.52,-1587.5,-1689.99,2.1800103293058477
0,-2049.01,-919.16,-1584.63,-1691.43,2.1850103529969154
0,-2029.08,-908.29,-1578.97,-1689.46,2.190010376687983
0,-2044.73,-928.47,-1596.17,-1709.63,2.1950104003790507
0,-2031.68,-918.52,-1593.51,-1714.2,2.2000104240701184
0,-2016.8,-916.51,-1581.58,-1701.59,2.205010447761186
0,-2035.92,-915.4,-1585.15,-1700.96,2.2100104714522537
0,-2064.1,-935.32,-1600.76,-1722.54,2.2150104951433285
0,-2045.65,-935.86,-1608.69,-1725.38,2.220010518834396
0,-2050.77,-936.67,-1604.36,-1717.15,2.225010542525464
0,-2059.6,-930.04,-1604.69,-1718.68,2.2300105662165315
0,-2060.79,-927.08,-1597.47,-1717.06,2.235010589907599
0,-2032.76,-915.17,-1577.4,-1700.28,2.240010613598667
0,-2035.08,-909.24,-1579.67,-1697.25,2.2450106372897345
0,-2043.46,-940.96,-1613.97,-1723.21,2.250010660980802
0,-2024.69,-912.88,-1582.84,-1690.41,2.25501068467187
0,-2071.12,-926.04,-1595.93,-1706.04,2.2600107083629446
0,-2066.91,-932.67,-1605.16,-1718.82,2.2650107320540123
0,-2006.16,-902.72,-1573.5,-1702.38,2.27001075574508
0,-2045.01,-916.54,-1596.26,-1726.81,2.2750107794361476
0,-2018.26,-895.26,-1573.56,-1708.09,2.2800108031272153
0,-2013.15,-894.48,-1565.99,-1700.85,2.285010826818283
0,-2007.39,-875.0,-1547.2,-1685.19,2.2900108505093506
0,-2022.26,-889.21,-1566.57,-1691.96,2.2950108742004183
0,-1996.51,-881.31,-1558.83,-1681.92,2.300010897891486
0,-1985.5,-864.04,-1537.3,-1666.92,2.3050109215825607
0,-1988.14,-868.51,-1541.48,-1667.44,2.3100109452736284
0,-1991.73,-889.27,-1560.17,-1685.36,2.315010968964696
0,-1966.36,-887.72,-1562.39,-1694.94,2.3200109926557637
0,-2035.18,-890.72,-1569.68,-1705.37,2.3250110163468314
0,-2023.09,-906.08,-1574.56,-1718.9,2.330011040037899
0,-2004.83,-890.04,-1562.69,-1699.4,2.3350110637289667
0,-2013.12,-897.68,-1567.95,-1696.2,2.3400110874200344
0,-2035.31,-916.63,-1580.5,-1701.59,2.345011111111102
0,-2006.91,-891.31,-1555.68,-1671.07,2.350011134802177
0,-2038.9,-915.1,-1582.56,-1691.89,2.3550111584932445
0,-2009.5,-904.95,-1561.54,-1679.48,2.360011182184312
0,-2034.3,-924.12,-1585.87,-1700.09,2.36501120587538
0,-2032.88,-915.66,-1578.22,-1693.46,2.3700112295664475
0,-2019.93,-913.38,-1571.66,-1683.45,2.375011253257515
0,-2052.68,-932.08,-1592.84,-1700.56,2.380011276948583
0,-2033.13,-917.93,-1575.76,-1684.07,2.3850113006396505
0,-2047.51,-936.23,-1601.52,-1708.3,2.390011324330718
0,-2048.4,-938.98,-1610.56,-1716.64,2.395011348021793
0,-2062.83,-948.27,-1617.1,-1727.71,2.4000113717128606
0,-2041.08,-941.9,-1613.46,-1717.43,2.4050113954039283
0,-2063.98,-937.26,-1605.75,-1713.14,2.410011419094996
0,-2027.93,-931.34,-1593.48,-1703.99,2.4150114427860636
0,-2050.19,-938.84,-1601.64,-1709.77,2.4200114664771313
0,-2065.66,-946.76,-1610.51,-1721.58,2.425011490168199
0,-2055.55,-944.02,-1609.16,-1716.85,2.4300115138592666
0,-2055.15,-935.13,-1607.17,-1717.16,2.4350115375503343
0,-2057.07,-948.09,-1618.89,-1729.98,2.440011561241409
0,-2061.51,-955.55,-1621.81,-1734.04,2.4450115849324767
0,-2102.2,-948.44,-1620.54,-1724.74,2.4500116086235444
0,-2103.85,-950.33,-1619.08,-1722.35,2.455011632314612
0,-2055.62,-934.86,-1602.09,-1703.68,2.4600116560056797
0,-2047.89,-943.97,-1603.73,-1701.52,2.4650116796967474
0,-2044.89,-929.91,-1604.16,-1696.5,2.470011703387815
0,-2066.62,-938.72,-1602.51,-1699.06,2.4750117270788827
0,-2068.79,-941.44,-1607.75,-1712.15,2.4800117507699504
0,-2079.91,-951.28,-1615.63,-1723.12,2.485011774461025
0,-2056.33,-936.65,-1601.84,-1708.18,2.490011798152093
0,-2042.69,-928.55,-1596.01,-1695.79,2.4950118218431605
0,-2026.45,-923.15,-1588.94,-1686.5,2.500011845534228
0,-2037.86,-911.82,-1576.84,-1681.62,2.505011869225296
0,-2013.22,-924.72,-1585.56,-1689.12,2.5100118929163635
0,-2041.3,-942.75,-1611.86,-1720.03,2.515011916607431
0,-2025.03,-910.88,-1586.65,-1697.6,2.520011940298499
0,-2047.48,-918.27,-1588.02,-1699.59,2.5250119639895665
0,-2050.58,-930.67,-1591.09,-1702.71,2.5300119876806413
0,-2058.28,-945.41,-1604.28,-1705.12,2.535012011371709
0,-2061.74,-941.66,-1599.47,-1705.02,2.5400120350627766
0,-2053.35,-922.15,-1592.73,-1692.04,2.5450120587538443
0,-2034.43,-922.9,-1581.63,-1690.3,2.550012082444912
0,-2037.49,-935.68,-1597.76,-1710.01,2.5550121061359796
0,-2092.03,-951.41,-1616.06,-1738.53,2.5600121298270473
0,-2031.98,-932.7,-1592.35,-1715.27,2.565012153518115
0,-2006.6,-934.52,-1604.04,-1712.7,2.5700121772091826
0,-2051.23,-935.81,-1593.59,-1704.13,2.5750122009002574
0,-2047.23,-935.94,-1598.2,-1698.69,2.580012224591325
0,-2081.14,-933.38,-1599.05,-1702.31,2.5850122482823927
0,-2075.64,-929.7,-1597.61,-1698.0,2.5900122719734604
0,-2045.27,-922.44,-1593.08,-1698.45,2.595012295664528
0,-2049.72,-927.28,-1593.76,-1703.25,2.6000123193555957
0,-2069.83,-944.17,-1620.32,-1736.55,2.6050123430466634
0,-2054.15,-923.5,-1596.56,-1717.61,2.610012366737731
0,-2037.56,-938.01,-1606.08,-1720.19,2.6150123904287987
0,-2027.74,-923.22,-1585.13,-1695.57,2.6200124141198735
0,-2027.83,-925.42,-1588.29,-1697.96,2.625012437810941
0,-2043.89,-930.43,-1599.04,-1696.94,2.630012461502009
0,-2035.24,-930.44,-1588.88,-1695.3,2.6350124851930765
0,-2054.7,-921.14,-1591.42,-1686.94,2.640012508884144
0,-2088.83,-935.78,-1610.76,-1717.06,2.645012532575212
0,-2070.42,-950.01,-1620.21,-1736.33,2.6500125562662795
0,-2033.7,-943.09,-1616.86,-1739.27,2.655012579957347
0,-2061.44,-954.64,-1622.93,-1744.15,2.660012603648415
0,-2049.41,-948.92,-1617.93,-1727.34,2.6650126273394896
0,-2067.96,-950.17,-1618.04,-1713.25,2.6700126510305573
0,-2044.24,-936.73,-1604.52,-1697.8,2.675012674721625
0,-2032.03,-925.16,-1593.46,-1685.77,2.6800126984126926
0,-2064.83,-952.58,-1616.35,-1710.51,2.6850127221037603
0,-2029.88,-927.81,-1585.77,-1689.43,2.690012745794828
0,-2044.91,-931.65,-1600.1,-1704.05,2.6950127694858956
0,-2062.0,-936.62,-1608.44,-1713.7,2.7000127931769633
0,-2044.18,-930.37,-1597.94,-1703.61,2.705012816868031
0,-2053.82,-933.23,-1599.22,-1711.2,2.7100128405591057
0,-2050.55,-926.72,-1591.33,-1708.38,2.7150128642501734
0,-2021.02,-921.56,-1588.28,-1703.01,2.720012887941241
0,-2064.76,-926.49,-1590.88,-1708.8,2.7250129116323087
0,-2055.61,-925.09,-1595.3,-1710.04,2.7300129353233764
0,-2041.34,-938.19,-1610.44,-1720.99,2.735012959014444
0,-2052.45,-942.66,-1613.29,-1724.78,2.7400129827055117
0,-2032.8,-932.04,-1594.66,-1715.51,2.7450130063965794
0,-2037.15,-927.5,-1592.25,-1711.27,2.750013030087647
0,-2054.59,-930.8,-1601.26,-1712.39,2.755013053778722
0,-2076.4,-947.26,-1618.46,-1722.22,2.7600130774697895
0,-2045.21,-935.11,-1602.79,-1710.49,2.765013101160857
0,-2041.68,-943.9,-1610.6,-1716.51,2.770013124851925
0,-2070.75,-945.29,-1614.53,-1726.09,2.7750131485429925
0,-2054.57,-943.28,-1614.73,-1720.95,2.78001317223406
0,-2043.01,-943.46,-1617.32,-1725.47,2.785013195925128
0,-2084.11,-953.97,-1622.45,-1727.1,2.7900132196161955
0,-2071.66,-938.42,-1609.12,-1706.81,2.795013243307263
0,-2069.01,-934.72,-1599.66,-1692.0,2.800013266998338
0,-2060.28,-930.08,-1598.25,-1689.8,2.8050132906894056
0,-2063.96,-942.77,-1609.08,-1707.87,2.8100133143804733
0,-2065.25,-935.24,-1604.08,-1701.82,2.815013338071541
0,-2030.63,-915.22,-1590.17,-1692.94,2.8200133617626086
0,-2029.51,-920.78,-1591.69,-1693.19,2.8250133854536763
0,-2050.51,-916.95,-1586.39,-1693.24,2.830013409144744
0,-2068.7,-934.53,-1604.45,-1712.83,2.8350134328358116
0,-2033.97,-922.64,-1593.5,-1705.23,2.8400134565268793
0,-2059.23,-936.51,-1604.69,-1713.87,2.845013480217954
0,-2067.53,-919.39,-1588.31,-1693.72,2.8500135039090218
0,-2009.55,-914.09,-1582.43,-1688.69,2.8550135276000894
0,-2065.29,-929.9,-1606.07,-1706.76,2.860013551291157
0,-2056.65,-922.21,-1590.72,-1698.2,2.8650135749822248
0,-2042.48,-927.79,-1599.35,-1704.23,2.8700135986732924
0,-2034.1,-898.7,-1572.53,-1682.07,2.87501362236436
0,-2047.56,-939.99,-1600.72,-1713.15,2.8800136460554278
0,-2065.23,-959.0,-1624.13,-1736.36,2.8850136697464954
0,-2060.42,-949.8,-1614.83,-1726.99,2.89001369343757
0,-2049.36,-921.92,-1584.86,-1704.74,2.895013717128638
0,-2055.9,-931.77,-1599.21,-1718.19,2.9000137408197055
0,-2056.05,-923.3,-1590.93,-1710.42,2.905013764510773
0,-2027.87,-914.82,-1582.66,-1695.78,2.910013788201841
0,-2028.34,-920.78,-1588.34,-1693.11,2.9150138118929085
0,-2029.13,-922.86,-1584.35,-1692.87,2.920013835583976
0,-2039.35,-930.95,-1593.47,-1714.08,2.925013859275044
0,-2021.11,-909.55,-1567.64,-1689.18,2.9300138829661115
0,-2039.44,-916.14,-1588.1,-1703.88,2.9350139066571863
0,-2052.37,-928.55,-1599.8,-1715.04,2.940013930348254
0,-2014.33,-907.01,-1575.99,-1686.53,2.9450139540393216
0,-2008.67,-920.82,-1587.39,-1701.38,2.9500139777303893
0,-2050.24,-931.11,-1594.05,-1708.26,2.955014001421457
0,-2008.18,-910.17,-1576.43,-1689.24,2.9600140251125246
0,-2047.13,-911.18,-1571.34,-1685.27,2.9650140488035923
0,-2034.84,-914.69,-1583.69,-1695.2,2.97001407249466
0,-2036.68,-912.92,-1578.3,-1695.67,2.9750140961857277
0,-2007.54,-921.43,-1586.3,-1703.69,2.9800141198768024
0,-2047.47,-926.88,-1583.37,-1712.15,2.98501414356787
0,-2034.98,-940.41,-1610.16,-1726.08,2.9900141672589378
0,-2030.08,-937.82,-1610.62,-1712.46,2.9950141909500054
0,-2020.56,-919.48,-1599.6,-1703.04,3.000014214641073
0,-2036.04,-921.2,-1597.5,-1699.22,3.0050142383321408
0,-2049.45,-930.55,-1594.29,-1692.51,3.0100142620232084
0,-2046.86,-927.26,-1588.03,-1687.52,3.015014285714276
0,-2029.85,-920.79,-1582.44,-1691.24,3.0200143094053438
0,-2074.16,-934.54,-1601.95,-1714.66,3.0250143330964185
0,-2058.26,-948.21,-1621.55,-1734.52,3.030014356787486
0,-2062.5,-920.92,-1592.11,-1710.41,3.035014380478554
0,-2035.49,-923.3,-1592.17,-1713.22,3.0400144041696215
0,-2092.57,-939.66,-1602.35,-1716.03,3.045014427860689
0,-2072.86,-936.95,-1607.44,-1709.19,3.050014451551757
0,-2049.74,-938.94,-1607.64,-1716.19,3.0550144752428245
0,-2073.25,-935.21,-1605.14,-1705.31,3.060014498933892
0,-2026.15,-931.8,-1600.21,-1704.7,3.06501452262496
0,-2075.63,-946.1,-1614.04,-1725.33,3.0700145463160347
0,-2017.85,-914.15,-1582.45,-1699.0,3.0750145700071023
0,-2032.48,-915.89,-1582.92,-1699.81,3.08001459369817
0,-2072.16,-935.98,-1597.82,-1713.7,3.0850146173892377
0,-2052.01,-939.46,-1611.55,-1718.1,3.0900146410803053
0,-2049.1,-951.79,-1613.47,-1725.22,3.095014664771373
0,-2051.58,-942.38,-1606.89,-1718.98,3.1000146884624407
0,-2061.04,-933.08,-1597.0,-1707.89,3.1050147121535083
0,-2014.84,-925.34,-1589.06,-1699.32,3.110014735844576
0,-2056.94,-928.22,-1592.35,-1706.3,3.1150147595356508
0,-2050.58,-926.03,-1593.02,-1704.89,3.1200147832267184
0,-2070.51,-934.03,-1600.61,-1714.7,3.125014806917786
0,-2003.37,-925.64,-1593.97,-1703.15,3.1300148306088538
0,-2068.46,-935.09,-1599.65,-1715.39,3.1350148542999214
0,-2046.88,-917.29,-1584.16,-1691.56,3.140014877990989
0,-2047.38,-923.16,-1590.56,-1697.85,3.1450149016820568
0,-2044.41,-919.91,-1591.56,-1699.79,3.1500149253731244
0,-2042.49,-919.97,-1590.66,-1705.32,3.155014949064192
0,-2063.64,-935.4,-1604.49,-1715.38,3.1600149727552598
0,-2066.34,-937.16,-1602.03,-1719.77,3.1650149964463345
0,-2026.55,-921.4,-1591.56,-1704.03,3.170015020137402
0,-2049.24,-922.21,-1594.68,-1708.83,3.17501504382847
0,-2045.82,-924.64,-1598.32,-1716.94,3.1800150675195376
0,-2074.37,-942.05,-1607.88,-1723.06,3.185015091210605
0,-2009.36,-931.25,-1595.28,-1699.61,3.190015114901673
0,-2036.57,-929.42,-1591.52,-1701.61,3.1950151385927406
0,-2035.61,-913.54,-1583.16,-1694.15,3.2000151622838082
0,-2052.77,-925.36,-1599.88,-1716.07,3.205015185974876
0,-2052.51,-919.22,-1591.46,-1711.33,3.2100152096659507
0,-2030.76,-919.15,-1588.0,-1715.33,3.2150152333570183
0,-2042.52,-925.09,-1595.06,-1713.41,3.220015257048086
0,-2040.23,-932.68,-1600.05,-1712.32,3.2250152807391537
0,-2049.83,-928.18,-1589.46,-1701.94,3.2300153044302213
0,-2016.7,-916.92,-1585.59,-1691.99,3.235015328121289
0,-2041.5,-928.32,-1595.47,-1705.6,3.2400153518123567
0,-2060.33,-935.84,-1601.89,-1715.41,3.2450153755034243
0,-2033.69,-917.29,-1584.98,-1697.54,3.250015399194492
0,-2026.94,-920.97,-1586.7,-1707.78,3.255015422885567
0,-2052.71,-945.94,-1612.94,-1734.67,3.2600154465766344
0,-2064.85,-940.38,-1612.02,-1726.84,3.265015470267702
0,-2066.69,-937.02,-1605.5,-1725.35,3.27001549395877
0,-2061.68,-932.46,-1603.75,-1717.67,3.2750155176498374
0,-2041.59,-922.93,-1587.16,-1701.33,3.280015541340905
0,-2037.1,-926.21,-1584.7,-1691.89,3.285015565031973
0,-2057.78,-929.68,-1598.17,-1698.95,3.2900155887230405
0,-2015.77,-923.62,-1587.83,-1684.89,3.295015612414108
0,-2049.92,-913.79,-1576.01,-1684.07,3.300015636105183
0,-2004.51,-919.19,-1585.38,-1700.56,3.3050156597962506
0,-2049.0,-931.18,-1597.98,-1711.93,3.3100156834873182
0,-2062.96,-942.21,-1607.5,-1725.08,3.315015707178386
0,-2042.42,-926.63,-1596.2,-1708.82,3.3200157308694536
0,-2035.0,-927.03,-1589.95,-1695.46,3.3250157545605212
0,-2057.12,-923.91,-1598.84,-1693.4,3.330015778251589
0,-2049.02,-926.55,-1594.17,-1701.5,3.3350158019426566
0,-2019.98,-911.85,-1581.24,-1690.98,3.3400158256337242
0,-2065.65,-926.82,-1594.18,-1705.17,3.345015849324799
0,-2056.38,-928.47,-1586.95,-1699.51,3.3500158730158667
0,-2050.02,-937.32,-1597.45,-1710.94,3.3550158967069343
0,-2040.59,-930.2,-1594.57,-1712.33,3.360015920398002
0,-2060.45,-931.13,-1600.05,-1722.12,3.3650159440890697
0,-2049.55,-919.9,-1593.3,-1716.62,3.3700159677801373
0,-2015.68,-921.03,-1588.11,-1708.28,3.375015991471205
0,-2045.23,-923.38,-1591.58,-1714.2,3.3800160151622727
0,-2025.93,-913.34,-1580.03,-1699.53,3.3850160388533403
0,-2046.88,-928.78,-1597.81,-1713.42,3.390016062544415
0,-2050.72,-923.17,-1591.9,-1711.07,3.395016086235483
0,-2034.03,-927.75,-1596.19,-1712.64,3.4000161099265505
0,-2034.39,-925.41,-1596.43,-1714.45,3.405016133617618
0,-2052.34,-909.9,-1595.63,-1700.91,3.410016157308686
0,-2041.51,-933.45,-1605.99,-1712.89,3.4150161809997535
0,-2036.48,-931.59,-1601.01,-1713.98,3.420016204690821
0,-2054.66,-924.11,-1599.4,-1708.13,3.425016228381889
0,-2058.17,-923.09,-1597.85,-1704.89,3.4300162520729565
0,-2037.48,-924.43,-1600.1,-1703.1,3.4350162757640312
0,-2057.39,-936.23,-1601.69,-1704.66,3.440016299455099
0,-2064.95,-941.08,-1610.95,-1711.55,3.4450163231461666
0,-2076.17,-946.72,-1614.8,-1723.98,3.4500163468372342
0,-2051.06,-924.91,-1595.04,-1711.15,3.455016370528302
0,-2057.89,-928.88,-1605.2,-1710.27,3.4600163942193696
0,-2049.92,-936.56,-1599.98,-1704.05,3.4650164179104372
0,-2060.38,-936.68,-1602.7,-1711.56,3.470016441601505
0,-2073.36,-945.85,-1614.91,-1720.58,3.4750164652925726
0,-2079.97,-950.27,-1613.88,-1726.05,3.4800164889836473
0,-2044.09,-938.38,-1611.64,-1705.94,3.485016512674715
0,-2050.59,-929.31,-1600.85,-1708.65,3.4900165363657827
0,-2031.41,-932.38,-1595.73,-1702.63,3.4950165600568504
0,-2045.76,-926.74,-1595.22,-1697.72,3.500016583747918
0,-2036.85,-920.64,-1590.69,-1697.94,3.5050166074389857
0,-2051.47,-927.44,-1591.66,-1695.97,3.5100166311300534
0,-2035.86,-925.32,-1598.91,-1698.76,3.515016654821121
0,-2064.11,-934.72,-1598.94,-1705.44,3.5200166785121887
0,-2072.32,-948.71,-1616.61,-1717.47,3.5250167022032635
0,-2058.61,-945.27,-1610.69,-1720.27,3.530016725894331
0,-2051.13,-946.52,-1612.67,-1712.7,3.535016749585399
0,-2036.33,-924.19,-1590.67,-1698.18,3.5400167732764665
0,-2038.4,-920.24,-1590.17,-1694.09,3.545016796967534
0,-2050.68,-931.22,-1596.43,-1703.95,3.550016820658602
0,-2046.56,-930.56,-1592.83,-1705.38,3.5550168443496695
0,-2039.57,-928.16,-1593.0,-1705.1,3.560016868040737
0,-2047.85,-934.89,-1606.63,-1714.85,3.565016891731805
0,-2027.72,-914.03,-1580.52,-1691.94,3.5700169154228796
0,-2014.76,-905.5,-1572.95,-1680.88,3.5750169391139472
0,-2034.85,-909.72,-1586.29,-1690.14,3.580016962805015
0,-2045.68,-924.43,-1592.96,-1688.02,3.5850169864960826
0,-2029.52,-936.75,-1599.51,-1701.28,3.5900170101871502
0,-2064.24,-946.29,-1608.53,-1710.95,3.595017033878218
0,-2064.4,-944.91,-1607.84,-1709.69,3.6000170575692856
0,-2034.03,-925.55,-1591.25,-1694.62,3.6050170812603533
0,-2041.66,-928.9,-1599.35,-1700.5,3.610017104951421
0,-2055.27,-929.09,-1593.26,-1703.63,3.6150171286424957
0,-2048.05,-931.97,-1595.9,-1703.15,3.6200171523335634
0,-2044.95,-929.88,-1597.71,-1698.58,3.625017176024631
0,-2043.78,-930.94,-1599.62,-1701.17,3.6300171997156987
0,-2027.56,-913.59,-1588.74,-1690.27,3.6350172234067664
0,-2025.85,-904.01,-1578.15,-1679.16,3.640017247097834
0,-2006.3,-921.89,-1586.36,-1691.86,3.6450172707889017
0,-2050.49,-931.54,-1596.67,-1699.56,3.6500172944799694
0,-2066.47,-932.49,-1597.11,-1709.06,3.655017318171037
0,-2050.39,-927.02,-1592.57,-1712.21,3.660017341862112
0,-2063.38,-927.16,-1593.06,-1714.36,3.6650173655531795
0,-2061.49,-938.08,-1605.04,-1722.1,3.670017389244247
0,-2044.65,-947.37,-1615.94,-1729.19,3.675017412935315
0,-2047.37,-933.54,-1600.03,-1707.85,3.6800174366263825
0,-2043.77,-935.71,-1601.48,-1713.79,3.68501746031745
0,-2042.81,-935.37,-1594.09,-1714.72,3.690017484008518
0,-2044.29,-917.77,-1581.87,-1708.4,3.6950175076995855
0,-2005.4,-899.83,-1569.43,-1693.82,3.700017531390653
0,-2007.7,-908.89,-1573.33,-1698.43,3.705017555081728
0,-2017.85,-892.67,-1561.01,-1690.35,3.7100175787727956
0,-1987.71,-889.37,-1554.7,-1685.14,3.7150176024638633
0,-1990.34,-893.84,-1561.89,-1687.54,3.720017626154931
0,-2019.36,-882.69,-1554.61,-1679.8,3.7250176498459986
0,-2006.53,-885.28,-1557.18,-1680.1,3.7300176735370663
0,-1995.21,-888.6,-1557.87,-1679.32,3.735017697228134
0,-2008.62,-888.09,-1564.64,-1693.12,3.7400177209192016
0,-2048.0,-920.83,-1590.87,-1716.53,3.7450177446102693
0,-2052.32,-917.43,-1587.83,-1717.53,3.750017768301344
0,-2033.01,-899.92,-1569.43,-1695.99,3.7550177919924117
0,-2023.87,-896.2,-1563.0,-1688.62,3.7600178156834794
0,-2042.8,-915.03,-1591.69,-1704.15,3.765017839374547
0,-2020.27,-913.86,-1584.77,-1694.58,3.7700178630656147
0,-2011.36,-912.94,-1584.83,-1696.91,3.7750178867566824
0,-2066.98,-925.84,-1597.23,-1706.88,3.78001791044775
0,-2032.09,-938.08,-1603.85,-1713.51,3.7850179341388177
0,-2063.91,-933.02,-1602.59,-1714.69,3.7900179578298854
0,-2065.8,-948.57,-1619.85,-1725.91,3.79501798152096
0,-2060.17,-940.88,-1612.22,-1722.14,3.800018005212028
0,-2074.83,-946.39,-1608.97,-1721.26,3.8050180289030955
0,-2051.99,-945.46,-1610.32,-1716.8,3.810018052594163
0,-2040.72,-934.11,-1600.36,-1702.8,3.815018076285231
0,-2044.85,-935.64,-1595.73,-1700.24,3.8200180999762985
0,-2065.07,-947.61,-1609.34,-1707.23,3.825018123667366
0,-2053.56,-949.63,-1613.48,-1720.95,3.830018147358434
0,-2078.74,-950.41,-1614.58,-1722.8,3.8350181710495015
0,-2069.42,-953.16,-1616.56,-1731.0,3.8400181947405763
0,-2055.91,-944.57,-1613.97,-1723.37,3.845018218431644
0,-2043.74,-936.3,-1597.51,-1709.31,3.8500182421227116
0,-2055.31,-937.72,-1602.68,-1707.91,3.8550182658137793
0,-2062.03,-944.97,-1617.68,-1719.3,3.860018289504847
0,-2046.99,-952.25,-1611.57,-1716.63,3.8650183131959146
0,-2023.24,-942.11,-1603.89,-1714.28,3.8700183368869823
0,-2075.19,-919.55,-1587.47,-1692.99,3.87501836057805
0,-2041.14,-940.43,-1608.21,-1710.58,3.8800183842691176
0,-2075.27,-948.99,-1620.13,-1721.91,3.8850184079601924
0,-2071.52,-933.62,-1603.1,-1712.02,3.89001843165126
0,-2054.42,-940.49,-1605.72,-1706.98,3.8950184553423277
0,-2038.67,-929.14,-1594.09,-1691.75,3.9000184790333954
0,-2068.94,-928.56,-1591.39,-1690.39,3.905018502724463
0,-2053.44,-927.49,-1588.98,-1694.45,3.9100185264155307
0,-2063.94,-929.38,-1601.45,-1700.8,3.9150185501065984
0,-2079.09,-934.72,-1601.25,-1710.2,3.920018573797666
0,-2054.69,-938.45,-1610.86,-1723.75,3.9250185974887337
0,-2057.99,-935.13,-1600.69,-1714.1,3.9300186211798085
0,-2055.68,-941.65,-1610.99,-1719.29,3.935018644870876
0,-2055.62,-941.89,-1612.83,-1715.92,3.940018668561944
0,-2051.56,-943.53,-1608.12,-1718.58,3.9450186922530115
0,-2042.87,-930.02,-1597.89,-1701.88,3.950018715944079
0,-2060.55,-937.79,-1605.88,-1715.28,3.955018739635147
0,-2054.84,-938.93,-1604.47,-1719.92,3.9600187633262145
0,-2065.64,-927.55,-1603.58,-1719.82,3.965018787017282
0,-2039.19,-933.82,-1606.1,-1728.35,3.97001881070835
0,-2041.92,-924.59,-1599.04,-1713.03,3.9750188343994246
0,-2051.13,-923.3,-1598.57,-1712.15,3.9800188580904923
0,-2045.89,-939.23,-1607.95,-1713.81,3.98501888178156
0,-2060.57,-946.49,-1615.71,-1715.71,3.9900189054726276
0,-2057.01,-930.2,-1599.68,-1708.16,3.9950189291636953
0,-2034.26,-925.8,-1583.75,-1690.02,4.000018952854763
0,-2042.8,-937.35,-1599.36,-1708.53,4.005018976545831
0,-2044.76,-932.1,-1595.84,-1706.77,4.010019000236898
0,-2045.11,-939.43,-1600.79,-1702.42,4.015019023927966
0,-2047.87,-946.06,-1604.2,-1710.81,4.020019047619041
0,-2043.22,-938.21,-1602.11,-1712.21,4.025019071310108
0,-2047.48,-933.99,-1598.51,-1709.51,4.030019095001176
0,-2069.82,-932.8,-1602.63,-1711.44,4.035019118692244
0,-2050.83,-927.6,-1602.29,-1712.72,4.040019142383311
0,-2030.75,-919.46,-1597.0,-1707.27,4.045019166074379
0,-2045.52,-927.64,-1601.1,-1705.28,4.050019189765447
0,-2037.08,-938.6,-1608.43,-1712.34,4.055019213456514
0,-2072.79,-946.24,-1618.22,-1721.21,4.060019237147582
0,-2025.59,-934.46,-1602.63,-1712.29,4.065019260838657
0,-2080.9,-936.12,-1602.57,-1715.5,4.0700192845297245
0,-2065.89,-941.97,-1608.33,-1725.46,4.075019308220792
0,-2083.53,-938.32,-1611.78,-1732.16,4.08001933191186
0,-2054.22,-929.13,-1602.1,-1723.42,4.0850193556029275
0,-2028.44,-927.2,-1600.25,-1716.22,4.090019379293995
0,-2060.3,-919.3,-1590.62,-1706.28,4.095019402985063
0,-2034.17,-910.45,-1586.32,-1697.56,4.1000194266761305
0,-2051.58,-930.36,-1600.82,-1711.31,4.105019450367198
0,-2070.77,-934.4,-1598.15,-1707.32,4.110019474058273
0,-2054.32,-926.35,-1590.57,-1697.39,4.115019497749341
0,-2043.86,-933.99,-1600.9,-1706.45,4.120019521440408
0,-2039.71,-939.68,-1601.79,-1708.38,4.125019545131476
0,-2072.01,-946.51,-1616.06,-1722.64,4.130019568822544
0,-2033.21,-922.57,-1596.37,-1707.23,4.135019592513611
0,-2028.1,-921.01,-1588.85,-1685.4,4.140019616204679
0,-2035.9,-942.29,-1601.99,-1707.66,4.145019639895747
0,-2035.0,-929.66,-1588.3,-1699.27,4.150019663586814
0,-2024.27,-923.18,-1588.06,-1696.04,4.155019687277889
0,-2073.78,-934.59,-1594.88,-1699.38,4.160019710968957
0,-2075.49,-933.53,-1597.01,-1702.49,4.165019734660024
0,-2063.08,-927.66,-1586.53,-1695.89,4.170019758351092
0,-2034.82,-920.32,-1584.03,-1693.49,4.17501978204216
0,-2045.4,-927.34,-1598.5,-1709.93,4.180019805733227
0,-2053.72,-935.6,-1600.73,-1715.41,4.185019829424295
0,-2030.27,-915.78,-1586.05,-1697.57,4.190019853115363
0,-2028.14,-919.9,-1583.98,-1704.22,4.19501987680643
0,-2041.67,-921.8,-1587.66,-1703.17,4.200019900497505
0,-2034.81,-915.63,-1582.01,-1698.67,4.205019924188573
0,-2022.34,-934.76,-1594.61,-1700.5,4.2100199478796405
0,-2035.06,-924.96,-1596.62,-1703.6,4.215019971570708
0,-2068.68,-943.97,-1611.94,-1715.54,4.220019995261776
0,-2025.58,-934.85,-1594.59,-1706.82,4.2250200189528435
0,-2041.2,-937.07,-1593.5,-1713.69,4.230020042643911
0,-2049.22,-927.32,-1593.95,-1705.3,4.235020066334979
0,-2039.09,-923.76,-1596.38,-1712.89,4.2400200900260465
0,-2037.02,-928.14,-1601.29,-1721.06,4.245020113717121
0,-2033.76,-922.31,-1598.39,-1715.5,4.250020137408189
0,-2026.7,-924.11,-1598.67,-1714.5,4.255020161099257
0,-2059.35,-936.12,-1607.73,-1730.73,4.260020184790324
0,-2050.2,-934.07,-1604.39,-1721.55,4.265020208481392
0,-2058.27,-927.58,-1588.16,-1705.1,4.27002023217246
0,-2025.05,-918.36,-1586.46,-1701.64,4.275020255863527
0,-2045.72,-922.85,-1591.87,-1708.39,4.280020279554595
0,-2068.84,-941.93,-1607.09,-1722.28,4.285020303245663
0,-2049.01,-942.88,-1603.95,-1714.61,4.290020326936737
0,-2068.17,-944.51,-1613.38,-1718.11,4.295020350627805
0,-2047.47,-929.71,-1602.92,-1705.81,4.300020374318873
0,-2067.63,-924.65,-1592.12,-1702.09,4.30502039800994
0,-2015.39,-924.29,-1595.22,-1702.13,4.310020421701008
0,-2061.52,-941.21,-1612.16,-1714.54,4.315020445392076
0,-2062.94,-937.2,-1606.01,-1709.37,4.320020469083143
0,-2048.9,-935.29,-1606.99,-1710.23,4.325020492774211
0,-2050.95,-944.43,-1613.37,-1716.3,4.330020516465279
0,-2068.47,-934.91,-1601.97,-1706.66,4.3350205401563535
0,-2063.85,-929.4,-1596.72,-1700.51,4.340020563847421
0,-2041.68,-935.8,-1605.8,-1711.06,4.345020587538489
0,-2069.79,-923.1,-1600.48,-1699.69,4.3500206112295565
0,-2046.31,-920.31,-1588.9,-1691.08,4.355020634920624
0,-2036.44,-924.3,-1598.64,-1693.86,4.360020658611692
0,-2034.55,-916.24,-1584.2,-1685.0,4.3650206823027595
0,-2036.41,-909.28,-1576.8,-1683.82,4.370020705993827
0,-2055.98,-921.91,-1588.16,-1691.12,4.375020729684895
0,-2045.99,-925.04,-1592.25,-1696.23,4.38002075337597
0,-2025.34,-928.59,-1599.12,-1696.93,4.385020777067037
0,-2024.39,-924.15,-1583.52,-1690.11,4.390020800758105
0,-2067.34,-930.77,-1595.26,-1699.97,4.395020824449173
0,-2047.21,-933.42,-1600.71,-1702.21,4.40002084814024
0,-2033.33,-928.32,-1595.78,-1699.64,4.405020871831308
0,-2042.26,-923.24,-1594.06,-1699.2,4.410020895522376
0,-2072.89,-936.64,-1611.41,-1718.81,4.415020919213443
0,-2055.86,-938.07,-1608.11,-1708.19,4.420020942904511
0,-2054.0,-942.38,-1608.43,-1709.52,4.425020966595586
0,-2076.13,-948.0,-1611.93,-1713.37,4.430020990286653
0,-2044.76,-932.04,-1597.99,-1696.15,4.435021013977721
0,-2021.19,-915.87,-1579.51,-1681.66,4.440021037668789
0,-2039.94,-924.61,-1590.23,-1703.06,4.445021061359856
0,-2052.31,-935.25,-1611.09,-1721.77,4.450021085050924
0,-2064.06,-940.71,-1612.04,-1721.31,4.455021108741992
0,-2063.87,-940.04,-1602.02,-1714.52,4.460021132433059
0,-2060.62,-934.73,-1597.88,-1708.58,4.465021156124127
0,-2045.32,-922.61,-1586.47,-1699.43,4.470021179815202
0,-2042.32,-928.66,-1601.77,-1707.83,4.4750212035062695
0,-2053.6,-932.56,-1601.79,-1710.65,4.480021227197337
0,-2027.8,-928.11,-1590.98,-1707.36,4.485021250888405
0,-2037.43,-920.88,-1594.79,-1704.3,4.4900212745794725
0,-2062.67,-925.92,-1597.78,-1709.94,4.49502129827054
0,-2048.95,-922.12,-1591.86,-1709.67,4.500021321961608
0,-2039.73,-923.28,-1591.85,-1712.18,4.5050213456526755
0,-2048.23,-920.27,-1597.03,-1709.34,4.510021369343743
0,-2047.45,-918.86,-1586.06,-1699.13,4.515021393034818
0,-2036.75,-926.66,-1602.1,-1708.91,4.520021416725886
0,-2049.23,-930.8,-1595.88,-1709.13,4.525021440416953
0,-2068.03,-917.0,-1587.77,-1701.25,4.530021464108021
0,-2027.33,-913.81,-1577.91,-1692.17,4.535021487799089
0,-2068.78,-937.68,-1600.16,-1719.16,4.540021511490156
0,-2042.26,-938.65,-1606.53,-1715.58,4.545021535181224
0,-2055.94,-927.24,-1591.25,-1695.79,4.550021558872292
0,-2037.74,-932.46,-1592.73,-1702.79,4.555021582563359
0,-2039.53,-929.08,-1600.21,-1705.99,4.560021606254434
0,-2031.04,-939.76,-1605.68,-1715.84,4.565021629945502
0,-2056.2,-933.39,-1611.19,-1719.62,4.570021653636569
0,-2067.64,-929.71,-1604.42,-1722.9,4.575021677327637
0,-2083.72,-946.44,-1618.36,-1726.7,4.580021701018705
0,-2048.38,-954.39,-1626.41,-1735.19,4.585021724709772
0,-2052.73,-936.89,-1608.7,-1716.51,4.59002174840084
0,-2045.02,-929.63,-1602.26,-1704.05,4.595021772091908
0,-2037.42,-935.82,-1604.38,-1711.77,4.600021795782975
0,-2049.29,-940.29,-1606.83,-1714.42,4.60502181947405
0,-2048.21,-944.73,-1613.86,-1716.21,4.610021843165118
0,-2044.31,-937.76,-1604.99,-1705.43,4.6150218668561855
0,-2058.84,-930.28,-1594.46,-1692.27,4.620021890547253
0,-2073.42,-934.46,-1597.55,-1699.24,4.625021914238321
0,-2018.72,-926.11,-1591.66,-1692.34,4.6300219379293885
0,-2068.12,-928.77,-1595.42,-1694.78,4.635021961620456
0,-2013.08,-920.67,-1584.96,-1694.9,4.640021985311524
0,-1996.69,-922.06,-1584.28,-1691.17,4.6450220090025915
0,-2037.58,-907.37,-1574.63,-1692.21,4.650022032693666
0,-2052.07,-908.51,-1578.6,-1690.73,4.655022056384734
0,-2068.21,-913.43,-1598.37,-1707.81,4.660022080075802
0,-1995.91,-908.62,-1582.53,-1695.67,4.665022103766869
0,-2006.6,-911.86,-1576.23,-1691.04,4.670022127457937
0,-2032.69,-939.46,-1600.73,-1721.18,4.675022151149005
0,-2027.96,-921.62,-1581.12,-1693.99,4.680022174840072
0,-2056.48,-921.45,-1583.31,-1692.99,4.68502219853114
0,-2048.2,-929.67,-1606.23,-1713.75,4.690022222222208
0,-2019.5,-919.2,-1591.28,-1701.59,4.695022245913282
0,-2051.6,-917.58,-1592.31,-1707.67,4.70002226960435
0,-2044.55,-924.2,-1593.44,-1701.56,4.705022293295418
0,-2046.43,-926.98,-1595.87,-1706.49,4.710022316986485
0,-2100.12,-939.63,-1613.2,-1728.27,4.715022340677553
0,-2056.2,-932.18,-1601.02,-1711.88,4.720022364368621
0,-2033.12,-930.58,-1598.44,-1704.46,4.725022388059688
0,-2027.08,-920.28,-1590.79,-1698.25,4.730022411750756
0,-2067.8,-914.42,-1588.93,-1699.54,4.735022435441824
0,-2032.17,-931.87,-1600.09,-1701.9,4.7400224591328985
0,-2080.5,-965.07,-1620.55,-1727.68,4.745022482823966
0,-2033.34,-942.31,-1610.34,-1709.49,4.750022506515034
0,-2027.92,-924.57,-1599.74,-1707.03,4.7550225302061015
0,-2063.17,-938.23,-1605.2,-1710.32,4.760022553897169
0,-2078.24,-948.13,-1607.18,-1717.46,4.765022577588237
0,-2024.8,-933.06,-1589.89,-1698.93,4.7700226012793046
0,-2034.17,-922.13,-1584.59,-1699.9,4.775022624970372
0,-2062.59,-935.84,-1602.35,-1711.41,4.78002264866144
0,-2062.67,-933.76,-1595.83,-1708.85,4.785022672352515
0,-2049.53,-929.47,-1594.8,-1704.83,4.790022696043582
0,-2036.35,-925.67,-1588.8,-1704.42,4.79502271973465
0,-2046.35,-934.72,-1607.27,-1715.96,4.800022743425718
0,-2032.35,-931.61,-1594.63,-1707.82,4.805022767116785
0,-2031.22,-929.94,-1589.36,-1704.39,4.810022790807853
0,-1998.83,-935.46,-1600.94,-1709.38,4.815022814498921
0,-2047.37,-937.11,-1602.47,-1709.31,4.820022838189988
0,-2071.34,-937.18,-1607.46,-1716.63,4.825022861881056
0,-2045.26,-929.69,-1590.93,-1707.77,4.830022885572124
0,-2059.3,-930.12,-1603.35,-1720.09,4.835022909263198
0,-2020.08,-901.75,-1567.24,-1684.66,4.840022932954266
0,-2042.74,-909.07,-1580.88,-1698.69,4.845022956645334
0,-2050.97,-919.3,-1584.52,-1703.49,4.8500229803364014
0,-2033.68,-924.74,-1595.38,-1708.85,4.855023004027469
0,-2043.99,-927.39,-1595.01,-1707.57,4.860023027718537
0,-2034.63,-921.47,-1585.93,-1703.16,4.8650230514096044
0,-2064.1,-943.74,-1611.03,-1720.78,4.870023075100672
0,-2046.14,-931.35,-1597.87,-1706.67,4.87502309879174
0,-2059.29,-952.08,-1623.91,-1723.27,4.880023122482815
0,-2044.68,-941.0,-1612.04,-1716.0,4.885023146173882
0,-2044.35,-929.42,-1594.36,-1704.7,4.89002316986495
0,-2047.5,-938.88,-1603.28,-1706.14,4.895023193556018
0,-2073.71,-928.95,-1600.51,-1700.29,4.900023217247085
0,-2033.47,-916.83,-1583.48,-1691.47,4.905023240938153
0,-2046.33,-912.57,-1577.8,-1695.14,4.910023264629221
0,-2052.68,-919.45,-1587.74,-1708.98,4.915023288320288
0,-2035.07,-919.02,-1583.57,-1706.27,4.920023312011356
0,-2034.36,-921.09,-1585.71,-1710.4,4.925023335702431
0,-2029.54,-914.18,-1585.52,-1708.12,4.930023359393498
0,-2030.98,-911.43,-1579.93,-1695.51,4.935023383084566
0,-2042.71,-935.83,-1603.81,-1712.19,4.940023406775634
0,-2038.43,-917.09,-1589.23,-1694.8,4.945023430466701
0,-2025.7,-919.33,-1579.39,-1689.56,4.950023454157769
0,-2060.25,-916.99,-1581.18,-1698.94,4.955023477848837
0,-2002.98,-919.47,-1586.73,-1703.49,4.960023501539904
0,-2030.75,-934.23,-1594.92,-1713.9,4.965023525230972
0,-2049.53,-931.57,-1600.35,-1713.7,4.970023548922047
0,-2060.22,-938.05,-1600.88,-1715.86,4.9750235726131145
0,-2050.06,-937.51,-1599.71,-1715.2,4.980023596304182
0,-2040.36,-920.79,-1579.92,-1693.9,4.98502361999525
0,-2012.16,-915.73,-1572.11,-1685.77,4.9900236436863175
0,-2044.65,-911.31,-1580.32,-1691.09,4.995023667377385
0,-2016.44,-920.04,-1580.17,-1696.76,5.000023691068453
0,-2032.65,-922.03,-1587.24,-1694.75,5.0050237147595205
0,-2046.29,-927.06,-1597.45,-1710.89,5.010023738450588
0,-2018.59,-932.51,-1600.24,-1704.18,5.015023762141663
0,-2052.1,-940.42,-1599.52,-1715.93,5.020023785832731
0,-2051.03,-939.0,-1602.37,-1718.12,5.025023809523798
0,-2045.76,-936.89,-1600.19,-1724.81,5.030023833214866
0,-2047.32,-932.74,-1601.36,-1719.91,5.035023856905934
0,-2062.05,-938.76,-1613.82,-1723.61,5.040023880597001
0,-2073.54,-950.77,-1617.77,-1730.1,5.045023904288069
0,-2085.96,-954.34,-1629.44,-1737.11,5.050023927979137
0,-2098.34,-958.35,-1632.11,-1738.61,5.055023951670204
0,-2091.17,-958.82,-1631.77,-1737.67,5.060023975361279
0,-2053.34,-929.9,-1596.49,-1712.99,5.065023999052347
0,-2055.79,-936.16,-1603.79,-1711.28,5.070024022743414
0,-2055.94,-950.8,-1612.08,-1727.06,5.075024046434482
0,-2043.1,-933.69,-1600.46,-1711.86,5.08002407012555
0,-2048.94,-923.16,-1592.67,-1703.84,5.085024093816617
0,-2039.85,-923.13,-1590.49,-1700.37,5.090024117507685
0,-2033.14,-927.06,-1593.04,-1697.85,5.095024141198753
0,-2042.33,-931.59,-1600.47,-1703.92,5.10002416488982
0,-2036.21,-915.62,-1583.96,-1687.78,5.105024188580895
0,-2042.42,-924.76,-1590.64,-1699.29,5.110024212271963
0,-2000.96,-919.04,-1588.88,-1697.97,5.1150242359630305
0,-2033.47,-918.45,-1588.68,-1703.63,5.120024259654098
0,-2047.02,-918.23,-1589.67,-1705.19,5.125024283345166
0,-2034.35,-904.91,-1572.16,-1688.68,5.1300243070362335
0,-2044.72,-914.22,-1580.09,-1695.26,5.135024330727301
0,-2003.89,-925.39,-1593.27,-1701.3,5.140024354418369
0,-2051.66,-932.8,-1597.78,-1712.2,5.1450243781094365
0,-2055.62,-925.99,-1592.97,-1705.04,5.150024401800511
0,-2059.11,-925.32,-1594.24,-1701.72,5.155024425491579
0,-2021.82,-928.46,-1598.58,-1706.6,5.160024449182647
0,-2072.36,-934.07,-1600.18,-1711.85,5.165024472873714
0,-2058.71,-933.17,-1610.2,-1716.51,5.170024496564782
0,-2062.55,-927.06,-1602.46,-1711.83,5.17502452025585
0,-2086.71,-920.26,-1601.58,-1713.34,5.180024543946917
0,-2049.86,-923.89,-1593.51,-1713.06,5.185024567637985
0,-2030.92,-925.1,-1592.16,-1708.66,5.190024591329053
0,-2060.14,-923.0,-1602.92,-1712.74,5.195024615020127
0,-2085.4,-937.11,-1613.36,-1722.35,5.200024638711195
0,-2052.33,-940.73,-1609.92,-1719.22,5.205024662402263
0,-2044.36,-935.19,-1598.87,-1710.71,5.21002468609333
0,-2035.42,-948.33,-1619.55,-1724.42,5.215024709784398
0,-2034.07,-951.45,-1604.59,-1713.04,5.220024733475466
0,-2061.93,-936.37,-1610.03,-1718.12,5.225024757166533
0,-2053.78,-942.6,-1614.24,-1724.18,5.230024780857601
0,-2068.44,-939.66,-1611.05,-1717.16,5.235024804548669
0,-2075.24,-940.01,-1610.59,-1714.55,5.2400248282397435
0,-2046.28,-930.3,-1601.37,-1709.11,5.245024851930811
0,-2050.97,-932.12,-1602.85,-1708.91,5.250024875621879
0,-2045.82,-934.43,-1598.54,-1712.56,5.2550248993129465
0,-2048.25,-940.21,-1604.26,-1713.24,5.260024923004014
0,-2038.16,-936.97,-1602.91,-1711.56,5.265024946695082
0,-2029.85,-938.32,-1608.39,-1711.44,5.2700249703861495
0,-2058.76,-932.63,-1605.32,-1709.91,5.275024994077217
0,-2030.94,-922.93,-1585.16,-1696.02,5.280025017768285
0,-2052.11,-928.19,-1593.88,-1699.54,5.28502504145936
0,-2062.88,-933.46,-1603.92,-1707.57,5.290025065150427
0,-2014.7,-925.09,-1591.65,-1701.78,5.295025088841495
0,-2044.12,-916.68,-1589.76,-1696.09,5.300025112532563
0,-2042.11,-918.29,-1589.11,-1701.51,5.30502513622363
0,-2039.79,-922.22,-1589.34,-1696.97,5.310025159914698
0,-2075.37,-914.56,-1585.27,-1695.02,5.315025183605766
0,-2065.67,-918.22,-1586.47,-1701.15,5.320025207296833
0,-2040.41,-922.07,-1592.64,-1704.66,5.325025230987901
0,-2051.12,-918.51,-1591.82,-1697.36,5.330025254678976
0,-2041.93,-926.28,-1598.44,-1706.11,5.335025278370043
0,-2032.41,-926.2,-1596.7,-1704.33,5.340025302061111
0,-2061.16,-948.3,-1612.08,-1727.94,5.345025325752179
0,-2049.56,-939.4,-1603.02,-1711.16,5.350025349443246
0,-2044.62,-926.84,-1594.25,-1709.55,5.355025373134314
0,-2055.9,-929.57,-1604.76,-1715.69,5.360025396825382
0,-2026.08,-932.66,-1607.68,-1715.62,5.365025420516449
0,-2050.58,-916.67,-1588.21,-1700.42,5.370025444207517
0,-2046.35,-931.96,-1600.09,-1712.1,5.375025467898592
0,-2058.95,-945.79,-1613.9,-1716.69,5.3800254915896595
0,-2048.62,-932.18,-1604.89,-1706.91,5.385025515280727
0,-2048.55,-931.3,-1599.67,-1701.34,5.390025538971795
0,-2052.16,-935.19,-1600.36,-1703.66,5.3950255626628625
0,-2037.74,-925.04,-1592.08,-1699.65,5.40002558635393
0,-2054.58,-945.81,-1616.59,-1729.18,5.405025610044998
0,-2064.78,-946.12,-1613.47,-1723.35,5.4100256337360655
0,-2075.13,-935.4,-1606.84,-1717.23,5.415025657427133
0,-2037.05,-929.09,-1605.05,-1711.94,5.420025681118208
0,-2044.4,-932.5,-1599.18,-1707.05,5.425025704809276
0,-2038.01,-918.78,-1584.62,-1692.51,5.430025728500343
0,-2032.5,-923.33,-1591.54,-1707.7,5.435025752191411
0,-2046.39,-925.45,-1591.57,-1707.04,5.440025775882479
0,-2046.8,-935.8,-1603.87,-1718.27,5.445025799573546
0,-2051.57,-938.63,-1612.05,-1727.12,5.450025823264614
0,-2042.27,-945.49,-1620.56,-1733.07,5.455025846955682
0,-2048.29,-928.01,-1595.58,-1715.14,5.460025870646749
0,-2066.77,-928.64,-1591.61,-1709.0,5.465025894337824
0,-2017.1,-924.25,-1586.0,-1702.98,5.470025918028892
0,-2036.23,-923.83,-1586.5,-1700.09,5.475025941719959
0,-2049.94,-925.51,-1588.37,-1702.64,5.480025965411027
0,-2054.58,-923.42,-1593.4,-1703.38,5.485025989102095
0,-2058.7,-924.12,-1587.84,-1693.02,5.490026012793162
0,-2052.62,-921.42,-1594.73,-1702.24,5.49502603648423
0,-2038.21,-926.84,-1592.86,-1700.88,5.500026060175298
0,-2023.05,-910.13,-1585.68,-1696.96,5.505026083866365
0,-2018.98,-914.9,-1581.35,-1699.8,5.51002610755744
0,-2039.53,-920.14,-1587.31,-1696.61,5.515026131248508
0,-2049.55,-924.59,-1581.41,-1696.24,5.5200261549395755
0,-2069.96,-924.1,-1587.36,-1699.93,5.525026178630643
0,-2044.78,-935.58,-1596.03,-1707.68,5.530026202321711
0,-2081.13,-929.65,-1592.82,-1705.26,5.5350262260127785
0,-2035.57,-924.6,-1588.02,-1699.88,5.540026249703846
0,-2040.29,-925.66,-1592.81,-1696.2,5.545026273394914
0,-2039.64,-926.58,-1592.12,-1696.78,5.5500262970859815
0,-2033.09,-925.28,-1588.27,-1699.93,5.555026320777056
0,-2058.75,-928.01,-1593.6,-1704.18,5.560026344468124
0,-2030.73,-930.99,-1590.41,-1704.92,5.565026368159192
0,-2026.37,-917.54,-1585.62,-1691.48,5.570026391850259
0,-2058.18,-926.36,-1589.19,-1699.12,5.575026415541327
0,-2031.1,-930.36,-1595.9,-1700.12,5.580026439232395
0,-2046.13,-928.41,-1587.57,-1695.91,5.585026462923462
0,-2025.25,-923.06,-1586.11,-1697.38,5.59002648661453
0,-2068.04,-920.22,-1589.32,-1703.98,5.595026510305598
0,-2028.26,-927.18,-1589.11,-1699.61,5.600026533996672
0,-2041.57,-927.59,-1590.0,-1700.0,5.60502655768774
0,-2047.26,-919.29,-1579.5,-1690.09,5.610026581378808
0,-2026.22,-917.86,-1590.23,-1691.95,5.615026605069875
0,-2050.42,-920.83,-1590.12,-1694.91,5.620026628760943
0,-2034.89,-925.25,-1592.95,-1703.12,5.625026652452011
0,-2039.88,-928.14,-1592.87,-1700.88,5.630026676143078
0,-2058.49,-933.9,-1604.61,-1708.61,5.635026699834146
0,-2040.24,-933.68,-1606.69,-1708.91,5.640026723525214
0,-2053.59,-929.42,-1600.98,-1702.91,5.6450267472162885
0,-2037.91,-924.98,-1596.49,-1694.3,5.650026770907356
0,-2048.17,-926.25,-1590.5,-1696.6,5.655026794598424
0,-2045.02,-927.08,-1592.66,-1698.58,5.6600268182894915
0,-2036.25,-929.96,-1595.47,-1705.51,5.665026841980559
0,-2063.14,-944.43,-1611.6,-1717.33,5.670026865671627
0,-2045.59,-932.63,-1605.46,-1712.0,5.6750268893626945
0,-2056.05,-932.49,-1602.07,-1714.6,5.680026913053762
0,-2035.9,-926.42,-1593.86,-1708.41,5.68502693674483
0,-2058.7,-941.82,-1605.16,-1715.77,5.690026960435905
0,-2032.88,-927.63,-1593.53,-1702.9,5.695026984126972
0,-2030.6,-919.98,-1587.43,-1695.5,5.70002700781804
0,-2037.02,-915.79,-1586.94,-1702.33,5.705027031509108
0,-2033.12,-919.04,-1594.47,-1708.11,5.710027055200175
0,-2047.0,-915.77,-1588.67,-1704.52,5.715027078891243
0,-2028.54,-910.25,-1575.99,-1696.48,5.720027102582311
0,-2048.38,-924.66,-1587.84,-1706.01,5.725027126273378
0,-2073.85,-940.5,-1610.66,-1721.74,5.730027149964446
0,-2077.66,-937.42,-1608.38,-1718.19,5.735027173655521
0,-2065.75,-941.56,-1610.31,-1718.6,5.740027197346588
0,-2053.41,-937.92,-1607.89,-1718.46,5.745027221037656
0,-2075.64,-942.56,-1605.83,-1720.25,5.750027244728724
0,-2076.07,-949.43,-1621.42,-1731.09,5.755027268419791
0,-2041.99,-946.81,-1612.64,-1720.68,5.760027292110859
0,-2058.68,-947.23,-1613.22,-1724.47,5.765027315801927
0,-2034.69,-941.02,-1612.32,-1715.29,5.770027339492994
0,-2070.38,-949.44,-1615.9,-1727.68,5.775027363184062
0,-2055.26,-933.92,-1609.82,-1722.63,5.780027386875137
0,-2056.57,-934.57,-1606.98,-1717.01,5.7850274105662045
0,-2052.3,-931.97,-1600.04,-1709.83,5.790027434257272
0,-2038.02,-938.48,-1602.43,-1712.32,5.79502745794834
0,-2067.93,-935.17,-1608.32,-1718.78,5.8000274816394075
0,-2056.84,-923.4,-1600.51,-1711.97,5.805027505330475
0,-2053.44,-934.57,-1606.45,-1718.08,5.810027529021543
0,-2076.27,-938.56,-1611.6,-1720.86,5.8150275527126105
0,-2053.75,-919.77,-1592.92,-1704.91,5.820027576403678
0,-2042.82,-938.75,-1606.91,-1719.44,5.825027600094753
0,-2053.93,-938.03,-1608.05,-1720.42,5.830027623785821
0,-2087.19,-940.08,-1613.34,-1722.56,5.835027647476888
0,-2052.11,-939.39,-1609.73,-1725.85,5.840027671167956
0,-2038.03,-929.72,-1598.9,-1715.1,5.845027694859024
0,-2060.46,-932.13,-1604.15,-1714.97,5.850027718550091
0,-2047.23,-927.18,-1595.85,-1712.56,5.855027742241159
0,-2046.05,-925.07,-1594.46,-1704.51,5.860027765932227
0,-2035.04,-921.46,-1586.63,-1703.41,5.865027789623294
0,-2052.17,-919.56,-1591.01,-1695.6,5.870027813314369
0,-2026.37,-920.32,-1580.71,-1689.94,5.875027837005437
0,-2046.61,-927.48,-1590.82,-1695.88,5.880027860696504
0,-2025.2,-927.9,-1590.82,-1696.18,5.885027884387572
0,-2015.98,-933.36,-1596.37,-1704.33,5.89002790807864
0,-2062.53,-936.22,-1599.91,-1710.72,5.895027931769707
0,-2031.4,-916.11,-1586.77,-1698.68,5.900027955460775
0,-2015.9,-917.83,-1586.23,-1699.57,5.905027979151843
0,-2023.3,-921.49,-1584.75,-1704.64,5.91002800284291
0,-2049.37,-926.25,-1593.98,-1707.36,5.915028026533985
0,-2026.45,-923.98,-1591.81,-1706.44,5.920028050225053
0,-2074.01,-927.15,-1602.26,-1717.69,5.9250280739161205
0,-2045.3,-933.22,-1605.82,-1720.72,5.930028097607188
0,-2035.15,-934.13,-1605.13,-1719.13,5.935028121298256
0,-2039.23,-936.97,-1607.13,-1723.99,5.9400281449893235
0,-2080.26,-947.91,-1620.08,-1729.41,5.945028168680391
0,-2090.69,-943.39,-1613.28,-1719.89,5.950028192371459
0,-2053.68,-942.53,-1608.7,-1712.78,5.9550282160625265
0,-2053.95,-937.3,-1605.02,-1712.98,5.960028239753601
0,-2031.73,-936.19,-1610.45,-1705.35,5.965028263444669
0,-2061.04,-935.95,-1604.59,-1706.73,5.970028287135737
0,-2043.02,-934.08,-1602.86,-1701.32,5.975028310826804
0,-2034.51,-936.02,-1602.76,-1705.09,5.980028334517872
0,-2045.56,-938.07,-1611.45,-1706.74,5.98502835820894
0,-2045.01,-941.39,-1610.62,-1714.83,5.990028381900007
0,-2100.29,-941.04,-1610.39,-1719.2,5.995028405591075
0,-2084.09,-933.15,-1602.66,-1714.63,6.000028429282143
0,-2041.22,-923.72,-1592.79,-1701.62,6.005028452973217
0,-2016.98,-920.57,-1589.05,-1704.12,6.010028476664285
0,-2008.04,-914.81,-1583.05,-1702.68,6.015028500355353
0,-2062.39,-920.18,-1587.39,-1704.77,6.02002852404642
0,-2022.6,-921.34,-1588.2,-1703.92,6.025028547737488
0,-2051.89,-914.61,-1583.25,-1697.13,6.030028571428556
0,-2075.0,-922.52,-1588.34,-1698.18,6.035028595119623
0,-2046.43,-925.48,-1589.88,-1704.78,6.040028618810691
0,-2089.87,-937.37,-1597.23,-1718.4,6.045028642501759
0,-2089.65,-931.52,-1604.86,-1714.34,6.0500286661928335
0,-2041.25,-933.37,-1610.7,-1712.98,6.055028689883901
0,-2043.86,-932.83,-1602.08,-1703.55,6.060028713574969
0,-2049.92,-927.15,-1594.28,-1697.32,6.0650287372660365
0,-2030.66,-921.64,-1587.15,-1692.78,6.070028760957104
0,-2042.9,-933.92,-1593.17,-1699.49,6.075028784648172
0,-2044.5,-923.88,-1585.34,-1689.82,6.0800288083392395
0,-2038.55,-931.61,-1597.52,-1703.03,6.085028832030307
0,-2041.15,-925.3,-1592.94,-1693.42,6.090028855721375
0,-2064.58,-928.62,-1590.49,-1695.58,6.09502887941245
0,-2029.21,-924.21,-1588.37,-1697.41,6.100028903103517
0,-2071.09,-942.24,-1613.16,-1713.94,6.105028926794585
0,-2062.47,-938.64,-1606.58,-1713.4,6.110028950485653
0,-2074.45,-948.03,-1616.09,-1719.97,6.11502897417672
0,-2046.32,-945.33,-1614.76,-1720.4,6.120028997867788
0,-2045.26,-936.43,-1602.03,-1708.72,6.125029021558856
0,-2047.7,-933.51,-1593.6,-1702.78,6.130029045249923
0,-2043.4,-928.65,-1594.65,-1705.88,6.135029068940991
0,-2027.14,-916.82,-1587.99,-1704.77,6.140029092632066
0,-2025.63,-915.98,-1583.31,-1692.89,6.145029116323133
0,-2050.94,-914.12,-1587.59,-1694.15,6.150029140014201
0,-2047.76,-917.1,-1596.28,-1698.14,6.155029163705269
0,-2033.04,-927.24,-1598.29,-1699.34,6.160029187396336
0,-2036.22,-927.04,-1588.15,-1692.2,6.165029211087404
0,-2057.94,-934.14,-1603.16,-1704.06,6.170029234778472
0,-2063.88,-943.64,-1606.71,-1712.52,6.175029258469539
0,-2053.45,-947.13,-1615.5,-1716.88,6.180029282160607
0,-2060.71,-953.24,-1616.72,-1714.44,6.185029305851682
0,-2055.78,-933.07,-1601.95,-1700.48,6.1900293295427495
0,-2033.95,-933.81,-1603.75,-1704.74,6.195029353233817
0,-2014.79,-924.04,-1592.55,-1701.35,6.200029376924885
0,-2023.16,-929.41,-1591.05,-1697.22,6.2050294006159525
0,-2055.28,-937.34,-1604.77,-1716.81,6.21002942430702
0,-2066.03,-932.95,-1602.94,-1711.83,6.215029447998088
0,-2038.9,-922.98,-1590.95,-1700.1,6.2200294716891555
0,-2039.52,-919.37,-1585.48,-1691.53,6.225029495380223
0,-2035.15,-920.46,-1587.68,-1697.62,6.230029519071298
0,-2043.37,-935.22,-1595.32,-1705.27,6.235029542762366
0,-2060.8,-942.09,-1608.67,-1712.53,6.240029566453433
0,-2057.19,-940.91,-1606.32,-1704.25,6.245029590144501
0,-2046.17,-936.37,-1606.0,-1709.76,6.250029613835569
0,-2051.06,-936.01,-1600.95,-1716.02,6.255029637526636
0,-2065.54,-937.97,-1602.61,-1718.51,6.260029661217704
0,-2055.93,-937.18,-1607.64,-1723.0,6.265029684908772
0,-2078.51,-959.72,-1623.67,-1735.72,6.270029708599839
0,-2047.15,-950.23,-1621.04,-1733.31,6.275029732290914
0,-2070.79,-945.58,-1611.82,-1728.1,6.280029755981982
0,-2061.19,-939.62,-1612.16,-1723.42,6.285029779673049
0,-2028.59,-921.94,-1588.01,-1699.37,6.290029803364117
0,-2045.19,-930.78,-1599.43,-1711.02,6.295029827055185
0,-2050.77,-942.54,-1616.14,-1714.93,6.300029850746252
0,-2051.93,-939.0,-1606.88,-1709.26,6.30502987443732
0,-2061.29,-937.06,-1607.02,-1717.42,6.310029898128388
0,-2065.74,-933.71,-1600.37,-1709.79,6.315029921819455
0,-2049.27,-924.19,-1595.8,-1701.01,6.32002994551053
0,-2045.98,-925.86,-1591.79,-1696.51,6.325029969201598
0,-2040.77,-913.7,-1582.41,-1688.71,6.3300299928926655
0,-2053.25,-919.97,-1587.31,-1696.41,6.335030016583733
0,-2047.92,-936.09,-1598.26,-1712.0,6.340030040274801
0,-2053.15,-935.29,-1608.82,-1720.44,6.3450300639658685
0,-2035.67,-914.66,-1588.69,-1700.67,6.350030087656936
0,-2040.04,-916.43,-1587.17,-1702.75,6.355030111348004
0,-2035.02,-921.76,-1590.57,-1704.36,6.3600301350390716
0,-2049.89,-920.77,-1593.23,-1701.82,6.365030158730146
0,-2035.57,-916.73,-1588.71,-1700.52,6.370030182421214
0,-2039.62,-913.51,-1583.08,-1704.07,6.375030206112282
0,-2040.23,-921.03,-1587.71,-1712.83,6.380030229803349
0,-2025.81,-914.23,-1578.42,-1699.92,6.385030253494417
0,-2044.71,-921.87,-1589.75,-1704.92,6.390030277185485
0,-2039.26,-921.3,-1588.9,-1707.49,6.395030300876552
0,-2054.13,-937.61,-1604.95,-1716.24,6.40003032456762
0,-2052.33,-935.57,-1606.9,-1727.62,6.405030348258688
0,-2050.67,-939.38,-1608.3,-1727.72,6.410030371949762
0,-2057.12,-930.45,-1606.8,-1720.24,6.41503039564083
0,-2054.35,-930.71,-1600.28,-1715.85,6.420030419331898
0,-2057.89,-945.17,-1615.16,-1720.73,6.425030443022965
0,-2073.76,-951.06,-1624.77,-1728.63,6.430030466714033
0,-2064.7,-941.28,-1621.94,-1723.76,6.435030490405101
0,-2080.59,-951.28,-1620.1,-1723.1,6.4400305140961684
0,-2058.17,-930.78,-1604.81,-1706.18,6.445030537787236
0,-2059.67,-943.9,-1612.67,-1717.0,6.450030561478304
0,-2060.37,-941.77,-1612.1,-1716.13,6.4550305851693786
0,-2050.6,-925.87,-1588.57,-1697.62,6.460030608860446
0,-2043.34,-932.12,-1598.57,-1702.73,6.465030632551514
0,-2067.49,-949.45,-1623.95,-1724.79,6.470030656242582
0,-2067.64,-951.1,-1620.39,-1722.93,6.475030679933649
0,-2047.98,-933.57,-1600.39,-1706.22,6.480030703624717
0,-2043.75,-930.38,-1597.01,-1712.33,6.485030727315785
0,-2048.16,-928.27,-1595.47,-1704.09,6.490030751006852
0,-2043.54,-923.74,-1595.89,-1704.01,6.49503077469792
0,-2044.78,-922.05,-1590.61,-1702.19,6.500030798388988
0,-2056.51,-927.23,-1603.35,-1708.83,6.505030822080062
0,-2055.94,-933.39,-1599.86,-1715.61,6.51003084577113
0,-2043.27,-916.28,-1592.92,-1700.23,6.515030869462198
0,-2052.39,-930.94,-1602.91,-1712.12,6.520030893153265
0,-2046.05,-922.25,-1590.47,-1696.59,6.525030916844333
0,-2054.73,-933.15,-1600.39,-1710.41,6.530030940535401
0,-2031.44,-924.86,-1594.43,-1704.78,6.535030964226468
0,-2058.24,-925.68,-1597.66,-1711.33,6.540030987917536
0,-2043.69,-919.62,-1592.11,-1706.31,6.545031011608604
0,-2034.69,-919.3,-1583.45,-1698.05,6.5500310352996785
0,-2061.01,-934.55,-1602.51,-1709.45,6.555031058990746
0,-2063.0,-923.92,-1600.16,-1704.86,6.560031082681814
0,-2054.81,-926.92,-1597.33,-1702.81,6.5650311063728815
0,-2040.6,-924.61,-1586.86,-1703.48,6.570031130063949
0,-2057.84,-932.03,-1600.95,-1713.0,6.575031153755017
0,-2035.07,-927.29,-1593.42,-1705.87,6.5800311774460845
0,-2042.26,-918.87,-1585.58,-1699.74,6.585031201137152
0,-2050.0,-924.95,-1599.6,-1706.51,6.59003122482822
0,-2037.13,-937.77,-1601.77,-1715.01,6.595031248519295
0,-2053.75,-939.47,-1603.51,-1713.67,6.600031272210362
0,-2033.43,-929.27,-1598.92,-1703.7,6.60503129590143
0,-2034.81,-926.54,-1592.36,-1699.18,6.610031319592498
0,-2052.09,-931.94,-1594.33,-1710.68,6.615031343283565
0,-2045.67,-930.91,-1593.12,-1708.71,6.620031366974633
0,-2035.17,-922.89,-1591.79,-1706.8,6.625031390665701
0,-2071.16,-943.67,-1612.6,-1728.3,6.630031414356768
0,-2045.26,-923.65,-1593.09,-1703.26,6.635031438047836
0,-2050.9,-938.15,-1605.63,-1709.85,6.640031461738911
0,-2027.62,-927.06,-1594.21,-1694.95,6.645031485429978
0,-2058.67,-936.34,-1604.4,-1704.38,6.650031509121046
0,-2047.74,-935.08,-1605.07,-1709.78,6.655031532812114
0,-2057.33,-935.6,-1601.17,-1715.2,6.660031556503181
0,-2041.97,-927.25,-1594.5,-1702.61,6.665031580194249
0,-2035.39,-918.82,-1592.53,-1696.57,6.670031603885317
0,-2054.38,-928.74,-1591.31,-1704.13,6.675031627576384
0,-2029.81,-913.7,-1591.26,-1696.1,6.680031651267452
0,-2041.44,-910.23,-1589.95,-1701.8,6.685031674958527
0,-2024.14,-912.72,-1581.9,-1701.51,6.6900316986495945
0,-2045.24,-925.11,-1594.68,-1711.69,6.695031722340662
0,-2053.18,-935.57,-1606.47,-1721.48,6.70003174603173
0,-2014.03,-918.64,-1588.28,-1698.71,6.7050317697227975
0,-2049.87,-928.84,-1600.2,-1710.98,6.710031793413865
0,-2036.49,-926.88,-1593.02,-1703.43,6.715031817104933
0,-2027.96,-918.15,-1587.5,-1693.37,6.7200318407960005
0,-2042.43,-930.03,-1599.58,-1705.19,6.725031864487068
0,-2068.15,-934.49,-1602.44,-1709.27,6.730031888178143
0,-2057.09,-926.9,-1594.51,-1700.82,6.735031911869211
0,-2036.35,-924.88,-1591.43,-1695.52,6.740031935560278
0,-2041.35,-928.53,-1587.28,-1701.31,6.745031959251346
0,-2035.14,-921.2,-1581.7,-1703.68,6.750031982942414
0,-2043.2,-930.64,-1593.18,-1712.85,6.755032006633481
0,-2039.54,-928.72,-1597.21,-1711.32,6.760032030324549
0,-2058.15,-942.64,-1612.42,-1714.83,6.765032054015617
0,-2045.18,-941.13,-1605.23,-1718.56,6.770032077706684
0,-2058.29,-934.87,-1599.93,-1710.58,6.775032101397759
0,-2046.26,-930.44,-1593.9,-1705.28,6.780032125088827
0,-2041.71,-930.79,-1596.13,-1705.22,6.785032148779894
0,-2051.7,-922.96,-1589.39,-1702.37,6.790032172470962
0,-2049.77,-933.98,-1602.43,-1702.48,6.79503219616203
0,-2052.66,-934.4,-1602.83,-1704.49,6.800032219853097
0,-2040.11,-931.1,-1595.57,-1702.7,6.805032243544165
0,-2047.03,-932.67,-1601.26,-1709.37,6.810032267235233
0,-2042.96,-922.75,-1593.51,-1702.21,6.8150322909263
0,-2055.61,-933.35,-1602.37,-1705.4,6.820032314617375
0,-2057.61,-942.95,-1610.52,-1707.99,6.825032338308443
0,-2064.14,-938.24,-1606.75,-1707.6,6.8300323619995105
0,-2051.81,-918.92,-1587.67,-1698.14,6.835032385690578
0,-2057.62,-922.73,-1599.66,-1698.11,6.840032409381646
0,-2051.23,-935.68,-1611.4,-1721.88,6.8450324330727135
0,-2047.15,-934.34,-1601.8,-1716.62,6.850032456763781
0,-2045.02,-922.66,-1591.97,-1700.87,6.855032480454849
0,-2041.94,-930.32,-1598.72,-1704.02,6.8600325041459165
0,-2063.84,-942.15,-1610.8,-1708.7,6.865032527836991
0,-2041.43,-937.68,-1606.63,-1710.24,6.870032551528059
0,-2039.03,-930.1,-1595.47,-1710.91,6.875032575219127
0,-2049.47,-931.79,-1606.59,-1715.57,6.880032598910194
0,-2042.88,-935.52,-1597.98,-1715.52,6.885032622601262
0,-2045.33,-928.94,-1594.93,-1704.03,6.89003264629233
0,-2042.59,-927.35,-1595.11,-1700.37,6.895032669983397
0,-2064.69,-936.78,-1601.15,-1708.74,6.900032693674465
0,-2061.2,-940.92,-1611.58,-1719.13,6.905032717365533
0,-2033.64,-929.23,-1601.02,-1706.27,6.910032741056607
0,-2047.17,-933.01,-1606.11,-1707.45,6.915032764747675
0,-2052.07,-938.51,-1603.74,-1710.08,6.920032788438743
0,-2065.21,-945.16,-1609.03,-1715.67,6.92503281212981
0,-2034.91,-926.65,-1599.13,-1705.7,6.930032835820878
0,-2048.55,-921.71,-1591.07,-1696.43,6.935032859511946
0,-2054.2,-934.22,-1600.01,-1704.32,6.940032883203013
0,-2053.34,-933.28,-1604.62,-1706.59,6.945032906894081
0,-2050.88,-934.66,-1598.97,-1706.66,6.950032930585149
0,-2066.77,-929.2,-1596.79,-1706.68,6.9550329542762235
0,-2045.96,-925.82,-1595.15,-1699.35,6.960032977967291
0,-2050.69,-923.68,-1586.2,-1702.72,6.965033001658359
0,-2050.63,-929.93,-1601.96,-1710.58,6.9700330253494265
0,-2026.72,-914.18,-1582.73,-1702.9,6.975033049040494
0,-2041.54,-915.99,-1581.44,-1698.11,6.980033072731562
0,-2064.0,-918.22,-1580.81,-1699.47,6.9850330964226295
0,-2066.4,-919.03,-1593.1,-1705.91,6.990033120113697
0,-2063.96,-938.82,-1610.57,-1720.02,6.995033143804765
0,-2055.9,-933.86,-1603.42,-1710.97,7.00003316749584
0,-2067.93,-947.78,-1623.69,-1724.79,7.005033191186907
0,-2052.54,-931.98,-1596.92,-1705.59,7.010033214877975
0,-2003.9,-917.12,-1576.22,-1691.14,7.015033238569043
0,-2010.71,-919.85,-1585.15,-1697.38,7.02003326226011
0,-2040.17,-929.71,-1595.79,-1706.83,7.025033285951178
0,-2044.84,-931.59,-1592.85,-1709.28,7.030033309642246
0,-2039.06,-931.72,-1596.66,-1710.73,7.035033333333313
0,-2034.01,-920.51,-1593.89,-1699.46,7.040033357024381
0,-2032.13,-925.65,-1582.63,-1698.45,7.045033380715456
0,-2043.83,-923.23,-1589.87,-1701.57,7.050033404406523
0,-2037.29,-924.4,-1594.61,-1704.59,7.055033428097591
0,-2065.62,-924.74,-1579.98,-1701.63,7.060033451788659
0,-2044.35,-921.12,-1594.32,-1707.17,7.065033475479726
0,-2073.07,-920.72,-1595.64,-1705.06,7.070033499170794
0,-2066.41,-939.14,-1610.92,-1720.58,7.075033522861862
0,-2048.32,-940.93,-1613.96,-1722.01,7.080033546552929
0,-2043.09,-928.7,-1599.6,-1710.76,7.085033570243997
0,-2015.88,-917.48,-1591.13,-1706.18,7.090033593935072
0,-2024.21,-931.9,-1599.28,-1713.41,7.0950336176261395
0,-2046.66,-926.66,-1596.69,-1710.0,7.100033641317207
0,-2054.12,-938.7,-1613.51,-1716.83,7.105033665008275
0,-2056.87,-940.39,-1607.87,-1712.65,7.1100336886993425
0,-2046.97,-920.11,-1587.85,-1697.88,7.11503371239041
0,-2059.81,-912.22,-1582.81,-1690.34,7.120033736081478
0,-2066.72,-923.24,-1596.12,-1699.79,7.1250337597725455
0,-2060.26,-927.11,-1598.71,-1701.85,7.130033783463613
0,-2055.75,-939.39,-1608.56,-1706.6,7.135033807154688
0,-2058.76,-943.7,-1610.57,-1716.77,7.140033830845756
0,-2057.26,-946.68,-1617.23,-1728.21,7.145033854536823
0,-2038.71,-938.63,-1605.09,-1718.63,7.150033878227891
0,-2052.46,-933.79,-1591.4,-1714.46,7.155033901918959
0,-2021.28,-932.78,-1597.48,-1703.42,7.160033925610026
0,-2029.8,-929.69,-1593.26,-1700.88,7.165033949301094
0,-2053.53,-931.03,-1591.66,-1704.77,7.170033972992162
0,-2074.15,-930.72,-1605.23,-1719.85,7.175033996683229
0,-2085.05,-939.37,-1609.68,-1725.76,7.180034020374304
0,-2060.01,-930.59,-1598.33,-1709.18,7.185034044065372
0,-2046.59,-923.1,-1587.47,-1702.88,7.190034067756439
0,-2040.89,-920.02,-1587.41,-1702.16,7.195034091447507
0,-2050.59,-937.08,-1601.77,-1715.34,7.200034115138575
0,-2049.41,-939.87,-1608.5,-1718.68,7.205034138829642
0,-2078.11,-944.92,-1611.9,-1718.17,7.21003416252071
0,-2029.59,-941.95,-1606.36,-1717.26,7.215034186211778
0,-2031.62,-940.72,-1608.29,-1716.79,7.220034209902845
0,-2037.61,-926.46,-1594.38,-1704.71,7.22503423359392
0,-2038.64,-922.57,-1588.08,-1696.24,7.230034257284988
0,-2042.38,-930.95,-1601.0,-1715.36,7.2350342809760555
0,-2072.74,-942.37,-1614.94,-1726.53,7.240034304667123
0,-2077.28,-942.34,-1607.7,-1720.97,7.245034328358191
0,-2069.23,-925.59,-1599.19,-1707.0,7.2500343520492585
0,-2070.14,-931.16,-1606.9,-1708.73,7.255034375740326
0,-2077.27,-934.16,-1605.11,-1709.69,7.260034399431394
0,-2009.66,-923.5,-1590.54,-1693.87,7.2650344231224615
0,-2027.42,-934.86,-1602.61,-1710.08,7.270034446813536
0,-2057.03,-919.31,-1586.53,-1699.31,7.275034470504604
0,-2047.39,-924.33,-1590.5,-1701.51,7.280034494195672
0,-2050.65,-931.83,-1604.56,-1711.23,7.285034517886739
0,-2030.36,-932.82,-1605.42,-1710.51,7.290034541577807
0,-2057.99,-938.06,-1609.82,-1711.8,7.295034565268875
0,-2089.19,-948.95,-1617.81,-1721.52,7.300034588959942
0,-2040.44,-926.83,-1597.74,-1708.57,7.30503461265101
0,-2028.39,-925.61,-1590.56,-1714.45,7.310034636342078
0,-2011.03,-915.1,-1590.53,-1702.53,7.315034660033152
0,-2009.73,-924.99,-1598.98,-1709.38,7.32003468372422
0,-2026.53,-928.99,-1596.29,-1707.26,7.325034707415288
0,-2066.48,-929.54,-1591.61,-1710.16,7.330034731106355
0,-2039.55,-933.05,-1604.06,-1709.93,7.335034754797423
0,-2050.94,-933.25,-1597.13,-1707.52,7.340034778488491
0,-2009.28,-934.02,-1597.1,-1704.38,7.345034802179558
0,-2013.82,-920.21,-1578.86,-1692.8,7.350034825870626
0,-2033.23,-930.05,-1595.24,-1702.27,7.355034849561694
0,-2054.82,-923.36,-1591.45,-1691.93,7.3600348732527685
0,-2067.32,-930.46,-1594.2,-1702.63,7.365034896943836
0,-2092.62,-936.96,-1602.75,-1711.71,7.370034920634904
0,-2078.86,-943.5,-1614.76,-1712.52,7.3750349443259715
0,-2058.52,-936.33,-1604.64,-1707.15,7.380034968017039
0,-2040.66,-941.28,-1612.61,-1715.6,7.385034991708107
0,-2015.71,-932.54,-1607.98,-1704.45,7.3900350153991745
0,-2048.46,-939.03,-1612.16,-1712.77,7.395035039090242
0,-2042.71,-924.14,-1596.2,-1699.95,7.40003506278131
0,-2040.14,-924.25,-1592.61,-1699.28,7.405035086472385
0,-2052.03,-932.29,-1594.37,-1701.99,7.410035110163452
0,-2036.64,-945.09,-1609.35,-1715.64,7.41503513385452
0,-2066.39,-943.95,-1612.92,-1716.16,7.420035157545588
0,-2059.95,-946.6,-1606.0,-1720.14,7.425035181236655
0,-2054.81,-947.2,-1610.49,-1723.44,7.430035204927723
0,-2060.51,-924.76,-1593.5,-1698.78,7.435035228618791
0,-2055.63,-936.98,-1603.52,-1715.47,7.440035252309858
0,-2055.43,-929.12,-1598.55,-1712.13,7.445035276000926
0,-2013.74,-917.44,-1585.73,-1702.39,7.450035299692001
0,-2020.48,-924.33,-1592.44,-1702.74,7.455035323383068
0,-2100.36,-942.33,-1604.06,-1720.8,7.460035347074136
0,-2069.65,-942.21,-1613.14,-1720.96,7.465035370765204
0,-2047.92,-932.23,-1599.36,-1718.39,7.470035394456271
0,-2048.85,-925.04,-1595.44,-1708.72,7.475035418147339
0,-2043.3,-935.16,-1602.62,-1718.57,7.480035441838407
0,-2028.45,-917.79,-1594.06,-1704.73,7.485035465529474
0,-2011.57,-912.22,-1582.96,-1697.47,7.490035489220542
0,-2046.77,-923.03,-1589.75,-1702.29,7.495035512911617
0,-2039.8,-928.91,-1598.65,-1703.87,7.5000355366026845
0,-2084.13,-938.94,-1604.94,-1712.97,7.505035560293752
0,-2076.07,-933.51,-1603.46,-1711.59,7.51003558398482
0,-2069.65,-927.49,-1594.01,-1707.35,7.5150356076758875
0,-2027.14,-926.13,-1594.42,-1706.47,7.520035631366955
0,-2075.14,-919.21,-1590.84,-1700.93,7.525035655058023
0,-2086.01,-938.49,-1607.09,-1717.09,7.5300356787490905
0,-2097.68,-951.51,-1617.51,-1729.91,7.535035702440158
0,-2062.31,-934.53,-1600.41,-1711.31,7.540035726131233
0,-2054.24,-929.59,-1589.26,-1708.82,7.545035749822301
0,-2040.63,-918.3,-1584.4,-1699.91,7.550035773513368
0,-2037.48,-913.03,-1578.12,-1694.51,7.555035797204436
0,-2035.55,-915.33,-1585.59,-1693.07,7.560035820895504
0,-2022.77,-911.39,-1574.52,-1681.01,7.565035844586571
0,-2014.97,-920.17,-1593.95,-1690.38,7.570035868277639
0,-2046.01,-927.9,-1597.95,-1696.04,7.575035891968707
0,-2018.6,-933.86,-1605.25,-1714.42,7.580035915659774
0,-2008.95,-918.78,-1590.35,-1694.88,7.585035939350849
0,-2013.77,-924.95,-1591.52,-1707.65,7.590035963041917
0,-2059.38,-924.96,-1597.08,-1714.65,7.595035986732984
0,-2035.89,-925.8,-1595.5,-1714.66,7.600036010424052
0,-2057.79,-932.5,-1595.7,-1717.95,7.60503603411512
0,-2047.38,-926.69,-1594.96,-1712.57,7.610036057806187
0,-2076.75,-922.87,-1589.9,-1702.79,7.615036081497255
0,-2032.15,-927.5,-1602.67,-1709.83,7.620036105188323
0,-2050.72,-925.25,-1589.59,-1702.16,7.62503612887939
0,-2036.79,-928.51,-1593.16,-1703.79,7.630036152570465
0,-2047.86,-930.28,-1600.15,-1705.19,7.635036176261533
0,-2033.4,-923.46,-1589.49,-1703.1,7.6400361999526005
0,-2043.34,-916.42,-1588.64,-1699.13,7.645036223643668
0,-2036.28,-917.13,-1589.76,-1695.94,7.650036247334736
0,-2070.83,-928.07,-1595.15,-1702.36,7.6550362710258035
0,-2060.87,-932.35,-1603.68,-1706.94,7.660036294716871
0,-2084.08,-937.5,-1614.37,-1714.17,7.665036318407939
0,-2056.06,-932.66,-1600.99,-1701.92,7.6700363420990065
0,-2072.7,-934.66,-1605.08,-1709.22,7.675036365790081
0,-2059.34,-944.92,-1612.06,-1712.96,7.680036389481149
0,-2058.59,-932.87,-1601.17,-1706.19,7.685036413172217
0,-2041.68,-927.76,-1602.23,-1700.45,7.690036436863284
0,-2057.39,-935.01,-1604.1,-1704.65,7.695036460554352
0,-2056.74,-931.29,-1594.77,-1703.17,7.70003648424542
0,-2068.23,-938.53,-1606.34,-1710.79,7.705036507936487
0,-2070.37,-937.39,-1610.46,-1709.79,7.710036531627555
0,-2060.16,-938.6,-1602.02,-1708.22,7.715036555318623
0,-2020.83,-920.48,-1587.96,-1688.11,7.720036579009697
0,-2038.4,-931.86,-1596.01,-1692.2,7.725036602700765
0,-2024.95,-926.29,-1591.59,-1690.99,7.730036626391833
0,-2040.65,-929.42,-1593.58,-1697.4,7.7350366500829
0,-2014.64,-908.14,-1568.69,-1677.31,7.740036673773968
0,-2047.94,-929.77,-1595.54,-1699.8,7.745036697465036
0,-2061.75,-916.46,-1589.05,-1696.89,7.750036721156103
0,-2044.91,-921.0,-1591.58,-1699.69,7.755036744847171
0,-2028.64,-938.65,-1610.83,-1719.63,7.760036768538239
0,-2085.17,-945.3,-1623.99,-1734.54,7.7650367922293135
0,-2097.49,-950.8,-1623.29,-1734.21,7.770036815920381
0,-2058.71,-959.46,-1629.84,-1737.4,7.775036839611449
0,-2044.92,-947.35,-1615.21,-1722.02,7.7800368633025165
0,-2064.61,-937.65,-1601.24,-1707.85,7.785036886993584
0,-2044.31,-933.81,-1598.9,-1702.43,7.790036910684652
0,-2066.5,-931.47,-1602.23,-1705.56,7.7950369343757195
0,-2080.73,-929.35,-1598.81,-1702.02,7.800036958066787
0,-2042.91,-934.92,-1598.25,-1699.82,7.805036981757855
0,-2044.86,-926.05,-1591.94,-1705.25,7.81003700544893
0,-2036.39,-921.88,-1583.8,-1697.16,7.815037029139997
0,-2000.78,-915.79,-1576.7,-1689.5,7.820037052831065
0,-2047.01,-915.96,-1588.26,-1695.01,7.825037076522133
0,-2004.64,-910.03,-1577.39,-1695.39,7.8300371002132
0,-2030.43,-926.46,-1596.37,-1710.27,7.835037123904268
0,-2053.01,-941.47,-1603.52,-1721.8,7.840037147595336
0,-2074.39,-954.84,-1617.87,-1730.61,7.845037171286403
0,-2064.68,-945.34,-1611.81,-1727.03,7.850037194977471
0,-2037.0,-923.98,-1588.16,-1702.06,7.855037218668546
0,-2057.85,-930.09,-1601.53,-1712.94,7.860037242359613
0,-2063.68,-932.21,-1596.27,-1711.13,7.865037266050681
0,-2036.72,-935.04,-1606.93,-1720.79,7.870037289741749
0,-2058.65,-927.38,-1606.97,-1713.61,7.875037313432816
0,-2047.42,-927.2,-1594.58,-1703.8,7.880037337123884
0,-2046.94,-914.1,-1584.75,-1687.89,7.885037360814952
0,-2060.41,-927.37,-1605.63,-1703.4,7.890037384506019
0,-2065.98,-944.32,-1609.11,-1713.55,7.895037408197087
0,-2039.47,-954.38,-1611.91,-1717.42,7.900037431888162
0,-2052.77,-956.31,-1625.27,-1735.24,7.9050374555792295
0,-2017.15,-934.62,-1601.8,-1717.59,7.910037479270297
0,-2052.43,-933.51,-1605.9,-1718.96,7.915037502961365
0,-2061.38,-948.73,-1619.67,-1730.48,7.9200375266524325
0,-2071.19,-943.43,-1609.94,-1716.22,7.9250375503435
0,-2039.48,-936.77,-1599.44,-1706.79,7.930037574034568
0,-2032.32,-934.84,-1593.52,-1700.46,7.9350375977256355
0,-2050.8,-922.73,-1590.75,-1691.82,7.940037621416703
0,-2059.5,-926.2,-1585.27,-1691.07,7.945037645107778
0,-2027.44,-912.1,-1577.54,-1680.85,7.950037668798846
0,-2036.23,-931.33,-1592.58,-1700.96,7.955037692489913
0,-2032.39,-918.68,-1583.81,-1688.74,7.960037716180981
0,-2066.1,-936.4,-1604.16,-1711.54,7.965037739872049
0,-2059.44,-946.58,-1608.41,-1718.89,7.970037763563116
0,-2060.66,-924.33,-1592.67,-1704.23,7.975037787254184
0,-2066.63,-933.24,-1603.83,-1713.93,7.980037810945252
0,-2085.14,-940.41,-1614.74,-1722.75,7.985037834636319
0,-2052.39,-932.06,-1606.03,-1712.2,7.990037858327394
0,-2030.28,-936.24,-1601.04,-1713.1,7.995037882018462
0,-2060.39,-930.75,-1600.78,-1709.46,8.00003790570953
0,-2023.12,-927.46,-1592.43,-1701.72,8.005037929400597
0,-2006.61,-908.94,-1575.12,-1688.91,8.010037953091665
0,-2042.92,-919.65,-1587.29,-1693.98,8.015037976782732
0,-2071.69,-939.12,-1610.32,-1720.34,8.0200380004738
0,-2056.04,-914.25,-1581.13,-1695.9,8.025038024164868
0,-2057.47,-923.14,-1595.24,-1709.83,8.030038047855935
0,-2017.64,-924.18,-1592.35,-1710.26,8.03503807154701
0,-2066.8,-916.43,-1595.95,-1706.91,8.040038095238078
0,-2047.59,-930.49,-1607.38,-1716.77,8.045038118929146
0,-2091.16,-931.67,-1607.53,-1723.02,8.050038142620213
0,-2065.74,-922.54,-1591.85,-1707.57,8.055038166311281
0,-2039.92,-929.91,-1601.69,-1716.06,8.060038190002349
0,-2047.26,-930.66,-1600.94,-1709.54,8.065038213693416
0,-2072.27,-929.34,-1602.79,-1706.77,8.070038237384484
0,-2052.77,-931.5,-1600.86,-1710.11,8.075038261075552
0,-2072.87,-926.46,-1596.71,-1708.37,8.080038284766626
0,-2027.43,-922.13,-1592.84,-1700.48,8.085038308457694
0,-2040.51,-930.96,-1599.63,-1711.45,8.090038332148762
0,-2059.6,-930.48,-1607.42,-1712.55,8.09503835583983
0,-2058.62,-939.41,-1609.5,-1719.97,8.100038379530897
0,-2050.93,-939.16,-1608.34,-1720.48,8.105038403221965
0,-2048.17,-940.52,-1608.89,-1723.02,8.110038426913032
0,-2037.77,-928.89,-1600.6,-1716.35,8.1150384506041
0,-2034.11,-919.88,-1596.12,-1710.69,8.120038474295168
0,-2019.06,-916.95,-1585.42,-1698.94,8.125038497986242
0,-2036.67,-927.63,-1597.53,-1712.56,8.13003852167731
0,-2060.31,-928.58,-1602.91,-1714.67,8.135038545368378
0,-2075.21,-924.47,-1591.67,-1705.98,8.140038569059445
0,-2063.42,-922.04,-1594.35,-1707.32,8.145038592750513
0,-2036.64,-911.99,-1585.81,-1696.39,8.15003861644158
0,-2045.23,-924.59,-1590.05,-1707.84,8.155038640132648
0,-2002.6,-931.49,-1590.62,-1707.42,8.160038663823716
0,-2037.72,-924.85,-1587.32,-1703.87,8.165038687514784
0,-2036.52,-931.36,-1591.84,-1702.47,8.170038711205851
0,-2036.76,-935.68,-1595.41,-1713.72,8.175038734896926
0,-2081.35,-938.86,-1595.27,-1709.31,8.180038758587994
0,-2077.89,-940.28,-1594.1,-1706.45,8.185038782279062
0,-2033.32,-934.42,-1598.09,-1706.33,8.19003880597013
0,-2012.08,-924.35,-1594.98,-1696.53,8.195038829661197
0,-2057.89,-928.99,-1597.42,-1703.57,8.200038853352265
0,-2066.68,-939.39,-1602.77,-1712.7,8.205038877043332
0,-2069.58,-936.98,-1605.01,-1710.13,8.2100389007344
0,-2051.95,-934.87,-1606.14,-1706.55,8.215038924425468
0,-2034.09,-929.25,-1598.65,-1706.64,8.220038948116542
0,-2018.54,-921.4,-1584.29,-1697.32,8.22503897180761
0,-2058.24,-919.22,-1585.73,-1701.0,8.230038995498678
0,-2032.87,-918.64,-1585.6,-1696.32,8.235039019189745
0,-2038.97,-908.85,-1579.82,-1696.62,8.240039042880813
0,-2020.07,-919.89,-1581.8,-1704.81,8.24503906657188
0,-2045.27,-921.15,-1586.68,-1700.58,8.250039090262948
0,-2033.82,-931.47,-1593.28,-1703.51,8.255039113954016
0,-2046.37,-932.08,-1594.04,-1700.54,8.260039137645084
0,-2086.19,-939.47,-1611.05,-1716.9,8.265039161336158
0,-2048.11,-941.39,-1605.57,-1718.54,8.270039185027226
0,-2062.98,-938.25,-1600.64,-1712.09,8.275039208718294
0,-2082.34,-941.81,-1606.32,-1714.51,8.280039232409361
0,-2050.92,-935.76,-1599.41,-1707.89,8.28503925610043
0,-2053.23,-943.52,-1608.32,-1712.41,8.290039279791497
0,-2028.63,-915.31,-1583.91,-1687.41,8.295039303482564
0,-2049.51,-928.47,-1590.55,-1699.3,8.300039327173632
0,-2035.51,-930.02,-1595.81,-1707.81,8.3050393508647
0,-2077.72,-937.33,-1612.83,-1717.26,8.310039374555775
0,-2068.19,-941.72,-1612.97,-1718.86,8.315039398246842
0,-2064.69,-954.58,-1620.39,-1730.6,8.32003942193791
0,-2053.63,-955.55,-1618.93,-1723.44,8.325039445628978
0,-2032.12,-937.92,-1607.12,-1709.99,8.330039469320045
0,-2010.33,-934.4,-1602.74,-1707.0,8.335039493011113
0,-2068.9,-942.66,-1602.26,-1708.75,8.34003951670218
0,-2082.87,-934.36,-1601.35,-1707.57,8.345039540393248
0,-2041.58,-940.69,-1606.23,-1710.13,8.350039564084316
0,-2065.65,-941.98,-1607.77,-1717.49,8.35503958777539
0,-2065.33,-942.18,-1609.14,-1718.83,8.360039611466458
0,-2054.06,-933.87,-1603.88,-1710.84,8.365039635157526
0,-2042.37,-943.63,-1609.19,-1719.41,8.370039658848594
0,-2083.64,-948.3,-1614.85,-1723.52,8.375039682539661
0,-2060.61,-946.55,-1611.52,-1719.56,8.380039706230729
0,-2073.71,-968.79,-1608.82,-1715.72,8.385039729921797
0,-2079.58,-942.5,-1599.92,-1710.02,8.390039753612864
0,-2053.65,-933.69,-1593.61,-1696.52,8.395039777303932
0,-2007.81,-924.72,-1587.91,-1695.94,8.400039800995007
0,-2044.33,-930.63,-1591.62,-1697.77,8.405039824686074
0,-2052.52,-929.6,-1590.83,-1704.36,8.410039848377142
0,-2036.04,-921.8,-1591.77,-1706.51,8.41503987206821
0,-2024.02,-926.22,-1583.36,-1705.78,8.420039895759277
0,-2043.51,-923.39,-1578.71,-1704.25,8.425039919450345
0,-2051.31,-929.94,-1591.72,-1704.13,8.430039943141413
0,-2032.02,-925.04,-1588.07,-1699.52,8.43503996683248
0,-2035.58,-926.27,-1589.39,-1693.97,8.440039990523548
0,-2043.63,-940.78,-1602.91,-1711.87,8.445040014214623
0,-2034.66,-925.91,-1596.72,-1703.23,8.45004003790569
0,-2056.96,-931.96,-1600.87,-1704.26,8.455040061596758
0,-2025.75,-922.55,-1581.38,-1689.97,8.460040085287826
0,-2044.02,-922.9,-1588.37,-1696.52,8.465040108978894
0,-2022.15,-912.64,-1572.45,-1688.0,8.470040132669961
0,-2021.63,-919.93,-1583.23,-1696.13,8.475040156361029
0,-2064.05,-937.02,-1597.8,-1710.98,8.480040180052097
0,-2050.87,-926.56,-1604.58,-1711.26,8.485040203743164
0,-2044.21,-924.78,-1604.09,-1711.77,8.490040227434239
0,-2053.91,-939.83,-1613.04,-1725.4,8.495040251125307
0,-2050.45,-944.15,-1609.06,-1721.07,8.500040274816374
0,-2057.21,-942.65,-1606.52,-1724.53,8.505040298507442
0,-2059.93,-930.8,-1596.66,-1704.75,8.51004032219851
0,-2046.27,-930.92,-1594.92,-1704.5,8.515040345889577
0,-2031.03,-916.95,-1579.34,-1689.37,8.520040369580645
0,-2045.71,-921.49,-1587.47,-1693.11,8.525040393271713
0,-2051.37,-926.93,-1591.81,-1709.08,8.53004041696278
0,-2064.87,-937.13,-1610.26,-1727.54,8.535040440653855
0,-2058.67,-928.26,-1590.99,-1715.93,8.540040464344923
0,-2051.53,-930.84,-1595.45,-1716.88,8.54504048803599
0,-2050.39,-925.38,-1598.61,-1711.55,8.550040511727058
0,-2059.65,-925.27,-1600.29,-1707.41,8.555040535418126
0,-2061.9,-925.22,-1599.94,-1711.02,8.560040559109193
0,-2036.9,-910.8,-1594.07,-1707.82,8.565040582800261
0,-2038.8,-902.36,-1580.35,-1696.66,8.570040606491329
0,-2023.62,-929.15,-1597.44,-1714.39,8.575040630182396
0,-2068.77,-929.62,-1601.01,-1711.7,8.580040653873471
0,-2062.31,-940.29,-1610.56,-1716.69,8.585040677564539
0,-2054.16,-936.73,-1604.68,-1709.57,8.590040701255607
0,-2059.14,-937.74,-1605.17,-1705.74,8.595040724946674
0,-2027.2,-938.22,-1615.84,-1718.68,8.600040748637742
0,-2059.64,-933.7,-1605.75,-1715.33,8.60504077232881
0,-2059.52,-942.84,-1606.77,-1718.18,8.610040796019877
0,-2050.73,-932.69,-1597.24,-1712.09,8.615040819710945
0,-2042.88,-922.69,-1590.83,-1696.77,8.620040843402013
0,-2050.4,-925.75,-1594.15,-1696.43,8.625040867093087
0,-2042.77,-928.81,-1590.07,-1691.77,8.630040890784155
0,-2049.5,-940.57,-1597.86,-1698.12,8.635040914475223
0,-2050.12,-934.31,-1603.14,-1703.78,8.64004093816629
0,-2030.07,-920.7,-1593.97,-1700.34,8.645040961857358
0,-2043.06,-910.7,-1584.96,-1692.49,8.650040985548426
0,-2036.32,-915.17,-1586.46,-1691.23,8.655041009239493
0,-2056.34,-931.19,-1599.24,-1710.79,8.660041032930561
0,-2059.15,-936.35,-1599.92,-1711.65,8.665041056621629
0,-2059.37,-938.87,-1610.69,-1712.89,8.670041080312703
0,-2063.21,-939.51,-1611.07,-1717.22,8.675041104003771
0,-2046.82,-931.46,-1591.47,-1701.37,8.680041127694839
0,-2071.72,-952.28,-1615.71,-1719.25,8.685041151385906
0,-2044.85,-930.78,-1596.36,-1699.26,8.690041175076974
0,-2051.16,-929.37,-1602.74,-1702.74,8.695041198768042
0,-2046.68,-935.84,-1604.34,-1711.84,8.70004122245911
0,-2060.72,-936.1,-1608.02,-1718.59,8.705041246150177
0,-2047.01,-929.49,-1595.73,-1706.3,8.710041269841245
0,-2065.44,-948.25,-1608.36,-1716.24,8.71504129353232
0,-2072.36,-956.04,-1621.56,-1726.02,8.720041317223387
0,-2029.91,-931.86,-1595.53,-1698.63,8.725041340914455
0,-2064.45,-942.19,-1611.33,-1710.53,8.730041364605523
0,-2052.88,-937.06,-1602.41,-1705.38,8.73504138829659
0,-2068.4,-946.7,-1609.42,-1719.83,8.740041411987658
0,-2059.89,-938.85,-1609.16,-1721.0,8.745041435678726
0,-2026.33,-927.07,-1597.15,-1708.64,8.750041459369793
0,-2033.78,-919.15,-1586.38,-1700.94,8.755041483060861
0,-2048.58,-921.98,-1589.44,-1700.35,8.760041506751936
0,-2041.27,-918.59,-1586.54,-1699.86,8.765041530443003
0,-2034.94,-924.83,-1596.93,-1699.14,8.770041554134071
0,-2049.26,-929.21,-1605.68,-1704.38,8.775041577825139
0,-2045.75,-932.9,-1597.16,-1700.01,8.780041601516206
0,-2058.2,-945.53,-1608.69,-1708.74,8.785041625207274
0,-2045.13,-924.65,-1591.55,-1693.82,8.790041648898342
0,-2038.05,-922.65,-1587.44,-1702.62,8.79504167258941
0,-2039.98,-929.86,-1593.49,-1714.54,8.800041696280477
0,-2038.72,-920.64,-1583.43,-1700.21,8.805041719971552
0,-2069.35,-941.3,-1604.08,-1719.03,8.81004174366262
0,-2058.97,-939.68,-1601.28,-1716.54,8.815041767353687
0,-2074.49,-948.66,-1616.3,-1718.93,8.820041791044755
0,-2073.85,-954.88,-1622.99,-1726.91,8.825041814735822
0,-2069.96,-946.28,-1619.49,-1721.66,8.83004183842689
0,-2068.48,-946.84,-1612.58,-1716.11,8.835041862117958
0,-2053.83,-941.75,-1607.3,-1710.73,8.840041885809026
0,-2053.59,-940.32,-1609.57,-1720.14,8.845041909500093
0,-2063.41,-939.49,-1604.22,-1716.05,8.850041933191168
0,-2031.98,-915.09,-1583.7,-1689.45,8.855041956882236
0,-2036.3,-918.19,-1578.91,-1692.17,8.860041980573303
