labels,F4,F3,Fz,Cz,timestamps
0,7.442110438857734,4.630581172721696,4.763735420803504,6.668861235181966,-2.0000094315154477
0,9.433813478562806,5.8014003586636935,7.525582496781604,5.509759590884677,-1.99500940793666
0,7.6055173647358645,5.75222049346058,5.937430566131845,0.1906579822651009,-1.9900093843578688
0,10.407222084749137,12.183041570908879,10.009279617538112,8.701556408082501,-1.985009360779081
0,12.48892762509159,11.663863584057964,14.77112963892201,7.9724548666539565,-1.9800093372002934
0,10.77063397126008,9.484686524994864,10.842980617223304,6.283353355708094,-1.9750093136215057
0,5.462341107700256,5.495510384784602,3.524832538277157,0.5442518723129373,-1.9700092900427144
0,-2.825950982019555,-8.053664846297352,-0.47331461298142163,-5.214849586921657,-1.9650092664639267
0,-1.2642423147912605,-5.742839178247194,-1.6814608520790815,-4.0839510254553915,-1.960009242885139
0,5.08746709239569,6.567987379141113,2.9103938053473866,7.176947553446777,-1.9550092193063477
0,-4.990822777457908,-6.351185183674689,-3.4277506563371345,-0.16215385338106525,-1.95000919572756
0,-6.109111941331512,-3.0503568761150324,-7.235894252704137,-2.911255249214081,-1.9450091721487723
0,-2.9774004159708327,-3.4095277073982513,-9.18403699902665,-0.6403566373966509,-1.9400091485699846
0,-3.4456882177152677,-1.1186976864264935,-5.222178909993618,-0.5694580211874867,-1.9350091249911934
0,2.4660246374532697,0.7321331781581109,2.4296800003514796,-0.37855940373385943,-1.9300091014124057
0,-6.992261866228983,-5.567035122127866,-2.3984602816207503,-1.0176607881135102,-1.925009077833618
0,-7.350547744299202,-7.976202595562745,-8.36659976933666,-9.08676217729248,-1.9200090542548303
0,-17.74883301179094,-11.395369249968766,-12.614738475881056,-10.825863573899728,-1.915009030676039
0,-14.527117682793195,-9.754535092408693,-8.942876413628449,-5.604964979907486,-1.9100090070972513
0,-6.665401770131362,-6.443700129024058,-4.8310135940256655,-2.5040663965132786,-1.9050089835184636
0,-6.563685285420321,-4.212864365091666,-9.689150027661048,-7.633167824283519,-1.900008959939676
0,-12.151968239335705,-5.592027805209393,-8.937285724358569,-9.762269263245393,-1.8950089363608846
0,-0.4702506417644001,-0.5811904534649697,-2.0554206931869214,-8.791370712760905,-1.890008912782097
0,-1.978532501924977,-3.5203523135645907,-5.113554942543148,-10.200472171358156,-1.8850088892033092
0,-3.846813828611534,-13.719513388862099,-6.881688480304457,-9.479573636653758,-1.8800088656245215
0,6.934905369590754,-3.29867368218038,-4.249821313863776,-4.8986751053575555,-1.8750088420457303
0,-2.0533749158676495,2.122166804315363,-2.7879534501056704,-2.887776573394282,-1.8700088184669426
0,-3.98165469360936,6.103008068847527,-1.0060848954858597,1.85312196384227,-1.8650087948881549
0,1.1900660277609454,4.653850109547501,-0.4342156561858215,0.39402051119323644,-1.8600087713093671
0,7.071787239721488,6.644692924138421,5.5076542617192015,3.804919073499483,-1.855008747730576
0,2.333508933628405,9.635536509791706,9.039524852023465,4.015817655442817,-1.8500087241517882
0,5.515231100485606,2.8763808630329404,3.831396108093403,-1.2832837385448133,-1.8450087005730005
0,0.6569537308931827,9.837225979715823,7.273268022695565,1.6676148957479209,-1.8400086769942128
0,-7.731323184818326,-2.931928144907693,-2.81485941195779,-1.5514864375729527,-1.8350086534154215
0,-0.7395996562984817,-5.361081515969888,-4.352986203971044,-0.14058773441681438,-1.8300086298366338
0,-5.79787569291113,4.859765861348426,1.1488876385506317,-0.6596889906617844,-1.825008606257846
0,-4.636151303638202,-5.229386018013363,-5.9592378923055715,-4.948790202106994,-1.8200085826790584
0,2.4355735029120957,0.36146284098061704,1.8126371957622132,3.6921086355834247,-1.8150085591002671
0,-2.1727012815988145,-5.797687566502145,-3.7954871047474814,-1.5469924731374847,-1.8100085355214794
0,-1.7109756653874828,1.2231627549241457,0.21638919882486227,1.2239064762032434,-1.8050085119426917
0,2.7207503434032225,1.0440138008441209,-0.911733900727888,-0.9551945119487206,-1.800008488363904
0,3.422476736644222,-6.585134433048891,-3.9298564104948026,6.935704566803842,-1.7950084647851128
0,-0.08579649392109068,-12.78428195085581,-7.407978337373148,3.9866037166794728,-1.790008441206325
0,-3.9840693567039542,-7.183428756114726,-4.056099687890137,-0.8524970584327192,-1.7850084176275374
0,1.6676581398742347,8.99742514837698,-1.6542204680924961,1.7984022450574637,-1.7800083940487461
0,-0.7706140125164291,-2.2917202397687912,-2.1523406836204786,5.229301630556441,-1.7750083704699584
0,-9.758885822091523,-5.11086492292952,-4.150460339833423,6.300201101235725,-1.7700083468911707
0,2.802842703166189,-5.220008903417943,-3.028579441826702,3.2711006598638406,-1.765008323312383
0,0.2945715555683428,1.4008478167592016,4.71330200556307,1.9920003087491298,-1.7600082997335917
0,-0.6236992724364223,0.8017052358859541,-1.1648160023824283,5.912900049810652,-1.755008276154804
0,-5.681969788369128,-1.4074366476583775,0.807066529565943,-1.5562001153578446,-1.7500082525760163
0,-3.280239999594856,0.5434221645055837,1.3689495965593668,-3.5053001853877475,-1.7450082289972286
0,3.211490086804254,0.014281670766785298,1.6108331936729834,-2.7444001589076805,-1.7400082054184374
0,-3.806779536048456,-0.4148581304738146,-0.9372826841129818,6.246499965612502,-1.7350081818396497
0,6.5049511250212095,4.026002759164822,5.484601958074576,10.44740018968228,-1.730008158260862
0,5.676682063075541,10.896864337911401,10.496487114896313,12.768300514339007,-1.7250081346820743
0,8.738413270820242,9.36772660353455,11.55837278050206,10.149200939730228,-1.720008111103283
0,12.000144740333434,13.738589552997881,12.77025894816854,13.780101464913644,-1.7150080875244953
0,0.3218764629011842,8.72945318224524,8.252145610101074,8.011002087817275,-1.7100080639457076
0,2.243608429102817,8.700317486158493,4.81403275746425,4.441902805318788,-1.7050080403669199
0,4.68534062907716,7.891182458649287,4.445920380592535,4.762803613468643,-1.7000080167881286
0,-1.502926947304646,5.782048092787645,-0.25219153073717115,-0.06629549223946163,-1.695007993209341
0,-2.8711943103450768,2.652914380933665,-1.4803029870662403,-0.8753945166358406,-1.6900079696305532
0,-3.4294614703288264,1.3237813149181163,1.741586000963416,1.6155065353200704,-1.6850079460517655
0,-4.207728437318865,3.584648886231904,-0.826524577294788,-0.14359234136502014,-1.6800079224729743
0,-0.37599522106875105,-3.8944829138452883,-0.6646347324906199,-3.692691151695739,-1.6750078988941866
0,-3.9542618310436763,2.976385905862972,3.697255524718425,0.9082100993789118,-1.6700078753153988
0,5.777471723488709,-4.762744663462971,1.8091461836061618,-1.5208885929743339,-1.6650078517366111
0,9.819205433240317,1.1681253694299047,3.281037233269605,0.5700127665024068,-1.6600078281578199
0,4.530939288542423,1.1189959958853322,-1.337071337418366,-0.49908582688789505,-1.6550078045790322
0,-2.7673267208411017,-4.310132792699529,-7.285179539694956,-4.728184377790633,-1.6500077810002445
0,-0.1255926055183464,-9.60926100480423,-6.153287384623993,-2.837282890705192,-1.6450077574214568
0,-0.5938583761599543,-6.118388648513561,-9.891394882779887,-7.5963813698341935,-1.6400077338426655
0,-0.8221240433727297,-2.9975157312963217,-4.699502044059281,-9.835479818913585,-1.6350077102638778
0,-6.620389617661478,1.2533577399278055,-1.1176088776804292,-4.5045782410370006,-1.63000768668509
0,-7.798655109277016,4.064231758501182,-8.225715392334738,-8.183676638577033,-1.6250076631062988
0,-6.136920527977365,5.335106317698799,-2.5138215962820896,-5.692775013221997,-1.6200076395275111
0,-5.235185882888375,-7.284018589450419,-1.441927497356403,-6.481873366013588,-1.6150076159487234
0,-3.693451182530872,-11.763142969970069,-6.240033103020261,-0.8009716973961323,-1.6100075923699357
0,-4.811716434919249,-4.052266830461344,-5.238138420386764,0.3899299926284129,-1.6050075687911445
0,-5.239981647618376,-4.1713901768265345,-2.7362434561478746,1.4908317042612738,-1.6000075452123568
0,-5.868246827732316,-6.6105130143476565,-5.264348216544166,-1.1982665622805984,-1.595007521633569
0,-6.576511981851228,-2.6096353478065617,-2.902452707404021,-5.217364806778393,-1.5900074980547814
0,-5.534777116000199,-6.538757181514527,-0.7205569341924895,-0.8664630288758638,-1.58500747447599
0,-2.4430422356398074,-6.5478785193019,-6.798660902062451,-0.9155612279794143,-1.5800074508972024
0,-0.2213073457711347,-5.806999364461777,-4.746764615843714,6.505340596653239,-1.5750074273184147
0,-5.639572451091918,-5.986119719694348,-5.984868079932275,7.056242445649308,-1.570007403739627
0,-6.827837556019564,-10.465239587079745,-9.212971298175587,-4.2628556807199,-1.5650073801608357
0,-2.6661026645627657,-6.044358968006138,-8.90107427376915,-5.411953782456971,-1.560007356582048
0,1.895632219711255,-2.9234778631335834,-0.82917700917678,-0.0810518594879108,-1.5550073330032603
0,0.09736709348650074,-6.112596272501268,-0.0472795062524419,-2.810149911461089,-1.5500073094244726
0,1.269101953473939,7.70828580427105,9.97461823339101,4.730752062175444,-1.5450072858456814
0,-0.34916320367693854,10.289168367644455,6.51651620793496,2.8516540619786577,-1.5400072622668937
0,0.33257161862837287,0.7100514177107036,2.9384144150257248,0.19255608833103943,-1.535007238688106
0,0.11430641695788066,2.990934953998944,0.09031285175720934,0.6334581414042413,-1.5300072151093183
0,-2.0439588121227987,-7.5081810243115745,-4.417788485078987,0.1143602212485191,-1.525007191530527
0,-0.7322240720035254,-6.077296518011386,2.934110401284914,0.0852623278656466,-1.5200071679517393
0,-0.8104893659816363,-0.11641152754498585,4.626009507657008,-2.4438355387505877,-1.5150071443729516
0,-0.758754697254541,-5.00552605293682,-7.382091169221659,-4.372933378530013,-1.5100071207941639
0,-5.527020068907373,-1.9446400938800725,-8.310191632594423,-2.112031191196606,-1.5050070972153726
0,-8.025285483790164,-15.573753649702693,-7.558291885315731,-4.16112897617885,-1.500007073636585
0,-3.373550944311064,-9.772866719100216,-6.91639192955908,-3.7602267325824927,-1.4950070500577972
0,1.0381835476288028,-5.7619792998488295,-0.08449176680471324,-4.619324459163522,-1.4900070264790095
0,-0.20008200954220073,-7.221091388791758,-1.3425913980371125,0.7415778456815932,-1.4850070029002183
0,-1.1783476172911231,-4.5402029820259235,-6.040690823953071,-5.597519816141958,-1.4800069793214305
0,-3.126613277034624,-3.5493140750522723,0.24120995498948408,-1.0866174424777237,-1.4750069557426428
0,-2.8848789900540406,-3.9884246628842193,0.513110938578005,-1.7557150309176424,-1.4700069321638551
0,4.696855242554421,-4.977534740123715,0.3450121267305179,-0.7848125788345746,-1.4650069085850639
0,8.658589419717618,2.9433556989902963,5.546913519336957,3.656089916520125,-1.4600068850062762
0,10.810323540001853,6.234246660410128,11.488815116053944,6.406992457845111,-1.4550068614274885
0,10.13205760123666,14.98513814988269,7.360716916000486,9.317895047522537,-1.4500068378486972
0,5.55379160033546,2.4260301725061866,4.702618917530095,-0.6412023126067786,-1.4450068142699095
0,7.0555255333488756,4.416922732576001,4.454521118272577,5.029700378764359,-1.4400067906911218
0,-1.562740604351279,0.8978158337826647,1.6964235153180145,1.2206031225707283,-1.435006767112334
0,4.688993182161391,4.278709479457217,3.3383261053732474,5.361505919459885,-1.4300067435335428
0,6.16072688751431,11.519603672601333,9.960228884802788,7.8924087697376155,-1.4250067199547551
0,3.1824605059881526,10.040498415669868,3.102131849520498,-0.8066883267337798,-1.4200066963759674
0,-2.555805968527732,-1.9086062896456326,1.274034994901323,3.094214629482509,-1.4150066727971797
0,-0.7440725423717791,6.162289557682006,4.695938315883852,2.4151176375378656,-1.4100066492183885
0,-4.482339221858713,4.1531859582596855,0.8378418071045318,0.7860206963786373,-1.4050066256396008
0,0.26939398687450583,9.424082912295932,1.9997454629467468,-1.1930761952193785,-1.400006602060813
0,2.981127077862752,7.864980419432042,3.7216492775691394,2.4878269614272117,-1.3950065784820254
0,3.782860045150199,9.955878478573936,2.9035532448990646,3.838730164927521,-1.390006554903234
0,-3.9154071173767533,-5.2032229121252245,-4.624542641366345,-0.8003665862645244,-1.3850065313244464
0,1.3663255840444477,-10.962323754931345,1.1173616123655998,-0.4194632938664903,-1.3800065077456587
0,3.6380581431529717,7.288575948011957,5.349265999703704,4.181440040309408,-1.375006484166871
0,0.23979055361960722,3.39947619482943,0.541170514177205,2.092343414347827,-1.3700064605880797
0,3.3315228089478865,-1.109623016397915,1.4830751490982501,-2.006753173842964,-1.365006437009292
0,1.9632549024421537,-0.018721687796710185,0.6949798975825092,0.024150273518347642,-1.3600064134305043
0,-0.5750131727873944,-0.5278198215765086,-1.9631152473597075,1.8950537541978034,-1.3550063898517166
0,4.036718576204312,2.9430825800550164,3.1387897072463495,3.1859572659311874,-1.3500063662729254
0,1.8784501422062998,11.093985514777048,8.260694754294459,3.8868608062953944,-1.3450063426941377
0,3.740181517793177,8.314888979854345,6.5025998863654255,0.8577643726047998,-1.34000631911535
0,6.5019126952449025,10.475792971810813,5.964505095481213,3.1586679619025655,-1.3350062955365622
0,14.663643666388202,10.536697486259905,4.95641037302834,8.529571570957593,-1.330006271957771
0,1.4853744223422656,-1.2923974820868864,-1.7816842901426848,-1.3295248038207592,-1.3250062483789833
0,-10.672895046460596,-7.881491939128633,-5.249778903469594,0.06137883361517188,-1.3200062248001956
0,-0.9511647497737938,-1.2705858908384684,1.8421265236316424,4.5622824791053604,-1.3150062012214079
0,-2.7894346970456785,-1.4396793428940386,1.2740319818998773,2.4231861283421536,-1.3100061776426166
0,-6.507704897332669,2.6812276992913375,3.2459374620923267,4.274089776772825,-1.305006154063829
0,-4.695975359312766,-0.017864769628901045,-3.1321570451517915,0.08499341954001913,-1.3000061304850412
0,-4.184246091213173,-2.3269567550418007,-6.600251549237484,-0.024102948458403828,-1.29500610690625
0,-2.882517100794841,8.74395173761268,-1.0883460593760386,-0.9231993324403465,-1.2900060833274622
0,-0.7007883954370094,10.354860702688347,1.4935594155377825,1.5677042623620108,-1.2850060597486745
0,-3.7490599822436863,4.025770133999267,-1.254535133201333,-0.5913921692842917,-1.2800060361698868
0,5.59266813185951,2.2166800246708145,3.797370285721507,0.38951136736519326,-1.2750060125910956
0,9.964395939922813,-3.842409632654057,3.0092756635265587,-1.7295851329550134,-1.2700059890123079
0,4.8261234346137405,4.468501154491254,4.801180991213937,-3.4586816754565795,-1.2650059654335202
0,7.977850607958419,5.399412378494133,6.71308625943207,2.7922217347733542,-1.2600059418547325
0,4.869577451304573,-0.8096759684680299,6.724991458351575,-2.366874907239866,-1.2550059182759412
0,-3.7386960445646267,-1.4787638944719232,-3.5031034223782376,-2.2759716064066238,-1.2500058946971535
0,2.083030110810183,-3.067851407668648,2.168801606525427,-0.9850683675363805,-1.2450058711183658
0,-0.18524409219143984,-1.9969385160814346,1.6507065342050369,0.21583480470788954,-1.240005847539578
0,0.23648133679840022,-3.606025227509669,-0.8773886502668808,3.616737905741709,-1.2350058239607868
0,0.5682063881168734,-5.8151115494736185,1.2145160421069807,3.8576409308990494,-1.2300058003819991
0,-1.4900689479198175,-1.374197489143982,1.5564206002607952,4.268543875262532,-1.2250057768032114
0,-6.058344680948356,-1.7332830533347994,0.9183250130517694,0.4694467335777023,-1.2200057532244237
0,-3.24662082039847,-6.002368248568336,-5.7197707307283725,-0.869650499687926,-1.2150057296456325
0,1.4851026246240009,-0.7914530810830223,-2.45786664221569,3.2012521697902656,-1.2100057060668448
0,-3.033174354729292,8.369462443120515,0.34403726769045134,3.4821547362320677,-1.205005682488057
0,-2.2014517671576366,4.040378317999101,-2.6840590116774963,6.313057193635456,-1.2000056589092694
0,5.360270378755201,10.491294537096849,4.237844509132327,9.333959535587939,-1.195005635330478
0,3.9819920744156834,1.8422110933453022,-2.0002521804131925,0.26486175511323506,-1.1900056117516904
0,-0.9262866889850978,-8.656872020849226,-5.1083490908588844,-1.844236155276044,-1.1850055881729027
0,2.7454340794883807,0.2540451867815976,0.3735537673596316,3.9366657966782377,-1.180005564594115
0,-5.862845629356641,-7.68503729124558,-7.1745436159506415,-1.0724323968510545,-1.1750055410153237
0,-2.8111258246542916,-5.974119462000436,-3.162641250666108,-0.6315307437615426,-1.170005517436536
0,-5.399406515284382,-1.1032013320735947,-7.220739146255776,-3.4406292519600274,-1.1650054938577483
0,-3.397687709746323,-6.182282907586838,-6.018837311690714,-5.309727929211974,-1.1600054702789606
0,-3.275969416134746,-0.7013641942745248,-4.516935755381821,-0.6088267830022408,-1.1550054467001694
0,-1.3542516421846766,2.9195548024170344,-2.075034485204436,-3.317925820499078,-1.1500054231213817
0,0.667465604634699,12.180474077079285,5.126866491344261,5.002974951352114,-1.145005399542594
0,-4.160817682988069,1.4213936239464489,3.448767166839964,6.603875525612226,-1.1400053759638062
0,-1.0591015122279503,-11.277686563224856,-5.909332466295498,0.6047758950794168,-1.135005352385015
0,-2.087385890077186,-8.316766490719084,-5.547432415702935,0.6156760521904877,-1.1300053288062273
0,-5.275670823308922,-8.015846164266245,-5.225532688754541,-2.3734240108316538,-1.1250053052274396
0,-14.743956318351119,-6.224925588793439,-6.113633292333761,-5.082524301752793,-1.1200052816486483
0,-5.022242380991984,-6.9940047684696385,-3.401734232791805,0.34837517185096767,-1.1150052580698606
0,-2.3805290162031607,-1.7430837068095069,-3.6498355159894187,2.0492744026222467,-1.110005234491073
0,5.811183771641204,-1.2821624068217414,5.312062852572062,6.040173383242516,-1.1050052109122852
0,12.602895978247593,5.528759128754406,7.963960867468338,5.141072106162434,-1.100005187333494
0,9.584607598833331,8.159680897127506,11.405858522927652,7.421970563389612,-1.0950051637547062
0,7.0963186277517325,17.000602895043354,13.027755812421363,14.222868746317,-1.0900051401759185
0,7.9080290584428035,6.651525118368689,10.089652728399855,6.113766645520828,-1.0850051165971308
0,7.0297388835421675,-1.6875524380347902,9.45154926220899,2.294664250682931,-1.0800050930183396
0,3.781448094970577,-0.18662977997023278,1.5734454041996464,4.025561550789863,-1.0750050694395519
0,12.253156683989713,16.634293086458907,13.025341143933325,7.476458534365325,-1.0700050458607642
0,8.164864641156221,8.24521615470172,5.017236470276613,4.437355189483813,-1.0650050222819765
0,3.106571956225689,8.616139417360568,7.779131371353627,5.678251503692069,-1.0600049987031852
0,4.988278618228673,2.9870628661051573,6.541025834550042,10.059147463968634,-1.0550049751243975
0,10.42998461562385,4.817986491885952,5.262919846573462,10.80004305662035,-1.0500049515456098
0,2.381689936293233,1.8989102851557615,-2.745186606438579,9.01093826710347,-1.045004927966822
0,0.4033945675375482,-0.060165763979947884,0.8767064613154003,4.5418330799531095,-1.0400049043880308
0,-4.124901503698901,3.640758334358556,-1.9414009644431072,2.7127274789238514,-1.0350048808092431
0,-2.5031982904920675,2.181682569876208,0.2804911020584224,1.5136214472438958,-1.0300048572304554
0,-1.4614958057212353,7.7626069320341005,0.6023826466472479,0.23451496783861903,-1.0250048336516677
0,3.680205937935411,1.5035314099272399,3.234273655148209,1.2654080234709835,-1.0200048100728765
0,6.201906927813314,8.574455992203191,5.246164113257666,8.046300596762183,-1.0150047864940888
0,7.1136071509693135,5.485380667009435,6.148054006373556,4.657192670047976,-1.010004762915301
0,-2.684693406003832,6.296305421925105,-0.25005668052959007,2.2580842252107947,-1.0050047393365134
0,-3.092994756862686,-0.7727697560380129,-5.11816796281113,-3.2110247562761334,-1.000004715757722
0,3.1187030845799297,-2.0218448802526345,4.023720144096766,-3.1101342930873517,-0.9950046921789344
0,-5.239599895397856,-4.130919964175679,0.5856076248161065,-5.4992444037542025,-0.9900046686001467
0,1.3720962895793418,2.280004978877242,-1.8025055360563247,-1.7983551064851455,-0.985004645021359
0,-7.136208373969338,-6.189070064222633,-6.640619353925655,-7.6974664191017705,-0.9800046214425677
0,-10.264513899230069,3.041854893557534,-0.44873384400669014,-6.566578358979715,-0.97500459786378
0,-3.992820298854869,5.392779839339762,0.8931509787744524,-11.505690942906226,-0.9700045742849923
0,-4.4911275848314025,-10.916295239793405,-8.824964900286886,-13.064804186870504,-0.9650045507062011
0,-12.299435768523532,-8.035370356677848,-6.9730814956205,-7.653918105869983,-0.9600045271274134
0,-4.667744860643749,0.21555447629365365,-5.961198821146263,-3.6130327138962626,-0.9550045035486256
0,-3.066054871188781,-5.25352075271811,0.7706831098223956,-5.022148024154621,-0.950004479969838
0,-7.1643658095399125,-5.522596055136633,-9.187435715552422,-10.52126404926606,-0.9450044563910467
0,-1.4226776845948246,-2.9616714419977117,-8.885555309670123,-8.160380801227634,-0.940004432812259
0,-6.010990504815496,-11.860746923863823,-11.763675684288586,-6.359498291270347,-0.9350044092334713
0,-10.679304278206144,-8.699822510681633,-8.431796850283874,-9.318616529828716,-0.9300043856546836
0,-6.527619012175111,-4.158898211620938,-8.01991881757681,-9.587735526556864,-0.9250043620758923
0,-4.155934713399622,-0.987974035120134,-4.718041595215425,-6.396855290291571,-0.9200043384971046
0,-3.7542513878993913,-13.047049989077903,-10.03616519150061,-4.155975829072635,-0.9150043149183169
0,-1.7925690412144375,-6.706126080844219,-10.654289614006599,-3.635097150292652,-0.9100042913395292
0,0.2891123214341174,-5.7252023170444994,-11.052414869450741,1.2357807391027742,-0.905004267760738
0,-6.209207304961334,-8.824278703542946,-7.970540963568391,1.466657832401916,-0.9000042441819502
0,-10.61752792513687,-3.9533552455123653,-6.738667901137666,0.06753412292562219,-0.8950042206031625
0,-6.4358495433001215,-14.51243194743866,-12.806795686067808,-10.621590396003784,-0.8900041970243748
0,-14.50417216287628,-19.88150881293908,-19.144924321332756,-13.530715730768634,-0.8850041734455836
0,-12.0524957863324,-7.5305858444205045,-8.623053808707642,-9.249841886988044,-0.8800041498667959
0,-11.220820415022784,-18.379663042891224,-12.41118414862911,-3.13896886928424,-0.8750041262880082
0,-7.499146049149862,-13.498740407981668,-11.679315340303136,-6.208096681433187,-0.8700041027092205
0,-5.947472687906029,-6.327817937979677,-10.61744738180324,-3.1572253266181076,-0.8650040791304292
0,-6.395800329678649,-6.876895629990089,-7.805580270118444,-5.756354807550807,-0.8600040555516415
0,-7.644128972185358,-8.74597348022592,-10.333714001236354,-7.595485126471022,-0.8550040319728538
0,-11.992458612460208,-6.025051484162361,-13.011848570197017,-3.824616285085275,-0.8500040083940661
0,-9.900789246713536,-4.21412963657741,-8.129983971045581,-3.6037482845481987,-0.8450039848152748
0,0.030879129748082934,1.2267920683215843,-1.4381201968432205,3.347118874412711,-0.8400039612364871
0,3.3225465222977038,10.247713636588584,2.7337427600448114,4.377985191232791,-0.8350039376576994
0,2.3342129365258018,9.738635074063243,3.5156049074918108,-0.0411493347701707,-0.8300039140789117
0,1.215878377897243,1.4695563859607974,-3.702533746705413,-0.5002847044938702,-0.8250038905001205
0,5.397542851647742,-5.9995224231158755,1.539326805145545,2.510579081035439,-0.8200038669213328
0,9.049206362704991,0.011398651229048318,6.901186570688485,6.341442020684372,-0.815003843342545
0,6.3708689154968035,7.782319613467908,9.243045557355874,5.432304113052758,-0.8100038197637573
0,1.2525305138183107,3.70324046799763,6.024903772053498,12.843165356240222,-0.8050037961849661
0,5.164191160917256,3.404161218856253,2.6667612210060927,5.58402574763147,-0.8000037726061784
0,5.295850859627062,2.935081869656029,3.7186179098650456,6.174885283797607,-0.7950037490273907
0,0.4475096123918335,-3.473997576302791,1.7504738438803704,-3.6742560393680757,-0.7900037254485994
0,5.679167421283049,-0.7630771158434652,1.1623290280142462,-0.12339822632181749,-0.7850037018698117
0,-3.3991757119222066,2.257843254250044,5.744183466995127,0.9874587184270053,-0.780003678291024
0,-3.2475197855943443,-1.4112364627576444,4.476037165276845,2.2283147903877896,-0.7750036547122363
0,4.204135201932703,-1.150316263603258,-1.0021098730388576,1.8491699849936971,-0.770003631133445
0,6.185789252351341,6.460603854965653,4.9397423558343245,7.220024297484259,-0.7650036075546573
0,5.377442367116787,8.601523896055527,5.541593855420296,11.940877722722593,-0.7600035839758696
0,9.389094547188149,7.192443862319402,7.863444628877991,9.72173025489955,-0.7550035603970819
0,3.3207457929024455,7.613363755724764,7.905294678809474,10.75258188728051,-0.7500035368182907
0,9.61239610394648,11.374283577472466,12.857144007092325,10.423432612115661,-0.745003513239503
0,9.494045479331149,9.235203327924676,12.538992614703542,8.404282420647961,-0.7400034896607153
0,3.565693917326781,7.246123006530163,9.76084050154466,8.105131303164576,-0.7350034660819276
0,5.027341415484189,9.417042611842627,9.842687666397033,8.915979249074736,-0.7300034425031363
0,4.118987970787389,7.357962141583439,9.424534107009306,6.026826246969648,-0.7250034189243486
0,0.24063357978980496,2.2388815927041184,7.056379820181383,1.2776722847117385,-0.7200033953455609
0,11.502278238674611,8.53980096150769,8.788224801844871,6.078517349608695,-0.7150033717667732
0,9.403921943148026,13.910720243685793,14.210069047083861,6.459361428533146,-0.7100033481879819
0,5.785564688200085,9.891639434120306,10.381912550023785,3.2802045078905873,-0.7050033246091942
0,8.157206468006798,21.842558526589244,15.2137553036676,6.751046573573777,-0.7000033010304065
0,3.8988472760100232,19.433477513468436,9.655597299810378,5.7718876109618185,-0.6950032774516188
0,0.970487105054756,6.604396385496539,2.2474385291024883,10.42272760486397,-0.6900032538728276
0,2.702125947570901,-1.2646848680422966,-0.26072101864271735,1.2335665394329605,-0.6850032302940399
0,-1.8362362042481646,-0.8437662586762442,0.42111864597911053,5.914404398193088,-0.6800032067152522
0,6.745400641649745,3.387152201834146,4.772957512230982,5.6252411641563445,-0.6750031831364645
0,6.007036477111198,-2.821929498316072,2.284795569222152,3.236076819868476,-0.6700031595576732
0,6.338671293579301,0.538988629038266,4.2666328057972445,3.6169113474174166,-0.6650031359788855
0,-1.2196949180214398,6.549906572035235,6.328469210455949,1.3777447285034317,-0.6600031124000978
0,-5.2180621671251135,-0.8291756813134612,-5.139695228665309,-5.671423055417456,-0.6550030888213101
0,-2.986430463165948,-5.898258143174799,0.3321394763451986,-3.4305920228882743,-0.6500030652425188
0,-3.1547998153051275,-8.157340825655336,-7.506026686556803,-7.679762192170221,-0.6450030416637311
0,-8.60317023233031,-4.186423740441526,-6.834193729115645,-10.968933581015596,-0.6400030180849434
0,-6.301541722562402,-0.41550689866871726,-4.732361662584903,-13.338106206429819,-0.6350029945061522
0,-12.339914293684094,-13.49459031099253,-14.990530497578494,-11.707280084413599,-0.6300029709273645
0,-14.948287952527881,-15.553673987478483,-15.218700243870254,-15.546455229786853,-0.6250029473485768
0,-8.376662704854104,-14.932757937193761,-10.76687091009164,-18.67563165605789,-0.620002923769789
0,-5.995038555298168,-6.941842167900576,-15.72504250356698,-15.854809375249573,-0.6150029001909978
0,-4.943415507574246,-6.660926686144799,-7.5032150303373255,-19.163988397749893,-0.6100028766122101
0,-6.241793564723914,-5.130011497567147,-14.671388495241708,-16.66316873225011,-0.6050028530334224
0,-6.650172729218973,-3.9890966071556946,-8.31956290198958,-15.722350385740144,-0.6000028294546347
0,-11.378553002914439,-10.318182019347155,-10.497738253207313,-15.031533363563657,-0.5950028058758434
0,-11.42693438689458,-9.05726773796016,-13.305914550480464,-20.02071766947956,-0.5900027822970557
0,-10.17531688128723,-15.586353765992598,-15.044091794302114,-14.219903305639251,-0.585002758718268
0,-1.3437004852291994,-7.5554401054108,-14.052269983921036,-11.67909027258364,-0.5800027351394803
0,0.4379148028912856,-6.824526757102286,-7.240449117263662,-6.558278569430813,-0.575002711560689
0,0.8295289850372003,-0.1536137210773008,-8.398629191066648,-4.027468194219816,-0.5700026879819013
0,-3.218857936750095,-7.2027009967696225,-8.0468102011143,-4.876659144251381,-0.5650026644031136
0,0.18275403961487569,-3.4817885831994575,-2.0849921424169824,-4.165851416304177,-0.5600026408243259
0,-4.125635083667221,-5.660876478958868,0.3368249906099531,-2.7150450067227667,-0.5550026172455347
0,-1.994025304215744,2.580035317785727,1.6286412038547773,1.105760088503121,-0.550002593666747
0,2.3775833805490123,0.5009468091372626,0.970456503247511,3.246563873567398,-0.5450025700879593
0,1.9191909733102421,1.3018579972438622,5.742270894604328,5.037366352605308,-0.5400025465091716
0,-0.08920252330934644,1.7027688841640762,-0.20591561647271783,-1.5618324704900446,-0.5350025229303803
0,6.432402893161496,9.593679471781844,8.185896975327651,4.588967407914745,-0.5300024993515926
0,2.9540072249601486,6.434589761611094,2.6677086749656085,5.0397659912252415,-0.5250024757728049
0,3.605610473986481,4.675499754580669,5.14951948697339,5.71056328252928,-0.5200024521940172
0,-2.2327873581982995,4.946409450996474,4.871329415434502,2.50135928447404,-0.5150024286152259
0,1.098813729771703,-0.6926811493376158,1.953138463999482,0.2721539992848708,-0.5100024050364382
0,4.770413739183271,12.788227952987432,9.234946635893339,0.9129474289138114,-0.5050023814576505
0,2.4720126711830748,4.489136756918175,5.106753933865912,-0.2662604248133257,-0.5000023578788628
0,1.9536105266589665,7.440045260766593,6.358560360088565,0.9445304398748056,-0.49500233430007157
0,-0.7647926937569094,5.990953462155105,5.020365916123163,2.4153200246976607,-0.49000231072128386
0,-12.033196989502246,-9.69813864183875,-7.61782939695627,-5.603891668683559,-0.48500228714249616
0,-3.6516023597331486,-3.5472310543077623,-8.746025578206378,-4.0431046385561755,-0.48000226356370845
0,-2.0200088030586727,1.4536762218961599,1.095777373639353,2.657681117014883,-0.4750022399849172
0,6.041583682355601,3.594583184193121,3.9175794602719947,-0.09153439983002923,-0.4700022164061295
0,-2.426824901552247,-1.89451016998043,0.999380683500626,-1.9707511869008218,-0.4650021928273418
0,1.8347654470549344,1.976396156700975,1.4311810449830333,-0.3799692419938565,-0.46000216924855053
0,2.716354729906405,-3.532697838491324,2.1929805461929694,0.8008114371569179,-0.4550021456697628
0,2.5879429486045566,-7.471792158201959,-0.005220811551849891,5.33159085282801,-0.4500021220909751
0,0.4795301045577932,-0.9708868047957011,-1.2434230270468827,2.3323690071438925,-0.4450020985121874
0,-0.5188838010072655,-1.8899817802549084,2.208373900868256,5.203145901928638,-0.44000207493339616
0,-0.14729876694660024,-3.149077086257774,0.9801699733261684,1.3939215386511876,-0.43500205135460845
0,1.0942852078723089,-0.1181727242673496,2.831965191367813,-0.5953040815291453,-0.43000202777582075
0,6.345868124531477,6.742731304382601,6.423759555842606,8.785469042316155,-0.42500200419703305
0,5.847449983889583,7.263634998242097,3.8755530672830067,8.486240910806073,-0.4200019806182418
0,2.609030786389321,7.1245383554166795,5.477345725780805,4.957011524007868,-0.4150019570394541
0,1.3206105320273094,7.375441373364901,3.8291375309559217,1.937780881335978,-0.4100019334606664
0,-6.217810779470757,-4.01365595108809,-2.9490715179783726,-4.011451018259152,-0.4050019098818787
0,-3.706233148352421,0.26724637849166255,-1.7972814220255597,-2.430684175957739,-0.4000018863030874
0,0.305343425402523,0.4881483584522731,1.134507817831768,2.9500814071703516,-0.3950018627242997
0,3.2169189420657838,4.389049985146331,1.8662962006832775,4.1408457301329475,-0.390001839145512
0,10.5984934018826,10.109951254758231,10.52808372553121,7.01160879177015,-0.3850018155667243
0,6.140066804701309,10.110852162990666,12.839870390958003,9.3823705904859,-0.38000179198793305
0,5.741639149717971,9.98175270476015,9.63165619473822,11.513131124010668,-0.37500176840914534
0,3.2232104354670805,12.632652874021018,7.2334411336297,9.823890389196016,-0.37000174483035764
0,3.884780659957155,8.973552663693011,1.4652252034775937,11.25464838189407,-0.36500172125156993
0,0.5163498208049913,1.6244520657009962,0.43700839951249393,6.685405096945793,-0.3600016976727787
0,2.247917915344328,4.585351071206791,6.138790716627,7.156160528265352,-0.35500167409399097
0,5.7794849406868085,1.9362496708934493,9.010572149415022,9.686914668955602,-0.35000165051520327
0,4.931050893654561,5.237147855103524,11.782352691934687,10.897667511324377,-0.34500162693641556
0,4.622615770652949,-1.1319543861333976,2.984132337457929,11.708419046774042,-0.3400016033576243
0,4.454179567613001,1.2589429369658045,3.185911078477626,9.429169265686905,-0.3350015797788366
0,9.855742279972604,10.539839813991556,10.42768890689532,11.01991815739647,-0.3300015562000489
0,-2.1126960973622877,-2.449263765757922,4.519465814068511,-0.5293342897247569,-0.3250015326212612
0,3.488864430047503,15.35163218657297,5.101241790739389,3.3914119119845014,-0.32000150904246993
0,4.4504238563393,9.562527659233078,10.663016827020435,6.112156749759299,-0.31500148546368223
0,-4.628017824565508,-2.1865773603137018,-0.935209087588929,2.472900210492692,-0.3100014618848945
0,-1.7264606188574199,-4.215682885233092,-3.273435964087543,5.23364228068303,-0.30500143830610327
0,-3.6949045326226995,-3.154788928814747,-3.261663813631855,2.414382946426701,-0.30000141472731556
0,-9.043349571653714,-6.343895504084349,-10.709892647155547,-4.614877806499256,-0.29500139114852786
0,-5.7917957412826615,-4.6530026236534585,-1.78812247511596,-5.364139992403407,-0.29000136756974015
0,-7.790243046221956,-4.132110299660958,-4.236353307411417,-5.743403625350858,-0.2850013439909489
0,-1.2586914905328122,2.5487814561830877,2.235414846496518,0.9773312810208656,-0.2800013204121612
0,-0.5071410777618027,-0.050327367589991345,0.9771819773483862,-4.881935286551353,-0.2750012968333735
0,-2.4055918111571764,8.380563217536675,1.308948075885324,0.5187966589219564,-0.2700012732545858
0,-2.2540436937994626,-2.2585468001452353,-3.989286867223525,-3.21047289537335,-0.2650012496757945
0,-0.37249672860239735,-2.68765743259292,-2.077522861283132,-4.7597439620502575,-0.2600012260970068
0,3.7390490816487514,0.6132313081765335,3.494240084537663,-4.329016553445134,-0.2550012025182191
0,9.120593734107095,-0.9558805897608524,5.096001961117942,-2.848290681522692,-0.2500011789394314
0,1.8021372255777444,-8.344993138197841,-1.4422372408287711,-0.6875663578804954,-0.24500115536064015
0,-3.6963204475776905,-7.014106348645353,-3.83047753079118,1.793156406128146,-0.24000113178185245
0,-0.23477928921566543,-0.8732202321136555,-2.268718918242645,-4.296122400746748,-0.23500110820306475
0,1.7367606968362643,-2.7223347991098454,-0.3569614124550756,4.124597210292933,-0.23000108462427704
0,-5.791700493166886,1.6985499401686506,-3.1352050224877885,-3.534684771916173,-0.22500106104548578
0,-2.61016286284955,-5.100566024323083,-2.6734497572160305,0.5360316414884309,-0.22000103746669808
0,0.15137358439725013,-5.439682702462533,-2.5516956252976897,2.346746439396708,-0.21500101388791037
0,-4.777091154566196,-3.578800103811624,-6.499942635112448,-3.64254038929494,-0.21000099030912267
0,0.5544429173272154,-1.987918237520343,-6.578190794663563,-2.3018288556646564,-0.2050009667303314
0,1.4459757973078504,-11.537037112325947,-0.6964401114743899,-4.3611189706353475,-0.2000009431515437
0,5.257507482635123,-2.5461567364762283,1.2053094073542931,0.06958925513436956,-0.195000919572756
0,-0.21096202959579835,-5.085277117634669,-4.762942245053056,-1.7997041887673215,-0.1900008959939683
0,2.160567257470452,6.045601737008936,-1.0411950754342145,2.9410006873913432,-0.18500087241517704
0,-3.1979046594714204,9.146479820379437,-0.07944909035523087,-0.2382961266374053,-0.18000084883638934
0,-2.6063777837396778,-3.4626428748813973,-3.5877042962108394,-9.417594641102276,-0.17500082525760163
0,-2.314852118509299,6.128233643464925,-0.9959606992442116,-7.3968948660295295,-0.17000080167881393
0,1.1266723332546558,0.3891093673720861,-3.8142183055132532,-8.886196810879296,-0.16500077810002267
0,-6.591804431233996,-3.2800157113906834,-2.362477120841983,-9.115500484338813,-0.16000075452123497
0,-1.4402824145594864,-12.129141601043305,-9.120737150759872,-6.674805894270655,-0.15500073094244726
0,-2.578761619028742,-11.108268309369075,-11.928998400311542,-8.644113047727775,-0.15000070736365956
0,4.012757953296126,-2.5973958433448425,-3.397260873820476,-7.143421950989253,-0.1450006837848683
0,3.25427630040511,10.053475790775982,3.704475425124265,-2.642732609610322,-0.1400006602060806
0,2.5257934201178815,5.474346586901135,7.266210493268678,-3.0220450285513745,-0.1350006366272929
0,-4.612690689978963,-4.284783461405606,-7.49205567275224,-4.211359212350449,-0.13000061304850163
0,-4.67117603235541,-4.303914360878875,-7.770323076408684,-7.280675165180471,-0.12500058946971393
0,-5.269662609247803,-7.743046118138845,-8.008591720859693,-5.779992890758346,-0.12000056589092623
0,-10.138150422434416,-10.022178739328137,-8.986861608590702,-6.869312392231501,-0.11500054231213852
0,-5.006639473082548,-8.421312229880728,-10.35513274127907,-6.158633672128508,-0.11000051873334726
0,-4.495129761682922,-14.320446594356898,-10.50340511971617,-12.067956732318477,-0.10500049515455956
0,-5.18362128812272,-2.039581836357483,-6.271678743751583,-6.047281573912395,-0.10000047157577185
0,0.5678859481803314,2.9512820413383967,-2.599953612376873,-4.006608197216954,-0.09500044799698415
0,-5.670608051840931,7.06214503631043,-1.0382297239662686,-1.8059366018780136,-0.09000042441819289
0,-0.8191032869775458,-5.8769928539683445,-4.946507076526089,-6.105266787093198,-0.08500040083940519
0,-0.327599755773606,-7.706131632152728,-7.824785667756732,-6.804598751669659,-0.08000037726061748
0,-1.5560974565917325,-7.285271300640254,0.4169345050530333,-5.183932493925909,-0.07500035368182978
0,-5.814596387654718,-3.954411861245646,-5.6813465549496485,-10.25326801158353,-0.07000033010303852
0,-2.3930965469584806,0.036446684801953066,-0.22962884427089214,-4.162605301696864,-0.06500030652425082
0,2.1484020677967326,15.677304336546044,4.822087640801949,2.1680556393101256,-0.06000028294546311
0,5.609899459064283,6.878161092745665,6.29380290397291,4.058714815369291,-0.05500025936667541
0,7.061395629132643,11.279016951374238,10.925516948587221,6.589372230358109,-0.05000023578788415
0,3.9128905798519744,7.699871909450336,6.267229777341145,7.150027887774359,-0.045000212209096446
0,-1.3856156874226118,2.540725963114982,5.778941392162594,3.4606817905678797,-0.04000018863030874
0,8.485876828297716,6.541579107808955,8.710651794250998,9.521333941099922,-0.03500016505152104
0,12.017368127633848,9.192431338409476,15.082360984072201,13.351984341077905,-0.03000014147272978
0,11.748858210542364,19.243282649104753,20.414068961103755,9.862632991348484,-0.025000117893942075
0,6.400347076018423,12.994133033024578,14.655775723436795,11.99327989170444,-0.02000009431515437
0,4.801834722096896,3.6349824819936547,8.187481267592943,3.673925040880724,-0.015000070736366666
0,9.033321146049863,19.155830986632495,10.359185588703435,6.454568436723983,-0.010000047157575409
0,3.7748063445018585,16.42667853642853,8.090888680820758,6.50521007639774,-0.0050000235787877045
0,4.396290313473745,3.197525119582514,5.192590537099738,7.335849956464179,0.0
0,2.6577730484757467,1.1083707231217936,5.604291149937796,8.476488072838071,0.0050000235787877045
0,2.3592545446318516,1.789215333402412,6.375990511107052,5.167124420730614,0.010000047157578962
0,4.480734796753461,4.850058936488881,3.1976886118241667,7.667758994652627,0.015000070736366666
0,3.252213799346158,5.680901518181407,4.289385442801345,9.648391788429606,0.02000009431515437
0,1.4836915465895177,9.681743063855142,4.221080994314848,7.4790227951490476,0.025000117893945628
0,4.795168032355481,12.542583558236727,6.272775256225408,5.889652007109806,0.030000141472733333
0,3.986643250214929,-0.5865770147706311,2.0144682179514963,0.8902794159070653,0.03500016505152104
0,2.3281171933953617,-2.3257386719637148,0.9361598684980077,-0.08909498734112786,0.04000018863030874
0,-0.560410145199373,-2.8449014304084455,0.22785019659461841,1.3615287882556326,0.0450002122091
0,-2.1889387728510155,-2.124065307065352,-2.8204608091395573,0.4221507334977841,0.050000235787887704
0,-1.1374686968400165,2.316769681306364,1.5512268399312845,0.8027708391175775,0.05500025936667541
0,4.084000075633603,2.9976035180341576,8.332913132446098,2.603389095763867,0.06000028294546311
0,-3.444532462608717,2.598436186340628,1.0245980568432245,-1.2659945060181093,0.06500030652425437
0,-4.603066318742384,3.469267669211899,3.9762816011888398,-2.3353799757552767,0.07000033010304207
0,-7.641601499751543,0.81009794936204,3.037963753184832,2.9052326770425942,0.07500035368182978
0,7.889861987745541,11.330927009207882,7.249644500191966,8.825843442841546,0.08000037726061748
0,6.151324137313431,10.921754830694486,5.331323829149002,5.186452311819544,0.08500040083940874
0,0.3327849422903456,-1.6974186049435986,1.4130017264927288,7.867059273601447,0.09000042441819645
0,-5.8557556043281345,-4.766593317081653,-1.4853218217533095,5.577664317164512,0.09500044799698415
0,0.615702490382277,8.614230674696149,2.25635317022728,13.218267430802282,0.10000047157577185
0,-1.8528407804892364,11.745053350673201,2.418026688172986,3.6388686020373275,0.10500049515456311
0,3.188614576290022,-0.19412530934027505,4.939698717676417,3.4694678176159286,0.11000051873335082
0,5.21006855393219,-2.5033053261238436,1.661369244064606,0.05006506371079733,0.11500054231213852
0,2.4515211454324217,-2.87248672070991,0.8630382523676355,3.4906603261763616,0.12000056589092623
0,3.90297234344474,3.028330485945144,4.87470572736833,8.441253590622146,0.12500058946971748
0,-5.205577859674762,-3.7708537269986504,-2.093628346358523,-1.7481551576870538,0.1300006130485052
0,-4.864129471647922,-3.450039380293937,-9.861963984335866,-5.497565933804097,0.1350006366272929
0,-3.2926824999784503,-4.309226494501554,-10.840301201828714,-9.106978752755452,0.1400006602060806
0,-2.6912369517926615,-7.868415089830115,-4.4986400134281155,-4.866393629124195,0.14500068378487185
0,2.5802071661041146,2.5723948139521142,1.563019567022398,-2.1158105768848143,0.15000070736365956
0,3.761649847028306,-0.3267968025704866,-0.7453224738646123,-1.7852296095164135,0.15500073094244726
0,-3.4769089157831448,0.004010041318280311,2.6263338506429363,1.4153492597880002,0.16000075452123497
0,2.8645308707911785,6.1648153262945815,5.4379885271983,-1.4740739820436957,0.16500077810002622
0,-3.8740308001547774,-0.6743809671201308,1.8296415422225951,-5.3534993480104776,0.17000080167881393
0,-1.8825939354634138,-3.723578858587797,-3.548707118144282,0.627073149045458,0.17500082525760163
0,-7.111158541795566,-6.772778367764459,-4.567057467862515,-3.8423565034871134,0.18000084883638934
0,-3.299724625473417,-6.161979513988579,-4.435409520702683,-1.871788317998008,0.1850008724151806
0,8.34170780754038,6.588817683853539,8.886236709859674,3.6887776933037606,0.1900008959939683
0,4.533138751357601,6.869613207085808,7.0378812103865345,8.169341518227721,0.195000919572756
0,-3.035431800183728,1.8504070368043966,0.9295239670727447,-1.4100968556727187,0.20000094315154726
0,10.62599614641561,10.001199153625477,2.5811649656288833,5.150462558782004,0.20500096673033497
0,8.027422584296922,5.8619895376111115,6.142804191405997,4.84101974844664,0.21000099030912267
0,0.048847506063363244,-7.877221831723746,-2.6155583705385714,6.491574699815002,0.21500101388791037
0,-7.809729096168405,-9.226434975084732,-5.893922735341247,-0.06787260107044746,0.22000103746670163
0,-5.658307230319861,-9.655649912810794,-9.932288918003717,-3.0873221685331744,0.22500106104548934
0,-8.706886903885492,-3.5048666644900948,-5.390656933011228,-0.7267740170021102,0.23000108462427704
0,-3.2854681237315653,-3.8540852489771567,-2.529026794180538,1.5237718391771438,0.23500110820306475
0,1.595949103848782,-3.1833056845943863,-1.037398514786192,0.1643153857230072,0.240001131781856
0,0.3473647728886929,2.127472010685926,1.1942278922010685,5.824856608295288,0.2450011553606437
0,0.838778877481991,-0.5017521809259908,-1.324147586080176,-0.6046045076230568,0.2500011789394314
0,-1.6598085883186884,-1.110978277177716,-5.092524962430124,-1.8340679767492496,0.2550012025182191
0,-15.048397630378256,-3.8502062957801035,-8.470904249447088,-5.683533813842,0.2600012260970104
0,-4.916988254127486,-7.6494362542646615,-5.139285459282889,-5.013002033444844,0.2650012496757981
0,-7.195580464247561,-3.808668169781507,-6.597668603480405,-9.572472649665007,0.2700012732545858
0,-7.604174264642269,1.1920979409836168,-2.006053692985789,-5.711945676009112,0.2750012968333735
0,5.387230341411004,-9.9571379382739,4.95555926169138,-2.701421125321897,0.28000132041216474
0,-0.8513666490080612,-4.056375823496033,2.7471702501709063,1.5091009900807593,0.28500134399095245
0,3.570034761211353,-1.0156157301618227,2.8087792618932816,0.9996206581362123,0.29000136756974015
0,-1.138565430953989,-0.18485767334090386,4.0903862859989175,4.500137866775531,0.29500139114852786
0,14.3928327712708,9.065898332042638,9.851991311270579,7.6206526037169535,0.3000014147273191
0,4.534229364241715,-1.3433477290915095,-0.45640567398341836,-1.748835143694134,0.3050014383061068
0,-2.234375656301079,2.267404127874435,6.335195318041613,3.2716746115163367,0.3100014618848945
0,-10.822982295007153,-2.9518461126488993,-4.2232057252251565,-9.047818143851343,0.31500148546368223
0,-5.2615905563461585,-3.481098466264071,-5.831608816496935,-9.977313422839039,0.3200015090424735
0,0.5597995557588692,5.629647051538729,-2.180013968328426,-6.066811237947284,0.3250015326212612
0,2.05118803782827,-3.469609574662482,-2.808421192928595,-6.206311600926186,0.3300015562000489
0,-4.747425113465595,-10.328868360244298,-7.00683050214582,-2.225814522841491,0.3350015797788366
0,0.27396009860782555,-11.99812932024876,-9.025241907413148,-5.055320014238795,0.34000160335762786
0,-5.544656329074576,-11.627392468926418,-10.633655419540464,-12.604828085194464,0.34500162693641556
0,-8.023274399358531,-0.6566578195307228,-3.2820710485426408,-6.754338745160106,0.35000165051520327
0,-8.73189411461661,-11.185925384450309,-8.91048880364923,-6.033852002789057,0.3550016740939945
0,-6.3605154765430845,-11.125195175354543,-13.268908693356966,-6.673367865962588,0.36000169767278223
0,-16.11913848603161,-7.234467203101276,-14.037330725284388,-12.792886341859964,0.36500172125156993
0,-5.8477631430535,-13.033741477611072,-9.915754905926406,-3.572407436895321,0.37000174483035764
0,-3.6863894466188567,-7.673018007836482,-2.374181240632145,11.278068843202082,0.3750017684091489
0,-8.915017394948462,-18.992296801707955,-16.922609733805714,-5.051457507058283,0.3800017919879366
0,-10.363646985607705,-21.66157786591921,-22.18104038888796,-19.800986493170406,0.3850018155667243
0,-0.3722782154564272,-13.18086120559676,-11.679473207974686,-16.09051812011651,0.390001839145512
0,0.18908891927158455,-6.950146824203488,-7.087908191596165,-12.580052391632742,0.39500186272430327
0,6.480454422618759,1.5805652760825015,-1.8763453390283042,-6.499589310008639,0.40000188630309097
0,32.82181829833482,23.841275093606043,26.28521535101645,3.630871123574428,0.4050019098818787
0,47.983180548839584,33.28198262612003,33.75677387929176,7.99132890843968,0.4100019334606664
0,51.04454117371524,35.56268786948434,36.38833024463696,10.061784043756763,0.41500195703945764
0,59.02590016835059,49.28339081658547,48.79988444284548,21.502236527978585,0.42000198061824534
0,55.30725752312658,64.74409145646209,50.45143646590656,20.32268635832649,0.42500200419703305
0,55.878613223046635,54.82478977337269,47.76298630141227,17.35313353034211,0.43000202777582075
0,39.40996724774441,45.66548574618128,39.984533932297175,14.12357803773124,0.435002051354612
0,29.931319571964643,30.146179348577057,32.81607933705268,19.114019872479737,0.4400020749333997
0,30.472670166400487,24.47687054996852,28.46762249026467,18.07445902493565,0.4450020985121874
0,17.364018998503294,12.847559316542736,18.149163363254,12.864895483780785,0.4500021220909751
0,11.325366033151866,11.568245612197359,12.830701924738458,11.665329236100938,0.4550021456697664
0,1.9267112333781398,0.19892939929815023,4.0722381415420195,-0.774239732323921,0.4600021692485541
0,-0.7819454388495126,-2.150389360665379,-0.6662280206907463,3.7461885634327907,0.4650021928273418
0,-9.910604021936381,-5.229710706486546,0.24530340312904797,2.936614107854403,0.4700022164061295
0,-5.829264554097371,6.9009653231300945,-3.3231676220483406,2.3570368851494115,0.47500223998492075
0,-9.93792707297578,-3.5883613104245127,-6.761641131169485,-7.692543120678079,0.48000226356370845
0,-13.516591615431455,-17.987690645673805,-13.270117158815937,-1.832125925605851,0.48500228714249616
0,-20.08525821730782,-21.827022720575716,-19.618595738797985,-6.96171154531901,0.49000231072128386
0,-17.783926913078993,-29.366357571674826,-15.807076903685914,-7.331299995048573,0.4950023343000751
0,-4.372597735636557,-21.23569523341488,-15.59556068448596,0.5991087104951023,0.5000023578788628
0,-20.751270716418677,-16.48503573790799,-14.494047110602315,-5.850485442928843,0.5050023814576505
0,-20.729945885516177,-21.994379115107026,-20.082536209888538,-11.770082469148104,0.5100024050364382
0,-21.388623271412506,-22.743725392992896,-21.391028008574207,-9.259682381403614,0.5150024286152295
0,-25.727302900623783,-25.49307459750309,-18.03952253107711,-7.9492851920936545,0.5200024521940172
0,-19.835984797507102,-15.662426752392463,-17.298019799911142,-7.068890912719397,0.5250024757728049
0,-21.67466898421709,-7.101781879372016,-11.786519835794003,-4.308499553996108,0.5300024993515962
0,-20.763355480773292,-8.861139998594416,-12.115022657883234,-6.0981111259888205,0.5350025229303839
0,-14.712044305168739,-14.440501129112707,-9.613528284019464,-3.8477256382127374,0.5400025465091716
0,-13.420735473548925,-23.05986528889575,-14.972036730884547,-5.187343099687054,0.5450025700879593
0,-19.45942900043913,-28.669232494389938,-25.620548013920647,-7.926963518941088,0.5500025936667505
0,-20.958124898788736,-28.22860275992375,-22.20906214695599,-5.74658690395583,0.5550026172455382
0,-27.86682317973916,-28.827976097265765,-21.497579141789593,-7.946213262084644,0.5600026408243259
0,-19.865523852311558,-21.167352515483834,-14.526099008080706,-12.07584259997932,0.5650026644031136
0,-19.52422692327776,-13.636732021132882,-20.314621753530282,-7.275474923474806,0.5700026879819049
0,-18.962932397286124,-19.41611461867002,-22.283147384018022,-13.355110237477987,0.5750027115606926
0,-15.581640277062878,-29.745500310709392,-24.20167590350809,-15.264748545869343,0.5800027351394803
0,-5.5603505636307435,-21.194889097841468,-17.34020731387183,-10.554389851354841,0.585002758718268
0,-16.669063256626114,-11.324280978429368,-12.678741614931665,-11.23403415538792,0.5900027822970593
0,-5.747778354547003,-9.693675948884476,-11.667278804770602,-4.673681458281392,0.595002805875847
0,-7.0564958548689,-2.4030740042567134,-10.035818880095237,-1.743331759463339,0.6000028294546347
0,-3.035215754226549,-5.032475138747989,-7.094361836483156,-7.742985057763698,0.6050028530334224
0,-1.6839380486724345,-9.791879345985132,-11.062907668543406,-11.34264135150888,0.6100028766122136
0,-5.012662733869275,-10.131286618993393,-9.771456369982909,-5.342300638362803,0.6150029001910013
0,-3.421389805158338,-17.90069694994769,-11.410007933561403,-3.3419629152254693,0.620002923769789
0,0.5898807424412087,-0.9401103299418613,-1.4285623510844114,-5.47162817836366,0.6250029473485768
0,3.481148914131853,2.290473250899192,3.452880386379103,1.5087035764011625,0.630002970927368
0,3.192414715104186,-2.008946197060824,-0.36567971193104437,-0.2909676464737043,0.6350029945061557
0,2.363678150336453,-0.04836866336109458,1.2557573632027093,-1.8606418424140245,0.6400030180849434
0,4.144939224518537,5.9422058624477305,3.237191620886904,0.7796809932021738,0.6450030416637311
0,-3.9138020579216573,2.2927773906934528,0.5386230700873818,-2.7599991349394464,0.6500030652425224
0,0.8774543073045467,4.45334593141661,9.340051719552447,4.310317777906366,0.6550030888213101
0,6.718708324452012,1.253911494313797,4.021477577674384,2.480631736457919,0.6600031124000978
0,-3.8700400023263843,5.734474088761516,4.9929006523408805,-3.7190572546991882,0.6650031359788855
0,5.291209330940969,-0.18496627617058137,5.654320950908134,1.3712508089240625,0.6700031595576768
0,2.7124563280518617,12.795590408247023,7.855738480207348,6.851555931790772,0.6750031831364645
0,9.513700992542226,2.266144150277418,12.627153246451831,1.7518581182119282,0.6800032067152522
0,2.3649433274960674,5.736694957595971,6.038565255052606,2.5321573721793955,0.6850032302940434
0,4.856183335464616,11.217242837276782,9.41997451053175,2.5724536973685197,0.6900032538728311
0,5.027421018515527,2.4877877957629195,4.86138101657534,-4.01725290276041,0.6950032774516188
0,-4.281343621672523,4.568329838845934,4.752784776153613,-3.4269624247947057,0.7000033010304065
0,-4.140110583607193,-8.021131028143976,1.324185791670372,-3.606674865147572,0.7050033246091978
0,-5.208879865659871,-7.710594799930304,-8.564415934801115,-5.036390219906401,0.7100033481879855
0,-5.917651465814506,-7.980061470833324,-7.913020401124272,-5.406108484763332,0.7150033717667732
0,-3.8564253815694474,-3.539531034508338,-4.411627604689961,-9.295829654929623,0.7200033953455609
0,3.4847983900175783,-3.8990034839728422,-6.020237542256811,-6.995553725005453,0.7250034189243522
0,0.7660198521155956,-2.7384788117616634,-3.148850210012337,-6.255280688880709,0.7300034425031399
0,-12.002760992048657,-5.447957010032852,-5.8574656036547985,-4.625010539749955,0.7350034660819276
0,-11.121544138978184,-5.137438070564116,-8.866083718397606,-8.774743270186258,0.7400034896607153
0,-7.430329584461557,-14.75692198462857,-14.964704548820928,-13.384478872103646,0.7450035132395065
0,-2.779117323395729,-5.486408742769561,-6.523328088612936,-6.424217336579827,0.7500035368182942
0,-0.5179073499903868,5.4041016652674125,2.458045669477753,-3.313958653785194,0.7550035603970819
0,4.233300341880754,13.924609250111772,4.289416733275664,3.1262971867856333,0.7600035839758696
0,6.0745057583364614,2.3351140220654942,2.940785110641863,-1.1934498040719124,0.7650036075546609
0,-3.0642910947597803,-9.684384009174082,-9.097849190756058,-5.233199615495796,0.7700036311334486
0,4.526909788181283,1.9361151658571254,-3.246486163235478,-1.242952236501384,0.7750036547122363
0,0.18810841257631872,2.1366115567750623,-2.5051257987843076,2.6272923441114506,0.780003678291024
0,0.4493047837059648,6.9371051732522915,-1.2137680890008211,2.2075341376455007,0.7850037018698153
0,-5.379501093225564,3.5475960247047387,-7.48241302518233,-4.172226844658637,0.790003725448603
0,-4.508309212903811,-2.2919158798412367,-2.13106059830514,1.3480094083960128,0.7950037490273907
0,-8.567119569667929,-12.431430531539633,-7.939710798927209,-2.7817570919268686,0.8000037726061784
0,-6.435932157316673,-4.27094792126025,-9.69836361708672,-8.301526334206352,0.8050037961849696
0,-7.044746968993689,-0.010468039280990493,-0.02701904219801965,-5.981298306688763,0.8100038197637573
0,0.7164360027958547,-9.879990875346289,-5.765677063079179,-8.27107299706162,0.815003843342545
0,1.6576167659857,-2.2695164187661563,1.855662331865402,-2.6408503923573834,0.8200038669213328
0,-0.43120467134381757,-2.749044658391366,-2.013000845529333,1.179369520946985,0.825003890500124
0,-4.520028301109647,-5.018575582651653,-0.711666583305006,2.509586756664782,0.8300039140789117
0,-10.658854115081812,-3.1481091796198304,-6.300334869380368,-0.4901986713772171,0.8350039376576994
0,3.452317895372575,3.6623545629501404,1.2809943085323554,13.310013250474364,0.8400039612364871
0,1.3734877392965923,13.672815657385684,7.902320962900996,17.470222535391994,0.8450039848152748
0,-1.675344574129306,12.933274115576019,5.103645106082965,-0.6795708043626908,0.8500040083940696
0,-2.874179035735592,2.5937299485098113,3.474966750008152,-4.549366757443086,0.8550040319728573
0,1.5969843637149266,8.594183166233012,5.806285906098185,0.9308346871208482,0.860004055551645
0,4.878145633527362,13.464633778007194,11.517602585265353,8.2910335403024,0.8650040791304328
0,5.819304782874834,8.095081792260851,7.7089167977673885,1.1512298129468468,0.8700041027092205
0,-1.199538179403409,0.5955272165046281,3.2702285530687094,-2.9785764844082423,0.8750041262880082
0,-0.6283832447758207,6.645970057518737,0.18153785995749305,-0.6783853413982887,0.8800041498667959
0,-4.187230404799079,-0.07358967837930169,-1.3571552731514327,1.9618032523761828,0.8850041734455836
0,7.803920349043129,7.146848014780055,6.9341491620130755,10.741989307291774,0.8900041970243784
0,-0.6249309747448305,1.497283142620225,3.705451173557192,6.442172833387238,0.8950042206031661
0,-1.993784367810305,7.997715710379655,4.286750769247943,9.602353840049997,0.9000042441819538
0,9.707360178047983,12.328145722798894,8.628047956401364,6.042532335887945,0.9050042677607415
0,-0.8914973291605215,1.3985731839377742,5.869342741796999,7.17270832874515,0.9100042913395292
0,-1.7503568816955115,-3.4610019028114194,6.620635131589211,11.572881825726771,0.9150043149183169
0,-3.089218471946407,-5.810579534336743,-1.7580748686675034,9.603052833130018,0.9200043384971046
0,1.1119179077916062,-6.98015970732441,-3.1567872537947084,5.243221356352147,0.9250043620758923
0,6.133052265320382,7.510257581950959,7.514497981284449,8.763387399933086,0.9300043856546871
0,1.714184608326569,-0.17932766254898375,3.2257808415615905,9.073550967648316,0.9350044092334748
0,0.3853149442208863,7.441084563027159,6.457061331724099,6.56371206250607,0.9400044328122625
0,1.7964432801746715,22.381494262079816,6.508339455980721,6.9038706867359645,0.9450044563910502
0,4.317569623196539,14.841901437060304,14.579615217932979,7.804026841837908,0.950004479969838
0,7.368693980059666,9.502306089003508,6.980888620369347,4.514180528626991,0.9550045035486256
0,3.8198163571299277,-5.637291782385423,-4.797840334791086,6.4243317472761206,0.9600045271274134
0,4.460936760269086,2.643107821874636,1.0034283538299238,3.0444804973862336,0.9650045507062011
0,4.842055194854037,-2.076495099402283,0.3346946875017701,2.44462677807714,0.9700045742849959
0,-0.7168283341522711,0.5738994526278902,-4.304041332451409,3.484770588092762,0.9750045978637836
0,-2.6157138220609824,4.874291476811152,0.1772202953915895,3.4149119258688074,0.9800046214425713
0,-1.2146012642330497,1.0446809718816956,5.248479572559443,2.275050789538625,0.985004645021359
0,4.636509344056948,5.465067936336185,5.5497365005140376,0.3351871769536135,0.9900046686001467
0,-0.7123819924623098,1.2254523683700282,-2.2890089195733725,-2.004678914218232,0.9950046921789344
0,1.5887247308222023,2.7958342658771858,0.16224331319167112,5.105452513620358,1.000004715757722
0,0.6198295184010196,-0.0537863735006069,4.223493199591776,3.995581457969199,1.0050047393365098
0,0.4909323746774498,3.206590447695174,-0.9852592596745985,7.105707916047849,1.0100047629153046
0,-0.1879666960126754,-6.143035273191257,-0.3340140640237483,3.995831884620408,1.0150047864940923
0,-0.7068676893669668,0.30733646119917024,3.257228787046759,8.655953359913033,1.02000481007288
0,-0.8657706010697722,2.9877056483465405,2.6484692939540353,3.6460723375755704,1.0250048336516677
0,-4.614675426729635,-4.541927714195593,-2.1902925430380504,-0.8038111872827967,1.0300048572304554
0,-0.5835821617878167,-0.02156362884192961,-0.8990567237849789,-0.3536972198994673,1.0350048808092431
0,9.477509198464219,9.618797902026268,10.362176751815301,5.876414234348864,1.0400049043880308
0,-3.3114013413367482,-12.700843124036359,-1.0765921163125125,-5.233476830015421,1.0450049279668256
0,0.6196862232192621,-13.53048670940639,-2.04536332854729,-1.6133704185338178,1.0500049515456134
0,-2.4892281035638337,0.14986714409787855,2.4258631145589202,-1.7232665366478597,1.055004975124401
0,0.08185568267783744,-1.1597815645935872,-1.5429127875569089,-6.65316518956597,1.0600049987031888
0,-3.5070624135762456,-4.169432836095435,-5.941691035416881,-6.7330663821594685,1.0650050222819765
0,-7.065982387664455,0.3109133291979762,-0.49047162938538147,-2.962970118822847,1.0700050458607642
0,0.2150957653870047,-0.9787430689293306,-0.939254569571318,2.0571235965274948,1.0750050694395519
0,-1.2838279491020606,-2.7784020305556005,-3.758039855861593,-7.802785239714772,1.0800050930183396
0,2.547246474388374,12.401936444286704,9.563172511967165,-3.3926966309072215,1.0850051165971344
0,4.718319041373639,2.432272355371735,5.504382534040472,0.6073894199243958,1.090005140175922
0,2.3993897571753204,8.582605701982802,6.825590210053031,3.6474729100187626,1.0950051637547098
0,8.090458626781016,17.122936482716025,8.216795539071601,2.7975538366166752,1.1000051873334975
0,5.251525654732001,11.723264695230576,12.75799851944619,3.497632196742102,1.1050052109122852
0,6.77259084501655,10.243590335989348,11.429199148644393,6.1177079871018964,1.110005234491073
0,9.243654200999412,5.003913400276857,9.300397423092992,4.437781204008808,1.1150052580698606
0,4.644715725366421,5.644233882458014,3.1115933381933503,-0.5321481566549167,1.1200052816486483
0,12.305775420081513,0.764551776251913,8.852786888522951,1.5279199006642472,1.1250053052274431
0,9.236833286316784,-7.085132924988109,-0.15602193196570896,1.2379853713492062,1.1300053288062308
0,-2.5321106755845673,0.505179772064752,-0.22483312977072056,-9.06195174926202,1.1350053523850185
0,-0.3610564658805928,-4.374510139042828,-1.483646711605706,-2.1218914656769323,1.1400053759638062
0,-6.940004084985844,-5.034202664477107,-5.732462684152757,-4.711833782031165,1.145005399542594
0,-1.4389535331181282,-6.123897810053766,-5.591281053861543,-11.9317787019823,1.1500054231213817
0,-6.187904810144972,-3.313595581132368,-9.800101826738217,-15.331726228525046,1.1550054467001694
0,-1.5968579155497047,-3.983295982593973,-3.2889250081779675,-5.371676363684522,1.160005470278957
0,4.324187151499489,-2.0929990189096315,1.612249397024157,-3.8116291084525407,1.1650054938577519
0,2.655230391932385,-7.272704694191333,1.1834213844181742,-4.771584463056817,1.1700055174365396
0,1.9862718065187606,11.077586987752149,2.6045909495922652,-1.2415424272379152,1.1750055410153273
0,1.9573113957769874,7.437876023137846,4.325758087981327,-2.861503000388937,1.180005564594115
0,-6.7616508399453625,-3.0018375921947538,-1.623077205209674,-0.7614661816438764,1.1850055881729027
0,-2.170614900258596,-1.0515538628241476,-4.841914934934033,-5.001431969923961,1.1900056117516904
0,-3.4595807845123265,-5.321272793409425,-8.260755106040273,-4.1114003638985075,1.195005635330478
0,-4.8685484917099675,-7.680994388367115,-5.699597722950015,-2.061371361905516,1.200005658909273
0,-2.7475180204987706,-9.800718651628987,-12.428442789440348,-6.861344961914387,1.2050056824880606
0,-4.506489369157203,-3.1804455864521635,-6.097290308511776,-0.2713211615199085,1.2100057060668483
0,-8.125462535564155,-7.530175195392736,-10.476140282306487,0.41870004201304856,1.215005729645636
0,-8.474437517087054,-6.099907480384901,-3.754992712131293,2.0787186515863088,1.2200057532244237
0,-12.423414310389617,-6.599642442762135,-7.783847598546982,-1.8112653299048054,1.2250057768032114
0,-17.902392911187885,-14.539380083182834,-13.882704941408717,-6.351251899566667,1.2300058003819991
0,-11.911373313980548,-0.7891204015109297,-4.461564739768749,-1.4212410543293543,1.2350058239607868
0,-0.9503555119618249,3.841136603114217,4.479573008121495,3.4187672091543124,1.2400058475395817
0,-0.23933949735483645,-4.708609068088663,1.580708304441744,-0.9312271056284551,1.2450058711183694
0,4.011674738032737,2.771642586164495,1.6418411513512334,6.918776004738508,1.250005894697157
0,9.832687202339283,9.201891567117496,11.222971550762244,16.138776543364024,1.2550059182759448
0,5.023697903299321,7.912137875732016,11.144099504119698,8.718774512659959,1.2600059418547325
0,16.934706847965696,23.232381512260403,18.26522501202639,14.928769913982617,1.2650059654335202
0,22.315714042395676,26.082622475700784,24.40634807380085,13.338762747489916,1.2700059890123079
0,17.536719491196028,23.112860763177736,15.857468687064207,8.818753012105388,1.2750060125910956
0,20.44772319716319,12.013096369613617,21.128586847519514,15.638740705538678,1.2800060361698904
0,19.128725161192385,10.593329287952104,22.709702548931215,11.558725824310354,1.285006059748678
0,19.629725382284064,7.723559509672319,20.160815783082295,12.398708363716846,1.2900060833274658
0,12.960723857577822,12.323787025169393,9.091926539767554,13.088688317816182,1.2950061069062535
0,9.831720582530014,13.894011823840625,15.803034807046746,9.008665679463206,1.3000061304850412
0,13.072715551210973,12.34423389396728,17.534140571526713,9.878640440382805,1.305006154063829
0,10.853708756511331,14.714453222585886,16.91524381836323,13.068612591256477,1.3100061776426166
0,12.284700190187872,8.79466979545622,17.476344531111362,22.40858212165107,1.3150062012214043
0,9.83568984286243,-0.1351164027977304,8.7374426917087,17.108549019710818,1.3200062248001991
0,8.686677704073162,5.255094611665167,2.3785382807081006,-1.6914867280233592,1.3250062483789868
0,8.687663762368093,8.345302822207277,6.249631277715778,5.618474863746265,1.3300062719577745
0,1.3386480054443997,-1.3644917882450602,-1.1992783382084502,0.32843377968731857,1.3350062955365622
0,-3.0903695796032675,-10.244289237102443,-3.278190588299496,-5.141609995777479,1.34000631911535
0,-1.0993890059117981,-4.784089541682318,-4.887105493800877,-5.2316564782068795,1.3450063426941377
0,4.341589713410136,6.986107281128786,2.803976924252286,-0.7617056828819444,1.3500063662729254
0,3.042566565236092,1.9963012146944847,-4.42494335494814,-3.6117576247289445,1.3550063898517202
0,-6.896458463705067,-6.753507757705569,-7.953866352017911,-5.081812318368661,1.3600064134305079
0,-10.215485386664554,0.44668034715634586,-11.8527920871851,-8.141869778066257,1.3650064370092956
0,-5.564514216459198,-5.243134487315801,-9.051720579951176,-6.721930017569463,1.3700064605880833
0,-2.613544965232778,-4.362952277427633,-9.330651848888769,-7.621993049972776,1.375006484166871
0,-3.972577644545896,-9.722773039097454,-6.559585911632874,-5.402058887677409,1.3800065077456587
0,-0.5016122655673324,-10.32259678765972,-3.3085227850076486,-4.882127542431643,1.3850065313244464
0,-5.120648839179543,-2.2724235376903636,-5.607462485198518,-8.40219902538982,1.390006554903234
0,-2.4996873759938687,-4.892253303039644,-4.526405027891617,-4.282273347119333,1.395006578482029
0,-7.008727886294709,-8.54208609699312,-8.68535042828305,-5.632350517590286,1.4000066020608166
0,3.1722296200041065,12.298078067593504,1.2557012989566658,1.447569453746319,1.4050066256396043
0,8.46318513320818,3.5382391779884164,6.226750139550308,3.6874865577429734,1.410006649218392
0,5.9941386434494195,1.8183972211514943,7.997796079212822,1.3474007852644982,1.4150066727971797
0,-1.044909859622421,10.558552183557067,1.9488391032477592,-0.9126878729871986,1.4200066963759674
0,0.3060396132211691,4.7687040511658845,2.429879196445404,2.5372205735487756,1.4250067199547551
0,2.596987051026335,0.7488528093665265,3.590916343210189,2.8071261153324656,1.4300067435335428
0,-3.84206755722313,-14.911001556821926,-9.848049472264767,-7.102971257279845,1.4350067671123377
0,1.528875777445236,-1.9308590622139392,-7.727018265702797,-5.45307155388445,1.4400067906911254
0,0.35981704403873743,-2.13071972106634,-2.7559900523633,-2.7231747837526243,1.445006814269913
0,0.7907562315747385,6.749416452804143,2.5750351530447495,1.2767190442579561,1.4500068378487008
0,-1.8083066709660969,5.049549445601256,3.4060573360774002,6.306609921495655,1.4550068614274885
0,4.982628325364098,0.31967924322054336,0.46707648222581116,0.77649783920341,1.4600068850062762
0,-4.806438790534456,-4.670194168756944,-7.251907423156414,-4.3336172116132445,1.4650069085850639
0,-9.775508029727604,-2.65007080479652,-3.540894394633322,-5.03373524000234,1.4700069321638516
0,-4.654579402949081,0.1000493208324785,-2.5598844464349755,-2.883856254770735,1.4750069557426464
0,-6.143652920338817,-6.109833805895633,-1.6288775924139207,-6.273980264332214,1.480006979321434
0,-2.882728591431695,-3.999720198744691,-3.027873846143315,-2.814107276676295,1.4850070029002218
0,1.0181935746981678,-0.9396098711376328,-0.6268732209745431,-4.734237299365136,1.4900070264790095
0,2.2491135692216866,5.300497163786821,4.454124269895509,-0.5043703395693523,1.4950070500577972
0,4.090031383300547,7.690600892882997,2.745118613251121,-1.35450640415941,1.500007073636585
0,1.180947007900098,2.4207013026571502,2.206109795667283,2.6553545001619225,1.5050070972153726
0,-3.1681395662333753,-12.899201620769372,-6.2229021965025115,5.415212366684818,1.5100071207941674
0,-3.917228348410031,-5.729107891234133,-8.391917376875373,-6.75493281145226,1.5150071443729551
0,-2.0763193477698016,0.9509824779243806,-1.8309357586971435,-4.145081041175289,1.5200071679517428
0,-2.125412573175735,-11.628930526076003,-8.329957354673395,-0.7752323292059405,1.5250071915305305
0,-8.054508033199719,-13.748846915467027,-8.388982176946001,-7.105386681920751,1.5300072151093183
0,-7.393605736019845,-5.598766701675285,-5.298010237021424,-5.755544105317836,1.535007238688106
0,-1.8027056892659263,-5.1286898951802184,-7.647041545709837,-4.635704604923247,1.5400072622668937
0,-7.141807899999912,-5.358616505693327,-10.75607611311996,-7.095868185718964,1.5450072858456814
0,-12.3609123747401,-14.398546542301034,-10.865113948574264,-13.966034852076353,1.5500073094244762
0,-4.9900191193234,-3.868480013360518,-9.17415506046358,-10.436204607556041,1.5550073330032639
0,-8.48912813877751,-11.908416926374523,-7.383199456203952,-6.036377454716558,1.5600073565820516
0,-1.3782394373880025,-4.468357288003954,-2.3422471423528286,-2.7065533951884433,1.5650073801608393
0,1.3726469810915303,-2.768301104167446,-5.00129812482051,-3.11673242995765,1.570007403739627
0,1.5935311131518868,-3.8182483802162284,1.199647590918665,2.833085440357894,1.5750074273184147
0,1.5544129552708945,-13.52819912104341,-3.8194100003321942,-5.847099784676624,1.5800074508972024
0,-1.2147074961880124,-2.568153330963321,-0.2684709035825812,0.3127118946333908,1.58500747447599
0,-3.0038302449167418,7.391888986331417,-1.237535123686182,1.9525204781265657,1.590007498054785
0,-4.642955294509294,-9.858072172525192,-2.6866026653560215,-8.607674034239881,1.5950075216335726
0,-7.312082648271957,-4.028036810759881,-2.8256735331464844,-5.19787164231081,1.6000075452123603
0,-0.9612123090768949,2.551995068679158,-3.184747731394488,-8.828072345485783,1.605007568791148
0,-0.5303442793716726,3.8020234631003715,0.3961747358158205,-9.558276142503592,1.6100075923699357
0,4.030521438626194,0.9220483697789754,0.9870938645830183,-3.928483031344857,1.6150076159487234
0,-5.668615157277383,-8.15793021415911,-4.451990348907572,-7.568693009252725,1.6200076395275111
0,-10.567754069202039,-7.9879122914821705,-5.451077908358005,-6.6289060728156155,1.6250076631062988
0,-2.1468952988850694,-1.6678978645018585,-5.740168817164927,-9.23912221797393,1.6300076866850937
0,-0.5160388475091501,-2.9178869349864893,-3.199263078264514,-5.0193414399621705,1.6350077102638814
0,-6.925184715831558,-4.857879504298314,-3.058360694126487,-2.8195637333304306,1.640007733842669
0,-3.1943329042862603,-1.097875573479298,-0.6874616668535203,-1.9197890920997545,1.6450077574214568
0,5.086516587018549,1.4221248567057028,2.4734340016803356,0.6099824900333493,1.6500077810002445
0,2.0973637581264195,0.7621217856288154,7.59432630961195,3.0497510195082778,1.6550078045790322
0,-1.9117913910247395,-1.0078847873461894,-2.7647847451451715,-2.270483497254398,1.6600078281578199
0,-5.700948860596426,3.2621051370935388,-4.6138991649148435,-5.080721053862405,1.6650078517366076
0,-1.6301086506140332,-5.9779084417727395,-3.3130169519882435,-1.9209616437831347,1.6700078753154024
0,-2.5492707608053404,-10.697925524554138,-0.6821381083799862,-1.9212052602031613,1.67500789889419
0,-5.518435190591997,-2.417946111439756,-3.6712626358172598,-3.4214518960337488,1.6800079224729778
0,-1.8176019390841114,-2.517970202027748,-9.24039053574771,-12.231701543880446,1.6850079460517655
0,-0.08677100507171226,-1.3179977954614992,-6.959521809181019,-11.351954195798397,1.6900079696305532
0,2.0540576128600807,8.911971109308931,2.6513435434590225,-0.6922098430202259,1.695007993209341
0,-10.575116083778463,-8.198063486709074,-5.8977944777791205,-6.602468475988177,1.7000080167881286
0,-3.404292093260213,-5.668101582552147,-6.966935872533584,-9.93273008454699,1.7050080403669234
0,-7.093470413395859,-11.768143176956938,-8.5660806400249,-7.322994657927814,1.7100080639457111
0,-0.14265104145211913,-2.758188268004113,-0.6652287788812759,-4.6032621846275985,1.7150080875244988
0,-4.871833974256722,2.051763146898077,-7.744380287147266,-4.593532652453666,1.7200081111032866
0,-0.7110192083157253,4.141711070687929,4.3764648375695465,-3.0638060486758727,1.7250081346820743
0,8.66979326005368,12.141655506192976,8.257306597853422,5.075917639804145,1.730008158260862
0,3.730603434447071,8.751596455707277,8.34814499607359,10.895638426146583,1.7350081818396497
0,-0.2385886819003352,7.591533920708764,2.848980034014281,6.35535632312478,1.7400082054184374
0,2.342216913895142,1.5714679018403355,-1.6101882871306297,4.645071342826057,1.7450082289972322
0,-3.046979775455505,3.1213983991229637,0.0006400335143371128,1.4747834966872682,1.7500082525760199
0,-0.6161787472657005,-9.688674587734441,-2.558535003223802,1.1444927957115896,1.7550082761548076
0,1.4246200012122372,-6.288751058947583,2.5422866035543685,7.924199250620431,1.7600082997335953
0,3.10541647275574,2.671168985673087,8.63310485473411,6.44390287179696,1.765008323312383
0,9.886210669987564,13.111085546618884,12.483919750884661,23.02360366900095,1.7700083468911707
0,9.897002595084949,7.000998624133914,6.104731291874433,22.423301650859663,1.7750083704699584
0,1.5077922495299483,5.640908217751657,-0.4244605232587292,3.4529968243870726,1.7800083940487461
0,-0.8214203658490535,-11.509185673653217,-10.363655695981453,-5.357310804873299,1.785008417627541
0,-7.1406352505153095,-17.819283051272997,-9.4328542276606,-7.2776212320154965,1.7900084412063286
0,-6.739852403784527,-14.009383915540987,-7.24205611903665,-10.407934451917951,1.7950084647851163
0,-8.549071824485932,-12.58948826557553,-6.991261370032488,-9.518250458772336,1.800008488363904
0,-1.7482935108027056,-7.879596099124599,-10.830469979777975,-12.228569245874102,1.8050085119426917
0,5.992482539606068,-8.489707412783059,-5.599681946613789,-11.278890805506768,1.8100085355214794
0,4.3532563292240685,-6.269822202221681,-0.49889726813343677,-7.749215128890171,1.8150085591002671
0,4.004027860278318,6.880059537578814,1.3918840585854904,-4.489542206260333,1.8200085826790549
0,7.604797134558447,13.289937811873093,3.5026620366298227,-0.2898720271100399,1.8250086062578497
0,9.825564153320515,4.489812625517132,7.583436668950685,0.38979541949402274,1.8300086298366374
0,3.5863289171573705,-10.220316017294135,-0.6157920418399156,-6.050539855320407,1.835008653415425
0,7.707091425959535,-1.4804481126382931,1.6049759065033284,0.6191221597381464,1.8400086769942128
0,11.237851678944484,0.9094163436212959,8.31574051595266,2.958781476141341,1.8450087005730005
0,5.228609674595374,3.1892773558551473,3.0365017881708445,-2.061561894576296,1.8500087241517882
0,-1.150634589344371,2.319134928407178,-0.10274027559292498,-2.681907940900036,1.855008747730576
0,-0.9398811156099952,-0.9310109345592004,-1.5919856744015024,-3.7622566512274425,1.8600087713093707
0,5.500870092899732,-10.581160228961595,-1.9712344073846133,-3.092608013715467,1.8650087948881584
0,-0.21838096681615826,-14.901312950410885,-3.3704864735643123,-5.342962016197966,1.870008818466946
0,-4.547634297897557,-11.171469093692094,-6.719741871726917,-4.943318646127628,1.8750088420457338
0,-0.7768899034882047,-5.2616286524784925,0.7209993996817687,5.546322109422843,1.8800088656245215
0,-2.0661477865624738,2.288208380506298,-4.138262657438949,4.865960263545558,1.8850088892033092
0,9.624592050036936,7.318042012993228,5.352471959038776,1.9055958291528547,1.890008912782097
0,1.1353296033486495,5.237872252615926,-5.226796748682434,-3.1147711811530927,1.8950089363608846
0,-6.413935129874584,-1.7223008934001172,-8.776068778319535,-6.565140754876159,1.9000089599396794
0,-10.303202152923827,-4.702477418142731,-10.535344127223059,-8.915512879268329,1.9050089835184671
0,-7.572471468645099,-9.662657314634933,-10.514622792010444,-5.725887541025539,1.9100090070972549
0,-1.5017430791646484,-0.33284057548094553,-3.303904768391005,-0.23626472619833672,1.9150090306760426
0,2.10898301398034,6.016972807164416,8.566809948648554,-0.7466444203607369,1.9200090542548303
0,-5.290293190463845,3.2167828412564345,3.307521364332058,2.23297339112019,1.925009077833618
0,1.0504283063774034,-7.2134104654368,1.718229483625997,7.532588722845036,1.9300091014124057
0,0.12114750350250553,10.486392894702204,4.158934311118009,6.34220158913035,1.9350091249911934
0,-1.6481356000041998,8.976192929130075,6.119635851063381,7.091812003770127,1.9400091485699882
0,9.98257899492247,5.965989644821169,8.020334107305453,11.521419979886801,1.9450091721487759
0,8.563291287104061,1.8657830480537378,1.8610290831461596,5.021025529832288,1.9500091957275636
0,8.284001274776273,9.675573144501817,4.311720781347103,4.730628665175255,1.9550092193063513
0,-1.055291044564686,-0.6346400606611398,-2.0575907957229154,-1.559770603128489,1.960009242885139
0,-4.264585673943951,-4.784856562651623,-3.7469056458728196,-7.120172264407038,1.9650092664639267
0,-4.85388261646785,-10.765076356728109,-2.1462237668494804,-6.030576307867136,1.9700092900427144
0,4.346818124979742,-4.105299437730496,0.72445484381038,0.6790172776964187,1.9750093136215021
0,-3.7724834522805417,-5.085525799854487,-7.71486981122087,-3.951391496100436,1.980009337200297
0,2.9782126491313066,-4.375755436703541,-5.0041977290013975,-6.791802617338794,1.9850093607790846
0,0.8289064265797177,-0.9359883414178399,1.0764710938010877,-5.7222160737349865,1.9900093843578723
0,0.8995978773589008,-3.726224506783321,3.7871366608374064,-6.232631852487896,1.99500940793666
0,-6.669713001297263,-8.616463925271283,-5.362201024172174,-4.713049940217413,2.0000094315154477
0,1.340973787928167,-2.0667065889448386,0.4484580424858119,2.4665296769646647,2.0050094550942354
0,10.14165824247404,9.253047510538321,6.369113864573216,3.3861070132246525,2.010009478673023
0,1.39234035963216,0.4927983815995016,3.459766445766809,-2.1543179172778824,2.015009502251818
0,-2.206979863688976,-1.1774539675792994,1.3204157894382025,1.5652548995045428,2.0200095258306057
0,0.7536975691625458,-1.947709529006668,1.9010618986339982,1.4148254775538422,2.0250095494093934
0,-2.6856273451785264,-6.447968294629996,-5.9882952237826625,-3.325606169187549,2.030009572988181
0,-1.8249546099834029,-1.2582302561347087,-6.827655574881849,-0.2060400267716902,2.035009596566969
0,3.25571577159495,-1.3984954048773486,-0.2670191514038258,-0.3064760811662288,2.0400096201457565
0,-2.7636162035316767,4.821236268005551,-1.7163859496864118,-2.9569143182334545,2.045009643724544
0,-1.4529505384334713,8.820964771326793,-4.845755965783775,1.8326452762616454,2.050009667303332
0,-0.8322872361078671,4.130690113525068,2.584870804462442,2.3622027166118036,2.0550096908821267
0,2.958373700551642,1.7404123024966922,8.765494365314678,7.331758017014529,2.0600097144609144
0,-0.33096773133660295,-8.119868654249743,-1.1338852791371412,-0.008688808624082056,2.065009738039702
0,2.399688465260156,-3.52015274920491,3.7067318748487867,5.120862253234599,2.07000976161849
0,1.5603422872520223,2.389560025441514,11.617345830664934,3.950411215787857,2.0750097851972775
0,6.050993731376281,0.17926967775559566,5.647956591226099,9.109958091849789,2.0800098087760652
0,2.1716427940968974,-2.651023784136462,5.158564158769612,4.449502893716632,2.085009832354853
0,11.242289471482685,8.798679647859126,9.789168534835383,12.799045633038189,2.0900098559336406
0,16.18293375899352,18.5883799815863,18.02976972022082,15.888586320647406,2.0950098795124354
0,7.06357565115251,7.40807722413384,5.050367714732744,5.0881249663279835,2.100009903091223
0,10.694215141366804,8.597771381480166,6.480962517088629,11.167661578752561,2.105009926670011
0,1.264852222055147,-0.8525375413770182,6.911554125124262,6.7571961656299555,2.1100099502487986
0,2.7554868849282363,-2.692849540010766,1.002142536028655,7.9467287338275,2.1150099738275863
0,2.206119121265303,7.756835389801173,6.132727746491434,5.886259289433384,2.120009997406374
0,6.226748922058253,10.98651725209177,11.693309752733443,9.655787837810843,2.1250100209851617
0,1.3573762779834444,2.186196050400765,0.6838885504001593,0.24531438363681923,2.1300100445639494
0,3.818001179363144,2.815871787623658,6.024464134497174,4.594838931009858,2.135010068142744
0,-0.9313763837830353,5.37554446616008,2.475036499524736,1.664361483626533,2.140010091721532
0,-5.14075642159074,-6.404785911905485,-4.134394360362719,-3.5161179550682933,2.1450101153003196
0,-13.670138944055712,-10.365119344547503,-12.793828451071079,-7.6265993816719,2.1500101388791073
0,-9.499523960594741,-15.375455829308716,-16.16326577804436,-14.317082792448744,2.155010162457895
0,-9.458911479706046,-9.72579536279619,-10.932706345711825,-6.867568182918706,2.1600101860366827
0,-6.978301508903455,-14.256137940440171,-14.222150157223927,-6.96805554766194,2.1650102096154704
0,-3.017694054852406,0.35351644346656097,-4.201597214488409,-6.058544880406032,2.1700102331942652
0,-4.197089123576483,0.7331677954697788,-1.2810475184168002,-5.289036174189918,2.175010256773053
0,-4.67648672063106,-6.607183877469079,-2.6005010693095283,-3.959529421466808,2.1800102803518406
0,-3.0658868511691493,5.612461431789079,-5.7099578671318305,-2.2900246141963874,2.1850103039306283
0,-8.385289519926573,-4.397896269504394,-4.559417911530572,-5.210521743940534,2.190010327509416
0,-2.4246947311688887,-6.048256974003321,-5.998881201726599,-2.9110208019042165,2.1950103510882037
0,-8.194102488643892,-13.698620674066522,-9.178347736415583,-9.08152177889605,2.2000103746669915
0,-10.273512795525257,-6.228987361387383,-8.31781751365463,-5.262024665224267,2.205010398245779
0,-1.7729256543162064,3.4706429731456083,5.372709469177211,6.737470549324351,2.210010421824574
0,3.697658933090288,4.680270339129003,6.893233215093335,0.43696387522739144,2.2150104454033617
0,5.958240965039167,3.819894746130476,6.573753726959657,5.046455322858403,2.2200104689821494
0,4.668820439673201,6.059516203370165,8.624271007099992,7.015944902277327,2.225010492560937
0,8.47939735467252,15.629134719550747,11.00478505711766,7.92543262308897,2.230010516139725
0,9.939971707112594,4.33875030262515,10.125295877770993,4.214918494297694,2.2350105397185125
0,14.030543493280932,7.6383629596525875,12.925803468841446,15.504402524219735,2.2400105632973
0,13.051112708446851,10.297972696867191,12.686307829025893,17.073884720300043,2.245010586876088
0,1.4316793467463353,3.897579519748958,0.33680895592665244,0.35336508884850915,2.2500106104548827
0,-2.417756598584033,-1.222816566898211,-3.922693153679378,-5.067156364829714,2.2550106340336704
0,-3.9871951346801344,-3.5832155586583463,-3.7121985032961815,-2.5876796358134095,2.260010657612458
0,-4.416636268578422,-3.2936174511213885,-3.4517070962591094,-0.5782047190422656,2.265010681191246
0,-10.866080006947186,0.10597776033940476,-6.661218935550383,-6.228731609188206,2.2700107047700335
0,-6.285526355878233,-2.664429919420474,-4.560734023719828,-3.439260300635547,2.2750107283488212
0,-3.8349753207584705,-0.7148404853784281,-0.5402523628549898,-1.4397907874187221,2.280010751927609
0,-7.794426906312437,-8.305253932328869,-6.329773954640258,1.4796769367347196,2.2850107755063966
0,-3.323881116695643,-7.3856702547286215,-8.749298800382915,1.5891428782257906,2.2900107990851915
0,-8.733337955513273,-9.886089446457737,-7.498826900859097,-5.691392956546586,2.295010822663979
0,-10.492797425758706,-12.7565115006011,-10.10835825612235,-6.401930561091248,2.300010846242767
0,-5.542259529689292,-8.636936409288975,-6.727892865414547,-1.3424699285927313,2.3050108698215546
0,-6.14172426877366,-8.507364163637789,-6.457430727169581,-6.783011051798865,2.3100108934003423
0,-15.631191643724382,-10.097794753809156,-13.83697183904202,-6.703553923011843,2.31501091697913
0,-11.94066165437769,-13.678228169036512,-13.286516197806145,-3.024098534032779,2.3200109405579177
0,-0.7701342995199387,-8.178664397541695,-8.616063799159301,-6.144644876133503,2.3250109641367054
0,-2.809609577047379,-1.779103426539497,-2.7656146377078903,1.5548070598693307,2.3300109877155
0,1.8709125156146458,0.14045475749122538,-2.3151687072559692,-3.3957427165192153,2.335011011294288
0,-5.808568018775101,-1.7799898315736953,-5.80472600112334,-1.3062941955921805,2.3400110348730756
0,-11.458051177242199,-4.040437179702229,-6.5042865122440885,-1.6468473674771538,2.3450110584518633
0,-11.297536956279695,-7.880887272643479,-8.303850233059874,0.752597777854709,2.350011082030651
0,-4.387025351531341,2.0086599042226725,-2.283417155400701,1.6320412505166564,2.3550111056094387
0,-0.5965163578026826,-1.1317956341281077,-1.6429872705356194,-1.4585169393883695,2.3600111291882264
0,-2.566009969364721,-11.052253872482392,-5.192560569335273,-1.1990767817825385,2.3650111527670212
0,4.754493819743241,-3.622714795294743,2.7278629576025075,3.110361733431221,2.370011176345809
0,-5.625004984464588,-6.1831783864754115,-5.971716680103405,-5.350201383623834,2.3750111999245966
0,-8.284506375895006,7.376355370579976,-0.0312994726521062,-6.8207661227281555,2.3800112235033843
0,-2.434010348132129,10.235886492614785,2.329114589924998,1.748667526620264,2.385011247082172
0,-0.4835168942875865,-0.014585003973321853,2.6695255176556065,1.6180995752314717,2.3900112706609598
0,-4.453026007109152,-10.095059103240914,-4.140066679520843,-2.05246996597658,2.3950112942397475
0,-1.592537679098864,-11.655535789221389,-7.499661991671901,-5.233041086064254,2.400011317818535
0,-2.4820519025165577,-9.896015045297075,-4.829260408583239,-3.1636137739203005,2.40501134139733
0,-2.7315686693738104,-5.4864968539045975,-3.798861919538091,-4.774188018096082,2.4100113649761177
0,-2.5410879714451657,-4.466981196612735,-2.408466513331459,-0.2447638067697081,2.4150113885549054
0,-6.260609800234171,-1.3674680543606923,-1.0880741783883816,-2.315341127815942,2.420011412133693
0,-3.75013414689547,-2.2079574076841793,-2.597684902883366,-2.2959199688947045,2.425011435712481
0,-2.359661002170059,-0.9484492368669841,-4.11729867478048,-3.25650031747059,2.4300114592912685
0,-0.8891903564319127,4.5810564779433,-4.306915481779999,-6.707082160746326,2.435011482870056
0,-0.15872219981580982,3.0705597565656015,1.1534646887319302,-2.7076654855558404,2.440011506448844
0,5.421743477626042,-0.6799393813825514,1.573841849610194,-2.8182502783116914,2.4450115300276387
0,2.3722066857377566,-6.060440916448248,2.6142160137392785,-1.5988365250660093,2.4500115536064264
0,-1.527332565874362,-0.2609448291068106,-7.2054128060737135,-6.819424211580748,2.455011577185214
0,-2.8168742677671705,-11.941451099536032,-10.125044596926314,-7.460013323262873,2.460011600764002
0,-4.43641841043754,-2.2019597074473007,-7.584679345432644,-6.830603844990875,2.4650116243427895
0,-7.185964984103241,-4.572470631991836,-9.864317037432741,-6.551195760988725,2.4700116479215772
0,-11.685513978497898,-6.272983851798296,-9.693957657899652,0.7882109451470367,2.475011671500365
0,-10.1650653826197,-3.5534993450274053,-10.333601190902002,-5.752383709713224,2.4800116950791526
0,-7.774619184544328,-4.124017089374284,-7.093247619571266,-3.062979708368095,2.4850117186579475
0,-8.214175371406972,-15.344537062030382,-11.922896926121805,-6.793577033269385,2.490011742236735
0,-10.723733929475856,-11.795059239465616,-13.23254909182544,-4.004175666431926,2.495011765815523
0,-6.403294844167469,-10.085583597118958,-7.392204096917112,0.9252244105791017,2.5000117893943106
0,-2.04285810009115,0.12388989064502276,0.058138079365173345,1.9446232164945259,2.5050118129730983
0,-2.802423681243698,4.973361250177582,-2.501522541537973,-2.4659792298821417,2.510011836551886
0,-3.9619915712346563,2.7228305080052095,1.4788140621259793,-0.9465829097507188,2.5150118601306737
0,-0.6615617533806192,9.102297690409461,6.1391479121683,0.06281219574869956,2.5200118837094685
0,-1.2311342107510943,-1.6082371767614723,2.0794790302466737,-5.787793894407447,2.525011907288256
0,10.11929107369264,8.851225931896995,12.759807437645582,17.831598838825414,2.530011930867044
0,7.13971411678329,1.810687041383075,11.070133155035066,10.79099041420756,2.5350119544458316
0,-4.949865065125635,-3.339853823667863,-5.06954379770654,-13.539619150191863,2.5400119780246193
0,-4.229446456033764,-4.200396638785977,-7.109223401260412,-11.380229836697872,2.545012001603407
0,-0.4890300398898247,-7.530941379328899,-7.3489056362549094,-8.38084162718413,2.5500120251821947
0,-4.038615800373769,-4.9214880202174065,-9.42859048276436,-5.681454502605874,2.5550120487609824
0,-0.03820372091735158,3.797963464122579,1.0517220798325537,-4.062068443089542,2.5600120723397772
0,2.392206215220861,5.457413099527806,0.682032072692778,-5.522683428148128,2.565012095918565
0,-0.28738597517261255,0.13686091172802772,2.1723395171810087,-5.373299436789652,2.5700121194973526
0,4.423019724607684,3.086306926169727,1.0326444346082777,-6.403916447517046,2.5750121430761403
0,1.1134233311049644,4.755751168033461,1.9029468461473877,-6.724534438280845,2.580012166654928
0,5.603824860631633,9.99519366217434,2.6832467728132374,0.2648466135289447,2.5850121902337158
0,3.154224329197768,-3.1053655670268743,-5.406455764519546,-0.3757732690475374,2.5900122138125035
0,-5.265378247489377,2.3940735043718755,-6.496160744956109,-0.6063940627642381,2.595012237391291
0,-8.984982853798162,-6.686489099864052,-14.76586814723186,-8.067015744263005,2.600012260970086
0,-3.3845894737764763,6.732946644080407,-2.9755779493524277,0.3123617100385403,2.6050122845488737
0,-6.414198090913613,-3.9276192399155736,-10.005290128460041,-0.6482616759691372,2.6100123081276614
0,-5.693808688132888,-7.098186727931022,-6.815004660904541,-2.8988858781734077,2.615012331706449
0,-8.343421247797135,-8.548755795800158,-2.434721522324724,-3.249510872306085,2.620012355285237
0,-8.393035751630222,-16.909326418732356,-13.954440687706333,-6.3601366338613445,2.6250123788640245
0,-4.32265218064326,-11.139898570947906,-5.004162131349386,0.47923686201183857,2.630012402442812
0,-1.7922705151857259,-8.730472225473742,-4.173885826794578,-1.0513903595116618,2.6350124260216
0,0.8381092648439743,-3.2610473542335,-5.083611746913763,-3.9320182730502746,2.6400124496003947
0,1.4284871797407663,-6.471623928339384,-1.0533398640879779,-3.2526468530414165,2.6450124731791824
0,-0.3911367501947599,0.09779808165367165,1.4669298496339835,1.9367239263112395,2.65001249675797
0,-0.3907625047108626,6.237218705518781,3.2071974223381323,1.3760940909694335,2.655012520336758
0,5.71960993639303,12.656637972974321,6.777462881992339,9.965463666833148,2.6600125439155455
0,3.929980593169608,9.886055913179366,9.057726256199185,8.534832679430068,2.6650125674943332
0,2.840349485361266,9.565472554379275,10.22798757194344,9.94420115361019,2.670012591073121
0,6.100716632323925,9.424887923821645,8.198246855394546,9.513569113360592,2.6750126146519158
0,7.361082052985584,14.684302047767948,8.62850413183603,8.542936581752917,2.6800126382307035
0,6.521445765738933,15.033714951393115,10.758759425670414,11.49230358093913,2.685012661809491
0,10.181807788322573,10.953126658615444,10.799012760396424,6.171670132149487,2.690012685388279
0,3.5921681377488017,0.9225371921159593,6.329264158558052,4.481036255750928,2.6950127089670666
0,4.8925268303387925,7.811946573651209,6.109513641798237,4.920401971413991,2.7000127325458543
0,0.9228838818684165,-0.6786451756011656,1.8897612310405445,3.0397672982869173,2.705012756124642
0,-0.23676069223433993,-0.7992380348168111,2.7200069467033297,2.1291322551045604,2.7100127797034297
0,-2.6464068766949436,-0.09983198332169996,2.9102508088630374,1.398496860283244,2.7150128032822245
0,-0.876054656212548,-0.8204270004366345,-1.4395071626462808,-2.26213886796274,2.720012826861012
0,-3.525704015346699,0.04897693456482832,-5.489266948107636,-1.7427749114748412,2.7250128504398
0,-7.1053549384295565,-7.881620157506991,-4.949028527674734,-4.793411251987262,2.7300128740185876
0,-8.185007409405522,-12.96221825555243,-11.728791881091123,-1.6940478709969482,2.7350128975973753
0,-4.384661411640316,-9.792817337804387,-4.81855698746344,-0.7346847497238183,2.740012921176163
0,4.685683072070739,-6.013417381555732,1.441676174794325,1.2746781308116242,2.7450129447549507
0,1.0360260592147927,-4.444018363204449,-2.6480923722592413,-0.8259592103399545,2.7500129683337384
0,2.0463675672274113,4.675379741468349,-2.037862606354339,-2.936596754108174,2.7550129919125332
0,3.8267076133450617,-2.6452230430477446,0.8523654949152468,1.9127655186407932,2.760013015491321
0,6.337046214544313,3.604173307752818,4.002591954041034,7.802127627066293,2.7650130390701086
0,-0.08261661254784425,6.4535688182592015,4.822816793421662,5.331489590111902,2.7700130626488964
0,0.4877191483565233,2.8029635125899874,0.7130400351812176,6.090851426240588,2.775013086227684
0,-10.481946486576067,-5.507642585477897,-5.006738298825091,-0.3497868466272921,2.7800131098064718
0,-13.99161350089356,-16.328249452215914,-13.226518186703457,-6.42042521092359,2.7850131333852595
0,-9.331281877374996,-8.74885706335067,-10.016299606044518,-8.24106364904165,2.790013156964047
0,-7.36095159776429,-3.2894653936622156,-5.696082533557659,-2.461702142953163,2.795013180542842
0,0.389377357117892,1.769925582888957,-1.8058669450836087,4.677659325861161,2.8000132041216297
0,-2.030294992965862,0.7593158927280919,-6.565652815848175,-0.522979223860416,2.8050132277004174
0,-4.719968627952317,5.078705562299174,-0.6254401206469284,-4.603617773399618,2.810013251279205
0,-0.8596435275485863,4.208094617846198,0.17477116605677123,-0.9742563039999484,2.815013274857993
0,1.4906803287691326,0.8474830852908473,-1.985018929997823,1.715105203260801,2.8200132984367805
0,3.82100296162396,9.39687099019471,4.605189616995412,5.634466767379634,2.825013322015568
0,2.60132439152524,7.5462583576804985,4.665396832776471,3.3638284071849878,2.830013345594363
0,10.701644638684138,13.00564521221848,9.265602742792995,7.90319014113358,2.8350133691731507
0,11.741963722780868,9.355031577395337,9.58580737193906,8.242551987168985,2.8400133927519384
0,7.52228166268743,4.354417475827562,4.566010744365829,3.901913962605364,2.845013416330726
0,5.582598476353604,4.863802929291514,7.216212883467584,4.0012760841234725,2.850013439909514
0,4.642914180938506,6.233187958941353,7.196413811959953,0.2706383679136415,2.8550134634883015
0,-0.6167712069668841,3.3025725854183525,1.8366135519419418,1.2200008298607696,2.8600134870670892
0,0.8835423288871158,-2.4480431710742665,0.3668121249950884,-0.8506365143058419,2.865013510645877
0,1.8338548045929381,-2.248659290562192,-2.7329904475731177,-1.6412736489016742,2.8700135342246718
0,-0.8458337638416956,-1.499275753035862,-1.9327941444822003,3.138089441778326,2.8750135578034595
0,-2.4355233604592836,-3.259892538307798,2.817401055659016,0.10745277343543458,2.880013581382247
0,2.4547860307238865,4.099490373988349,2.187595174295138,0.6268163616949463,2.885013604961035
0,-3.834905574247474,0.4988730042850382,-1.1922117672151324,3.226180222076956,2.8900136285398226
0,-0.6145981592556702,0.24825537294032207,2.5379802523645356,0.5555443699749527,2.8950136521186103
0,3.0057082919076885,3.367637500187202,3.888171254157236,4.054908820610471,2.900013675697398
0,7.566013795433353,4.537019406102845,1.968361259103634,6.364273588964869,2.9050136992761857
0,10.786318367191079,5.036401110491141,4.508550287870673,4.413638689656347,2.9100137228549805
0,3.636622022418936,1.5057826327753996,9.248738360778555,13.47300413677901,2.915013746433768
0,5.706924775635435,13.335163991945441,10.598925497621115,12.8523699436797,2.920013770012556
0,5.957226640743027,8.6545452064086,8.429111717422508,12.29173612267908,2.9250137935913436
0,-2.182472368851625,-1.5560737061830885,-2.430702961622362,-2.628897315009967,2.9300138171701313
0,-5.482172240032552,-3.286692728770538,-6.150518521845432,-13.78953035887058,2.935013840748919
0,-6.321872959613176,-15.507311844354474,-13.780334945524762,-11.450162998261963,2.9400138643277067
0,-5.751574514000319,-13.68793103536974,-11.490152214300899,-2.510795221756264,2.9450138879064944
0,-4.791276889053805,-11.31855028319325,-7.029970308824451,-6.761427017053274,2.9500139114852892
0,-5.090980070088113,-5.819169567992906,-4.619789208753297,-3.172058371214297,2.955013935064077
0,-4.670684041912429,2.800211131029278,-1.9796088929995161,-5.882689270809766,2.9600139586428647
0,1.4996112111071396,-0.810408164820754,0.1905706599804533,-6.323319701932516,2.9650139822216524
0,1.2899057048830702,-0.08102743410804725,-3.3092505280259323,0.8960503498064312,2.97001400580044
0,2.970199455369442,-3.4616466553780514,-1.93907243506946,-3.75457910080934,2.9750140293792278
0,-4.279507521582837,-3.1722658070667697,-3.3688950390062966,-1.5652080387382248,2.9800140529580155
0,-0.8592152101608549,-1.1328848673930143,-2.6687183174419156,-5.535836448712978,2.985014076536803
0,-6.578923594415293,-1.1535038143399579,-2.2285422477147057,-1.2264643151809047,2.990014100115598
0,2.451367341866068,16.825877374174322,3.9216331930606962,7.722908377656699,2.9950141236943857
0,4.9616576150927765,14.445258719823164,5.9318080278032985,8.492281645547937,3.0000141472731734
0,4.811947241600101,0.03464024334864568,3.1419822791965846,5.431655503782463,3.005014170851961
0,1.062236237399356,0.3340219645589184,-0.4278440304487868,6.091029966989806,3.010014194430749
0,-0.9174753818308117,-13.876596097116707,-0.2976708790937902,0.21040504919760927,3.0150142180095365
0,-0.017187600575354733,-11.727213921940473,-3.0874982447689434,-3.220219235958451,3.020014241588324
0,3.4430995966395175,-9.517831489332442,0.4026738945699089,10.509157124982638,3.025014265167119
0,-3.9866137747568424,-8.70844877766395,-5.077154438890924,5.1085341452703075,3.0300142887459067
0,-4.536327699329259,-7.879065764328537,-7.4369832227320165,-9.002088162222384,3.0350143123246944
0,5.003957838499118,-3.2096824258865237,-3.3968124341380395,-6.1027097847888925,3.040014335903482
0,-3.175757145555531,-3.6702987382406316,-5.066642049788731,-3.9333307094096854,3.04501435948227
0,-3.415472635727238,6.049085323121693,-5.226472045869346,-5.193950922526774,3.0500143830610575
0,-1.4151886161358074,7.438469782780206,0.36369760186920885,7.325429589846821,3.0550144066398452
0,3.885094929280877,6.1778546649842205,4.203866917978696,8.324810841791647,3.060014430218633
0,-0.7346219833513835,7.027239993392934,3.054035927035102,7.344192847023702,3.0650144537974278
0,0.825660662020486,5.716625791015919,6.464204653368244,7.883575618581238,3.0700144773762155
0,7.685942881322758,8.036012080222546,10.05437312087496,9.322959168738162,3.075014500955003
0,7.776224690211295,13.215398882687763,10.794541352803746,8.692343508970968,3.080014524533791
0,5.79650610382101,13.524786219207712,10.39470937153542,4.4617286499399995,3.0850145481125786
0,2.0767871366572193,7.884174109487031,8.374877198466866,5.341114601571899,3.0900145716913663
0,1.4670678027172337,3.7735625721516124,4.405044854061673,4.110501373206807,3.095014595270154
0,5.5673481156645614,0.7229516250321624,1.5552123580401092,-1.370111026263564,3.1000146188489417
0,-0.04237191111217298,-2.347658714455343,-2.264620270328166,-1.0007225882154582,3.1050146424277365
0,-1.562092264465631,1.3017315709875041,-5.054453011902852,-7.781333304035921,3.110014666006524
0,2.0881870686343036,2.0511224986606256,-4.80428584737402,-3.861943164854088,3.115014689585312
0,3.3584661011704635,-1.5094859141720245,0.1858812429139567,-5.452552161354928,3.1200147131640996
0,-4.171255153968675,-2.4800936502865367,1.6460482789165534,-6.623160283713647,3.1250147367428873
0,-1.5409766839474286,1.0592993075916173,-0.6537847193077093,-5.583767521569538,3.130014760321675
0,3.5993015241424464,9.088692976771059,5.8963822682447855,-3.5643738640060034,3.1350147839004627
0,2.5095794832449316,6.688087374329394,4.3965492613906845,0.675020700374664,3.1400148074792504
0,-3.3001427938066277,2.797482516821363,6.746716279588346,1.5544161832508168,3.1450148310580452
0,-0.859865294262637,5.916878420225387,1.1268833418240332,-2.526187403625544,3.150014854636833
0,2.4004119946701907,1.886275100044398,3.417050466649062,0.76320995150292,3.1550148782156207
0,7.640689085776362,4.04567257138512,6.137217672259148,0.6126082604215721,3.1600149017944084
0,1.5909659915981784,4.805070848997041,5.487384976473517,3.0920075349061915,3.165014925373196
0,0.7212427243032047,3.144469947263692,6.657552396625879,6.601407786591497,3.1700149489519838
0,-1.7284807042081718,3.2338698801864223,2.457719949498985,4.900809026789108,3.1750149725307715
0,3.7917957178730677,5.533270661397995,4.0178876513796045,8.520211266319212,3.1800149961095663
0,-0.2579279976996397,6.4526723041329594,6.808055518128436,7.179614515392252,3.185015019688354
1,1.2423481607254294,8.522074821117041,3.5382235651724585,0.7090187835687052,3.1900150432671417
0,1.2726242046891336,6.531478224438464,3.6083918074682035,3.6984240798697168,3.1950150668459294
0,0.33290014563741144,-0.44911747447306016,4.6885602595369,3.847830412950302,3.200015090424717
0,-4.036824005042229,-0.37971226465997715,-3.1212710644544277,-1.9227622088125773,3.205015114003505
0,-3.626548235893309,-2.1503061353369435,-1.8411021505325473,-0.8433537772249645,3.2100151375822925
0,2.333727464747231,0.009100924318895198,3.109067015277679,0.4460557158789671,3.21501516116108
0,-3.9359968912621945,-0.9614910747736604,-5.530763552972783,-3.974533721267441,3.220015184739875
0,-11.625721291868986,-7.892082121570027,-10.41059384108658,-12.975122080239094,3.2250152083186627
0,-10.405445724564728,-8.442672204733604,-9.160423834419467,-17.28570935205024,3.2300152318974504
0,-6.205170176043696,-11.203261312342907,-7.930253517558209,-9.206295526670107,3.235015255476238
0,-5.354894632129416,-12.80384943161876,-15.830082874180157,-6.546880592832265,3.240015279055026
0,4.035380922011076,-1.6244365487977352,-3.3399118869802376,4.072535461700598,3.2450153026338135
0,-0.8543434984711519,-5.19502264925332,-3.1997405377250048,-3.8180473503415917,3.2500153262126013
0,3.3159321215952207,1.7843922821963942,3.2604311924329634,-4.928629016039162,3.255015349791389
0,2.0262077972542847,3.523808260975234,5.260603322523693,-0.36920952227003434,3.2600153733701838
0,-1.9535164566122574,-4.6967746974786415,-1.0192241285653754,-2.879788855637421,3.2650153969489715
0,4.206759374750044,-0.17735657775243868,3.5509488578039896,5.209632997450696,3.270015420527759
0,7.27703530595027,7.212062635602139,8.31112230002354,5.549056050569816,3.275015444106547
0,3.287311351282334,-1.5185170420336038,0.06129621614442449,-0.291519682955791,3.2800154676853346
0,8.11758752455381,0.0809044045275219,7.251470623787648,5.017905809862613,3.2850154912641223
0,8.827863838998042,7.580326990305435,6.741645540131688,4.537332541707789,3.29001551484291
0,4.758140307184046,9.559750730067588,13.381820981791101,8.92676052488764,3.2950155384216977
0,7.218416940979885,4.849175638049201,13.031996964553322,10.036189771145436,3.3000155620004925
0,6.078693751603563,7.098601727790291,7.74217350314264,13.24562029143226,3.30501558557928
0,9.478970749633872,12.048029012128127,17.41235061114708,16.4950520956646,3.310015609158068
0,7.63924794494489,3.387457503150673,10.172528300986045,10.304485192511926,3.3150156327368556
0,1.3295253466785237,-4.143112787754374,-0.0372934160710236,4.8639195893769305,3.3200156563156433
0,1.0298029633920964,4.056318150417538,1.382885470393397,1.9033552926735753,3.325015679894431
0,-2.689919196659265,-0.9842496714272716,-2.9469350295700436,0.5627923082369869,3.3300157034732187
0,-8.209641125221186,-4.7048162423974675,-0.8167549059457987,3.772230641614907,3.3350157270520135
0,-10.609362813709016,-10.56538155146043,-5.656574148591161,-4.288329701807217,3.3400157506308013
0,-14.329084252834722,-10.665945587089919,-11.416392747060115,-7.088888716659403,3.345015774209589
0,-8.068805432306794,-2.586508336978041,-2.686210690370442,-7.869446397289779,3.3500157977883767
0,-0.9685263408005875,2.9729302119035994,1.5639720330767877,-5.69000273747979,3.3550158213671644
0,2.3217530337265244,6.122370072892394,5.314155435221152,-2.9005577303684564,3.360015844945952
0,3.752032703557295,7.181811259152106,6.084339527912225,2.4488886314035763,3.3650158685247398
0,-6.977687319087586,-0.08874621660780202,-7.875475677315951,-5.841663644535979,3.3700158921035275
0,-7.59740702195724,-5.169302342074412,-7.415290169053456,-1.8622145503899983,3.3750159156823223
0,1.3728736075230537,2.0801428949701863,-1.0151039355956526,7.207235921811531,3.38001593926111
0,3.4431545823006657,2.1395895068269657,7.765083035163293,5.866687780022753,3.3850159628398977
0,7.973435915365526,2.8590375057781654,2.535270755392512,5.126141031841389,3.3900159864186854
0,3.1737176193829653,9.138486903882999,4.035459236959589,5.205595684330165,3.395016009997473
0,-4.066000293418485,-2.8920622871729127,-3.0343515086233186,2.5350517440355813,3.400016033576261
0,5.264282188925338,1.067389943943002,-0.8941614700197336,4.774509217062666,3.4050160571550485
0,6.84456507823233,5.526843608369839,4.576029364095237,7.553968109103596,3.410016080733836
0,4.664848386011965,2.326298717073328,6.356221004981586,5.943428425362567,3.415016104312631
0,-1.5848678766838074,2.635755280736372,1.0864134636083216,3.7028901704688604,3.4200161278914187
0,5.605416300832797,2.9352133097338857,5.816606750546003,6.212353348493627,3.4250161514702064
0,2.3557009290013564,8.92467281412823,10.526800875936424,12.281817962955982,3.430016175048994
0,8.72598601795635,9.32413380352238,3.9569958493631026,8.711284016669628,3.435016198627782
0,2.066271577393328,4.453596286851067,8.097191679732354,9.950751511553078,3.4400162222065696
0,7.316557616504233,6.953060272322906,7.137388375273337,9.150220448571691,3.4450162457853573
0,8.016844143950856,4.8625257675035165,8.557585943531041,8.709690827764549,3.450016269364145
0,3.667131167806906,4.2119927793947145,6.9677843913193644,4.33916264830265,3.4550162929429398
0,3.777418695549957,1.8914613145109724,-0.25201627525158976,5.628635908615475,3.4600163165217275
0,1.3477067341837867,2.1509313789921802,4.3581839494006696,7.218110606525187,3.465016340100515
0,2.4879952903886804,-1.80959702126377,0.15838507053859463,0.40758673931136347,3.470016363679303
0,0.9482843706138209,0.8898761195291733,-0.461412906769065,2.2970643038025473,3.4750163872580906
0,-3.621426018838272,-5.290649192830532,0.2087900224427976,0.05654329654605572,3.4800164108368783
0,2.298864128305156,0.09882704758294186,-0.5810061368742871,0.856023713944835,3.485016434415666
0,5.929154818319279,3.9183048468509654,2.229198620233905,0.9355055523147902,3.490016457994461
0,5.749446057297632,8.527784211028257,5.499404298652951,1.574988807892853,3.4950164815732485
0,1.619737850934194,9.157265145792165,2.6496109030505743,3.36447347680174,3.500016505152036
0,6.860030204472579,10.546747656125502,6.059818437739617,3.493959554975433,3.505016528730824
0,7.610323122707917,15.45623174609413,11.640026906571851,2.7034470380794278,3.5100165523096116
0,-6.119383390037755,-3.3642825812521164,-3.579763687181354,-3.4470640784847864,3.5150165758883993
0,-3.9090893297238365,-13.144795323578853,-6.919553340710575,-4.237573799410287,3.520016599467187
0,-4.168794692193508,-9.245306478492905,-7.559342051180178,-3.848082129224742,3.5250166230459747
0,-1.0184994729366592,-7.825816042860231,-2.679129815284424,1.1214109278533648,3.5300166466247695
0,-1.6982036671232883,-4.656324012649687,-2.9289166291698145,5.340905367810456,3.5350166702035573
0,-3.657907269696656,-6.576830383085521,-5.8887024885501145,-2.2695988134047487,3.540016693782345
0,-6.947610275357392,-9.22733514875877,-7.948487388728995,-6.9901016199446735,3.5450167173611327
0,-9.627312678396502,-13.567838303551882,-12.678271324437997,-8.770603055792108,3.5500167409399204
0,-4.997014472486649,-11.038339840424145,-10.868054289580561,-7.201103124394324,3.555016764518708
0,-3.076715650617807,-6.868839751263909,-7.537836277057995,-3.881601828495173,3.5600167880974958
0,-5.476416205212228,3.2906619729778064,1.4423827211577893,-1.3220991702167484,3.5650168116762835
0,-1.0761161282585952,-4.31983465810187,-2.697397286306948,-1.63259515126847,3.5700168352550783
0,1.9141845885731184,1.7896703653029,-4.847176290534415,-3.0130897731149813,3.575016858833866
0,-3.055514046223081,-7.910822946877984,-4.656954282349174,1.9564169629560146,3.5800168824126537
0,-9.745212024029602,-2.0213145844899776,-4.176731252205272,-1.574074944223411,3.5850169059914414
0,-5.344909335887924,-4.251804537031407,-4.106507190123464,3.4654345042079284,3.590016929570229
0,-2.62460597227498,-6.06229279360518,-4.796282085700538,1.9149453070433653,3.595016953149017
0,4.035698076824475,-3.0027793428948764,5.103944071832032,3.7444574629066305,3.6000169767278045
0,0.8360028216059974,0.6267358268218912,3.4741712933979487,7.723970970138473,3.6050170003065922
0,6.326308272155853,1.0062527275299706,6.984399589750024,8.64348582663444,3.610017023885387
0,-1.7933855616951386,2.1157713712632633,3.6146289712259314,2.6330020296785395,3.6150170474641747
0,3.616921329628061,9.015291769916107,1.3348594476964037,6.422519575924959,3.6200170710429624
0,1.4772289555116733,14.534813934968838,6.705091028637144,2.3720384615033305,3.62501709462175
0,8.557537325125013,10.594337877096645,17.015323723076314,18.001558682024594,3.630017118200538
0,6.367846447260178,-4.106136394022074,0.13555753932731734,5.021080232371644,3.6350171417793256
0,5.90815633014765,3.193391130576293,2.655792484891754,7.280603106506343,3.6400171653581133
0,4.858466981393695,0.3329204595788927,-1.5839714332445887,2.490127297561857,3.645017188936901
0,-11.211221591867108,-8.5275483983648,-11.703734208187788,-4.070347201862318,3.6500172125156958
0,-5.590909382554447,-6.568015434422216,-9.193495832713571,-4.120820399341313,3.6550172360944835
0,-1.6105963831867538,-6.968480639274464,-7.6432562988767465,-7.021292302263439,3.660017259673271
0,-1.5002825857855295,-9.898944002927298,-7.993015597864793,-6.361762917572786,3.665017283252059
0,-2.2699679820597987,-3.8194055146556627,-3.252773720079147,3.037767748304556,3.6700173068308466
0,-8.859652563480784,-5.2598651630382465,-4.062530655281488,-13.57270031062036,3.6750173304096343
0,-5.249336321142049,2.89967706387987,-5.202286392742377,-5.683167099884647,3.680017353988422
0,-7.709019245575731,1.4392211783193587,-3.4620409213104533,-8.60363262437411,3.685017377567217
0,-6.618701326663539,-7.651232807441569,-9.571794229381927,-10.204096888183285,3.6900174011460045
0,1.0616174463303447,2.888315118952032,-0.5715463048384642,-0.044559894622592855,3.695017424724792
0,6.85193708453622,5.877864969976235,8.398702864867346,0.2949783536136311,3.70001744830358
0,0.7222575990817548,8.327416757985462,6.39895329231344,-0.2654821458719571,3.7050174718823676
0,-3.657420999136428,2.6269704948764696,-1.150795010304413,-3.5759413953960753,3.7100174954611553
0,-2.7970986993146365,0.8265261920125813,-2.5805420311833913,-4.976399397155253,3.715017519039943
0,-3.1167754904888714,-8.673916139544914,-6.090287758583738,-4.036856153064964,3.7200175426187307
0,4.093548638543821,-3.4943564886473544,-0.2200321805344521,-4.737311664643064,3.7250175661975256
0,6.0638736990534765,-0.99479484377372,2.5302247152193513,-4.427765932974671,3.7300175897763133
0,5.074199702074727,7.304768806910007,2.9304829410237976,-3.508218958714037,3.735017613355101
0,1.0445266582105637,1.3543344752265676,-0.8692574908903448,2.2913292578577056,3.7400176369338887
0,-0.3351454223176077,4.463902172716743,6.091003431524232,2.800878716651428,3.7450176605126764
0,-1.0748165294725844,6.753471910550295,6.99126572006945,3.9104294175146475,3.750017684091464
0,2.8155133467478026,5.5830436994584645,4.051529386131794,3.109981360043974,3.755017707670252
0,-1.584155783671318,1.4226175496634133,-2.3082055593835573,-6.720465456423783,3.7600177312490395
0,-0.9538239107758371,-1.557806529032835,-1.297939105863072,-5.310911032581714,3.7650177548278343
0,2.52650897539206,3.0817714729618957,1.812328757269654,1.1986446311450625,3.770017778406622
0,-0.813157115209884,6.0913515651153265,2.4325980406104053,7.278201534596651,3.7750178019854097
0,2.1671778273235707,7.020933756621497,6.882868754635412,10.377759677499219,3.7800178255641974
0,0.03751381281741384,6.160518056177523,7.853140909479633,1.4573190590545917,3.785017849142985
0,1.5578508510133642,0.850104471901943,1.7634145147529425,-5.823120322099042,3.790017872721773
0,4.898188951534561,6.779693011418103,5.293689579522957,-0.7735584675272396,3.7950178963005605
0,2.048528123802616,-0.610716318035737,2.2939661124148474,-0.3939953786603214,3.8000179198793482
0,4.408868376943971,1.2888764904794947,5.854244121679475,-0.724431056753365,3.805017943458143
0,12.379209719700158,9.20847144366798,7.614523615154924,-1.284865502967336,3.8100179670369307
0,15.94955216017263,10.178068547873533,7.804804600144573,3.0247012815904677,3.8150179906157184
0,19.929895705380833,17.86766780871986,16.85508708322373,10.33426929574313,3.820018014194506
0,29.11024036077109,23.057269230651272,21.305371069922323,11.55383853791693,3.825018037773294
0,25.66058612973319,27.116872816428536,19.59565656427957,9.55340900575531,3.8300180613520816
0,34.06093301317832,39.42647856657287,29.86594356843962,9.292980695920374,3.8350180849308693
0,44.3212810091505,49.52608647868324,39.34623208224152,11.072553604087245,3.840018108509664
0,50.78163011225997,54.68569654657828,45.8565221025904,10.652127724954095,3.845018132088452
0,51.06198031296345,51.48530875949759,48.56681362269479,15.61170305217573,3.8500181556672395
0,51.652331597019334,56.94492310163604,50.977106631454724,22.12127957817678,3.855018179246027
0,50.4226839452488,57.11453955194045,47.07740111311297,17.890857293837133,3.860018202824815
0,51.98303733348928,49.29415808399987,46.84769704715472,17.020436188244297,3.8650182264036026
0,44.883391732628084,47.873778666124764,41.337994408417465,14.490016248695808,3.8700182499823903
0,44.62374710874769,45.42340126164526,37.488293167334824,14.549597460855622,3.875018273561178
0,36.564103423407744,28.5430258293143,28.768593290315618,9.169179808924916,3.880018297139973
0,36.654460634015244,27.062652323900085,30.408894740220404,8.398763275842425,3.8850183207187605
0,26.00481869423067,27.99228069690092,25.229197476802142,5.538347843531182,3.8900183442975482
0,25.68517755442372,23.4619108970306,22.27950145702201,7.837933493112967,3.895018367876336
0,15.61553716217809,9.711542870516851,13.229806635382406,4.497520205028656,3.9000183914551236
0,8.545897462851428,11.681176561576379,13.320112964367567,12.107107959063569,3.9050184150339113
0,5.166258400206658,2.230811913031717,8.690420394906994,3.6066967342973393,3.910018438612699
0,-0.5233800829641351,2.090448866831721,0.05072887677244964,-2.9537134908597267,3.9150184621914867
0,-6.783018044307486,-2.0399126355379016,-6.01896164095154,-9.91412273831899,3.9200184857702816
0,-10.862655541396531,-15.48027265264955,-12.988651209248056,-6.01453102976743,3.9250185093490693
0,-19.252292631193367,-21.030631242560556,-14.828339878528933,-4.864938386303819,3.930018532927857
0,-9.311929369570803,-14.520988462125167,-10.668027698158223,0.5046551715675975,3.9350185565066447
0,-12.05156581109104,-10.121344366624804,-7.617714716299444,0.45424962371204025,3.9400185800854324
0,-12.681202009071107,-17.541699009850774,-10.58740098003728,2.103844950107531,3.94501860366422
0,-18.720838015621045,-23.97205244417007,-19.767086535449565,-5.7865588692831915,3.950018627243008
0,-20.890473881454046,-25.552404720234247,-23.446771427352065,-4.806961854418185,3.9550186508217955
0,-19.63010965558929,-28.73275588653393,-23.15645569882304,-1.107364024974308,3.9600186744005903
0,-19.06974538515527,-25.01310598908289,-16.386139390874657,-3.8477654002743735,3.965018697979378
0,-24.279381115329443,-25.973455071310607,-20.09582254245952,-5.448165999321547,3.9700187215581657
0,-20.779016889268707,-31.173803174055074,-20.97550519060972,-8.748565840736276,3.9750187451369534
0,-27.678652747984994,-30.024150335479312,-18.855187370456765,-7.888964942578481,3.980018768715741
0,-17.23828873024476,-22.594496590954332,-17.754869115208297,0.7706366777550182,3.985018792294529
0,-23.647924872586135,-24.694841973136327,-17.294550456214395,-7.219760996573035,3.9900188158733165
0,-19.357561209423196,-24.925186512182417,-17.154231423062498,-3.7401579819840736,3.9950188394521113
0,-20.857197773119214,-16.045530235909713,-17.673912043637092,-10.6505542944506,4.000018863030899
0,-18.33683459403003,-19.495873169976527,-19.08359234412053,-9.230949949321829,4.005018886609687
0,-19.076471700571453,-15.546215338128146,-9.873272348999258,-2.18134496118479,4.0100189101884745
0,-14.886109119308744,-12.546556762400568,-9.012952081235282,-1.8017393439431286,4.015018933767262
0,-16.825746875072458,-18.02689746327382,-11.112631562569304,-1.30213311107932,4.02001895734605
0,-16.935384991058925,-18.717237459719676,-17.392310813678964,-1.272526275861283,4.025018980924838
0,-18.49502348884727,-18.327576769083553,-17.071989854030267,-3.7429188513984384,4.030019004503625
0,-13.974662388362152,-17.97791540695647,-21.681668701579774,-9.673310850560984,4.03501902808242
0,-22.284301707860898,-15.338253387162785,-12.52134737256437,-5.013702285777396,4.040019051661208
0,-13.183941463914788,-15.918590721839436,-12.91102588152546,-2.714093168885292,4.0450190752399955
0,-10.92358167144027,-7.7689274215792015,-10.850704241533393,-0.8244835112096625,4.050019098818783
0,-11.843222343906506,-5.529263495686865,-11.190382464418065,-1.2348733237677871,4.055019122397571
0,-15.772863493541882,-11.889598952495922,-12.910060560871855,-7.035262617377287,4.060019145976359
0,-6.892505131371084,-17.29993379945662,-14.73973854042969,-11.905651402530285,4.065019169555146
0,-11.592147267247764,-10.820268042915965,-13.009416411380668,-7.5860396890907005,4.070019193133934
0,-11.591789909965698,-4.22060168797651,-14.549094180685758,-11.056427486056673,4.075019216712729
0,-14.921433067257954,-1.6009347387392778,-11.668771853967787,-7.00681480150453,4.0800192402915165
0,-5.591076745712966,-9.131267198687757,-9.39844943557123,-5.007201642648433,4.085019263870304
0,-12.230720950809147,-7.23159907081226,-5.218126928718985,-3.717588015986567,4.090019287449092
0,-8.560365687038784,-0.0419303575279536,-4.947804335762013,4.562026072466497,4.09501931102788
0,-11.740010957939267,-10.90226106068666,-10.077481658377394,1.0716406168789374,4.100019334606667
0,-0.29965676611555825,4.917408818328436,5.122841102336396,3.281255611327258,4.105019358185455
0,5.110696886514491,7.797079278410877,10.743163945609654,4.870871049650776,4.110019381764243
0,1.06104999825203,6.476750318310077,4.983486870471623,0.41048692539397835,4.115019405343038
0,2.0314025672518228,2.7364219362636106,2.5738098753574237,5.4701032317936695,4.120019428921825
0,-0.5082454085397651,4.446094129958803,1.0141329581582792,3.0597199617812625,4.125019452500613
0,9.88210606864502,10.805766896603428,5.174456116428325,3.1793371079547947,4.130019476079401
0,6.452456996257498,4.575440232846162,5.614779347432195,8.208954662537469,4.135019499658188
0,3.7028073712068386,-1.2448858652878318,-0.16489735193082394,3.42857261730773,4.140019523236976
0,-2.1968428101468183,1.7347885977888053,-4.234573985069878,-0.6818090364312264,4.145019546815764
0,0.9535064482515149,-1.475536382501406,-6.594250555412209,-3.3321903076837964,4.150019570394559
0,-2.0961448576030492,-8.5558608107089,-6.353927066060223,-9.582571205423498,4.155019593973346
0,-4.445796731640301,-13.68618469107322,-9.093603519563445,-7.412951738227865,4.160019617552134
0,-4.8054491775869055,-12.83650802708442,-1.9632799178176144,-5.803331914023291,4.165019641130922
0,3.0848978011366555,-0.18683082120169442,-1.4529562621361285,0.2762882599279478,4.170019664709709
0,4.145244201306529,2.712846924957967,6.767367446494459,5.805908776772327,4.175019688288497
0,2.865590019611963,-1.7674747898747913,-0.7223087929165275,1.3955296296827973,4.180019711867285
