labels,F4,F3,Fz,Cz,timestamps
0,-1820.6,-912.43,-3121.89,56.87,-2.0000094315154477
0,-1818.61,-911.26,-3119.13,55.71,-1.99500940793666
0,-1820.44,-911.31,-3120.72,50.39,-1.9900093843578688
0,-1817.64,-904.88,-3116.65,58.9,-1.985009360779081
0,-1815.56,-905.4,-3111.89,58.17,-1.9800093372002934
0,-1817.28,-907.58,-3115.82,56.48,-1.9750093136215057
0,-1822.59,-911.57,-3123.14,50.74,-1.9700092900427144
0,-1830.88,-925.12,-3127.14,44.98,-1.9650092664639267
0,-1829.32,-922.81,-3128.35,46.11,-1.960009242885139
0,-1822.97,-910.5,-3123.76,57.37,-1.9550092193063477
0,-1833.05,-923.42,-3130.1,50.03,-1.95000919572756
0,-1834.17,-920.12,-3133.91,47.28,-1.9450091721487723
0,-1831.04,-920.48,-3135.86,49.55,-1.9400091485699846
0,-1831.51,-918.19,-3131.9,49.62,-1.9350091249911934
0,-1825.6,-916.34,-3124.25,49.81,-1.9300091014124057
0,-1835.06,-922.64,-3129.08,49.17,-1.925009077833618
0,-1835.42,-925.05,-3135.05,41.1,-1.9200090542548303
0,-1845.82,-928.47,-3139.3,39.36,-1.915009030676039
0,-1842.6,-926.83,-3135.63,44.58,-1.9100090070972513
0,-1834.74,-923.52,-3131.52,47.68,-1.9050089835184636
0,-1834.64,-921.29,-3136.38,42.55,-1.900008959939676
0,-1840.23,-922.67,-3135.63,40.42,-1.8950089363608846
0,-1828.55,-917.66,-3128.75,41.39,-1.890008912782097
0,-1830.06,-920.6,-3131.81,39.98,-1.8850088892033092
0,-1831.93,-930.8,-3133.58,40.7,-1.8800088656245215
0,-1821.15,-920.38,-3130.95,45.28,-1.8750088420457303
0,-1830.14,-914.96,-3129.49,47.29,-1.8700088184669426
0,-1832.07,-910.98,-3127.71,52.03,-1.8650087948881549
0,-1826.9,-912.43,-3127.14,50.57,-1.8600087713093671
0,-1821.02,-910.44,-3121.2,53.98,-1.855008747730576
0,-1825.76,-907.45,-3117.67,54.19,-1.8500087241517882
0,-1822.58,-914.21,-3122.88,48.89,-1.8450087005730005
0,-1827.44,-907.25,-3119.44,51.84,-1.8400086769942128
0,-1835.83,-920.02,-3129.53,48.62,-1.8350086534154215
0,-1828.84,-922.45,-3131.07,50.03,-1.8300086298366338
0,-1833.9,-912.23,-3125.57,49.51,-1.825008606257846
0,-1832.74,-922.32,-3132.68,45.22,-1.8200085826790584
0,-1825.67,-916.73,-3124.91,53.86,-1.8150085591002671
0,-1830.28,-922.89,-3130.52,48.62,-1.8100085355214794
0,-1829.82,-915.87,-3126.51,51.39,-1.8050085119426917
0,-1825.39,-916.05,-3127.64,49.21,-1.800008488363904
0,-1824.69,-923.68,-3130.66,57.1,-1.7950084647851128
0,-1828.2,-929.88,-3134.14,54.15,-1.790008441206325
0,-1832.1,-924.28,-3130.79,49.31,-1.7850084176275374
0,-1826.45,-908.1,-3128.39,51.96,-1.7800083940487461
0,-1828.89,-919.39,-3128.89,55.39,-1.7750083704699584
0,-1837.88,-922.21,-3130.89,56.46,-1.7700083468911707
0,-1825.32,-922.32,-3129.77,53.43,-1.765008323312383
0,-1827.83,-915.7,-3122.03,52.15,-1.7600082997335917
0,-1828.75,-916.3,-3127.91,56.07,-1.755008276154804
0,-1833.81,-918.51,-3125.94,48.6,-1.7500082525760163
0,-1831.41,-916.56,-3125.38,46.65,-1.7450082289972286
0,-1824.92,-917.09,-3125.14,47.41,-1.7400082054184374
0,-1831.94,-917.52,-3127.69,56.4,-1.7350081818396497
0,-1821.63,-913.08,-3121.27,60.6,-1.730008158260862
0,-1822.46,-906.21,-3116.26,62.92,-1.7250081346820743
0,-1819.4,-907.74,-3115.2,60.3,-1.720008111103283
0,-1816.14,-903.37,-3113.99,63.93,-1.7150080875244953
0,-1827.82,-908.38,-3118.51,58.16,-1.7100080639457076
0,-1825.9,-908.41,-3121.95,54.59,-1.7050080403669199
0,-1823.46,-909.22,-3122.32,54.91,-1.7000080167881286
0,-1829.65,-911.33,-3127.02,50.08,-1.695007993209341
0,-1831.02,-914.46,-3128.25,49.27,-1.6900079696305532
0,-1831.58,-915.79,-3125.03,51.76,-1.6850079460517655
0,-1832.36,-913.53,-3127.6,50.0,-1.6800079224729743
0,-1828.53,-921.01,-3127.44,46.45,-1.6750078988941866
0,-1832.11,-914.14,-3123.08,51.05,-1.6700078753153988
0,-1822.38,-921.88,-3124.97,48.62,-1.6650078517366111
0,-1818.34,-915.95,-3123.5,50.71,-1.6600078281578199
0,-1823.63,-916.0,-3128.12,49.64,-1.6550078045790322
0,-1830.93,-921.43,-3134.07,45.41,-1.6500077810002445
0,-1828.29,-926.73,-3132.94,47.3,-1.6450077574214568
0,-1828.76,-923.24,-3136.68,42.54,-1.6400077338426655
0,-1828.99,-920.12,-3131.49,40.3,-1.6350077102638778
0,-1834.79,-915.87,-3127.91,45.63,-1.63000768668509
0,-1835.97,-913.06,-3135.02,41.95,-1.6250076631062988
0,-1834.31,-911.79,-3129.31,44.44,-1.6200076395275111
0,-1833.41,-924.41,-3128.24,43.65,-1.6150076159487234
0,-1831.87,-928.89,-3133.04,49.33,-1.6100075923699357
0,-1832.99,-921.18,-3132.04,50.52,-1.6050075687911445
0,-1833.42,-921.3,-3129.54,51.62,-1.6000075452123568
0,-1834.05,-923.74,-3132.07,48.93,-1.595007521633569
0,-1834.76,-919.74,-3129.71,44.91,-1.5900074980547814
0,-1833.72,-923.67,-3127.53,49.26,-1.58500747447599
0,-1830.63,-923.68,-3133.61,49.21,-1.5800074508972024
0,-1828.41,-922.94,-3131.56,56.63,-1.5750074273184147
0,-1833.83,-923.12,-3132.8,57.18,-1.570007403739627
0,-1835.02,-927.6,-3136.03,45.86,-1.5650073801608357
0,-1830.86,-923.18,-3135.72,44.71,-1.560007356582048
0,-1826.3,-920.06,-3127.65,50.04,-1.5550073330032603
0,-1828.1,-923.25,-3126.87,47.31,-1.5500073094244726
0,-1826.93,-909.43,-3116.85,54.85,-1.5450072858456814
0,-1828.55,-906.85,-3120.31,52.97,-1.5400072622668937
0,-1827.87,-916.43,-3123.89,50.31,-1.535007238688106
0,-1828.09,-914.15,-3126.74,50.75,-1.5300072151093183
0,-1830.25,-924.65,-3131.25,50.23,-1.525007191530527
0,-1828.94,-923.22,-3123.9,50.2,-1.5200071679517393
0,-1829.02,-917.26,-3122.21,47.67,-1.5150071443729516
0,-1828.97,-922.15,-3134.22,45.74,-1.5100071207941639
0,-1833.74,-919.09,-3135.15,48.0,-1.5050070972153726
0,-1836.24,-932.72,-3134.4,45.95,-1.500007073636585
0,-1831.59,-926.92,-3133.76,46.35,-1.4950070500577972
0,-1827.18,-922.91,-3126.93,45.49,-1.4900070264790095
0,-1828.42,-924.37,-3128.19,50.85,-1.4850070029002183
0,-1829.4,-921.69,-3132.89,44.51,-1.4800069793214305
0,-1831.35,-920.7,-3126.61,49.02,-1.4750069557426428
0,-1831.11,-921.14,-3126.34,48.35,-1.4700069321638551
0,-1823.53,-922.13,-3126.51,49.32,-1.4650069085850639
0,-1819.57,-914.21,-3121.31,53.76,-1.4600068850062762
0,-1817.42,-910.92,-3115.37,56.51,-1.4550068614274885
0,-1818.1,-902.17,-3119.5,59.42,-1.4500068378486972
0,-1822.68,-914.73,-3122.16,49.46,-1.4450068142699095
0,-1821.18,-912.74,-3122.41,55.13,-1.4400067906911218
0,-1829.8,-916.26,-3125.17,51.32,-1.435006767112334
0,-1823.55,-912.88,-3123.53,55.46,-1.4300067435335428
0,-1822.08,-905.64,-3116.91,57.99,-1.4250067199547551
0,-1825.06,-907.12,-3123.77,49.29,-1.4200066963759674
0,-1830.8,-919.07,-3125.6,53.19,-1.4150066727971797
0,-1828.99,-911.0,-3122.18,52.51,-1.4100066492183885
0,-1832.73,-913.01,-3126.04,50.88,-1.4050066256396008
0,-1827.98,-907.74,-3124.88,48.9,-1.400006602060813
0,-1825.27,-909.3,-3123.16,52.58,-1.3950065784820254
0,-1824.47,-907.21,-3123.98,53.93,-1.390006554903234
0,-1832.17,-922.37,-3131.51,49.29,-1.3850065313244464
0,-1826.89,-928.13,-3125.77,49.67,-1.3800065077456587
0,-1824.62,-909.88,-3121.54,54.27,-1.375006484166871
0,-1828.02,-913.77,-3126.35,52.18,-1.3700064605880797
0,-1824.93,-918.28,-3125.41,48.08,-1.365006437009292
0,-1826.3,-917.19,-3126.2,50.11,-1.3600064134305043
0,-1828.84,-917.7,-3128.86,51.98,-1.3550063898517166
0,-1824.23,-914.23,-3123.76,53.27,-1.3500063662729254
0,-1826.39,-906.08,-3118.64,53.97,-1.3450063426941377
0,-1824.53,-908.86,-3120.4,50.94,-1.34000631911535
0,-1821.77,-906.7,-3120.94,53.24,-1.3350062955365622
0,-1813.61,-906.64,-3121.95,58.61,-1.330006271957771
0,-1826.79,-918.47,-3128.69,48.75,-1.3250062483789833
0,-1838.95,-925.06,-3132.16,50.14,-1.3200062248001956
0,-1829.23,-918.45,-3125.07,54.64,-1.3150062012214079
0,-1831.07,-918.62,-3125.64,52.5,-1.3100061776426166
0,-1834.79,-914.5,-3123.67,54.35,-1.305006154063829
0,-1832.98,-917.2,-3130.05,50.16,-1.3000061304850412
0,-1832.47,-919.51,-3133.52,50.05,-1.29500610690625
0,-1831.17,-908.44,-3128.01,49.15,-1.2900060833274622
0,-1828.99,-906.83,-3125.43,51.64,-1.2850060597486745
0,-1832.04,-913.16,-3128.18,49.48,-1.2800060361698868
0,-1822.7,-914.97,-3123.13,50.46,-1.2750060125910956
0,-1818.33,-921.03,-3123.92,48.34,-1.2700059890123079
0,-1823.47,-912.72,-3122.13,46.61,-1.2650059654335202
0,-1820.32,-911.79,-3120.22,52.86,-1.2600059418547325
0,-1823.43,-918.0,-3120.21,47.7,-1.2550059182759412
0,-1832.04,-918.67,-3130.44,47.79,-1.2500058946971535
0,-1826.22,-920.26,-3124.77,49.08,-1.2450058711183658
0,-1828.49,-919.19,-3125.29,50.28,-1.240005847539578
0,-1828.07,-920.8,-3127.82,53.68,-1.2350058239607868
0,-1827.74,-923.01,-3125.73,53.92,-1.2300058003819991
0,-1829.8,-918.57,-3125.39,54.33,-1.2250057768032114
0,-1834.37,-918.93,-3126.03,50.53,-1.2200057532244237
0,-1831.56,-923.2,-3132.67,49.19,-1.2150057296456325
0,-1826.83,-917.99,-3129.41,53.26,-1.2100057060668448
0,-1831.35,-908.83,-3126.61,53.54,-1.205005682488057
0,-1830.52,-913.16,-3129.64,56.37,-1.2000056589092694
0,-1822.96,-906.71,-3122.72,59.39,-1.195005635330478
0,-1824.34,-915.36,-3128.96,50.32,-1.1900056117516904
0,-1829.25,-925.86,-3132.07,48.21,-1.1850055881729027
0,-1825.58,-916.95,-3126.59,53.99,-1.180005564594115
0,-1834.19,-924.89,-3134.14,48.98,-1.1750055410153237
0,-1831.14,-923.18,-3130.13,49.42,-1.170005517436536
0,-1833.73,-918.31,-3134.19,46.61,-1.1650054938577483
0,-1831.73,-923.39,-3132.99,44.74,-1.1600054702789606
0,-1831.61,-917.91,-3131.49,49.44,-1.1550054467001694
0,-1829.69,-914.29,-3129.05,46.73,-1.1500054231213817
0,-1827.67,-905.03,-3121.85,55.05,-1.145005399542594
0,-1832.5,-915.79,-3123.53,56.65,-1.1400053759638062
0,-1829.4,-928.49,-3132.89,50.65,-1.135005352385015
0,-1830.43,-925.53,-3132.53,50.66,-1.1300053288062273
0,-1833.62,-925.23,-3132.21,47.67,-1.1250053052274396
0,-1843.09,-923.44,-3133.1,44.96,-1.1200052816486483
0,-1833.37,-924.21,-3130.39,50.39,-1.1150052580698606
0,-1830.73,-918.96,-3130.64,52.09,-1.110005234491073
0,-1822.54,-918.5,-3121.68,56.08,-1.1050052109122852
0,-1815.75,-911.69,-3119.03,55.18,-1.100005187333494
0,-1818.77,-909.06,-3115.59,57.46,-1.0950051637547062
0,-1821.26,-900.22,-3113.97,64.26,-1.0900051401759185
0,-1820.45,-910.57,-3116.91,56.15,-1.0850051165971308
0,-1821.33,-918.91,-3117.55,52.33,-1.0800050930183396
0,-1824.58,-917.41,-3125.43,54.06,-1.0750050694395519
0,-1816.11,-900.59,-3113.98,57.51,-1.0700050458607642
0,-1820.2,-908.98,-3121.99,54.47,-1.0650050222819765
0,-1825.26,-908.61,-3119.23,55.71,-1.0600049987031852
0,-1823.38,-914.24,-3120.47,60.09,-1.0550049751243975
0,-1817.94,-912.41,-3121.75,60.83,-1.0500049515456098
0,-1825.99,-915.33,-3129.76,59.04,-1.045004927966822
0,-1827.97,-917.29,-3126.14,54.57,-1.0400049043880308
0,-1832.5,-913.59,-3128.96,52.74,-1.0350048808092431
0,-1830.88,-915.05,-3126.74,51.54,-1.0300048572304554
0,-1829.84,-909.47,-3126.42,50.26,-1.0250048336516677
0,-1824.7,-915.73,-3123.79,51.29,-1.0200048100728765
0,-1822.18,-908.66,-3121.78,58.07,-1.0150047864940888
0,-1821.27,-911.75,-3120.88,54.68,-1.010004762915301
0,-1831.07,-910.94,-3127.28,52.28,-1.0050047393365134
0,-1831.48,-918.01,-3132.15,46.81,-1.000004715757722
0,-1825.27,-919.26,-3123.01,46.91,-0.9950046921789344
0,-1833.63,-921.37,-3126.45,44.52,-0.9900046686001467
0,-1827.02,-914.96,-3128.84,48.22,-0.985004645021359
0,-1835.53,-923.43,-3133.68,42.32,-0.9800046214425677
0,-1838.66,-914.2,-3127.49,43.45,-0.97500459786378
0,-1832.39,-911.85,-3126.15,38.51,-0.9700045742849923
0,-1832.89,-928.16,-3135.87,36.95,-0.9650045507062011
0,-1840.7,-925.28,-3134.02,42.36,-0.9600045271274134
0,-1833.07,-917.03,-3133.01,46.4,-0.9550045035486256
0,-1831.47,-922.5,-3126.28,44.99,-0.950004479969838
0,-1835.57,-922.77,-3136.24,39.49,-0.9450044563910467
0,-1829.83,-920.21,-3135.94,41.85,-0.940004432812259
0,-1834.42,-929.11,-3138.82,43.65,-0.9350044092334713
0,-1839.09,-925.95,-3135.49,40.69,-0.9300043856546836
0,-1834.94,-921.41,-3135.08,40.42,-0.9250043620758923
0,-1832.57,-918.24,-3131.78,43.61,-0.9200043384971046
0,-1832.17,-930.3,-3137.1,45.85,-0.9150043149183169
0,-1830.21,-923.96,-3137.72,46.37,-0.9100042913395292
0,-1828.13,-922.98,-3138.12,51.24,-0.905004267760738
0,-1834.63,-926.08,-3135.04,51.47,-0.9000042441819502
0,-1839.04,-921.21,-3133.81,50.07,-0.8950042206031625
0,-1834.86,-931.77,-3139.88,39.38,-0.8900041970243748
0,-1842.93,-937.14,-3146.22,36.47,-0.8850041734455836
0,-1840.48,-924.79,-3135.7,40.75,-0.8800041498667959
0,-1839.65,-935.64,-3139.49,46.86,-0.8750041262880082
0,-1835.93,-930.76,-3138.76,43.79,-0.8700041027092205
0,-1834.38,-923.59,-3137.7,46.84,-0.8650040791304292
0,-1834.83,-924.14,-3134.89,44.24,-0.8600040555516415
0,-1836.08,-926.01,-3137.42,42.4,-0.8550040319728538
0,-1840.43,-923.29,-3140.1,46.17,-0.8500040083940661
0,-1838.34,-921.48,-3135.22,46.39,-0.8450039848152748
0,-1828.41,-916.04,-3128.53,53.34,-0.8400039612364871
0,-1825.12,-907.02,-3124.36,54.37,-0.8350039376576994
0,-1826.11,-907.53,-3123.58,49.95,-0.8300039140789117
0,-1827.23,-915.8,-3130.8,49.49,-0.8250038905001205
0,-1823.05,-923.27,-3125.56,52.5,-0.8200038669213328
0,-1819.4,-917.26,-3120.2,56.33,-0.815003843342545
0,-1822.08,-909.49,-3117.86,55.42,-0.8100038197637573
0,-1827.2,-913.57,-3121.08,62.83,-0.8050037961849661
0,-1823.29,-913.87,-3124.44,55.57,-0.8000037726061784
0,-1823.16,-914.34,-3123.39,56.16,-0.7950037490273907
0,-1828.01,-920.75,-3125.36,46.31,-0.7900037254485994
0,-1822.78,-918.04,-3125.95,49.86,-0.7850037018698117
0,-1831.86,-915.02,-3121.37,50.97,-0.780003678291024
0,-1831.71,-918.69,-3122.64,52.21,-0.7750036547122363
0,-1824.26,-918.43,-3128.12,51.83,-0.770003631133445
0,-1822.28,-910.82,-3122.18,57.2,-0.7650036075546573
0,-1823.09,-908.68,-3121.58,61.92,-0.7600035839758696
0,-1819.08,-910.09,-3119.26,59.7,-0.7550035603970819
0,-1825.15,-909.67,-3119.22,60.73,-0.7500035368182907
0,-1818.86,-905.91,-3114.27,60.4,-0.745003513239503
0,-1818.98,-908.05,-3114.59,58.38,-0.7400034896607153
0,-1824.91,-910.04,-3117.37,58.08,-0.7350034660819276
0,-1823.45,-907.87,-3117.29,58.89,-0.7300034425031363
0,-1824.36,-909.93,-3117.71,56.0,-0.7250034189243486
0,-1828.24,-915.05,-3120.08,51.25,-0.7200033953455609
0,-1816.98,-908.75,-3118.35,56.05,-0.7150033717667732
0,-1819.08,-903.38,-3112.93,56.43,-0.7100033481879819
0,-1822.7,-907.4,-3116.76,53.25,-0.7050033246091942
0,-1820.33,-895.45,-3111.93,56.72,-0.7000033010304065
0,-1824.59,-897.86,-3117.49,55.74,-0.6950032774516188
0,-1827.52,-910.69,-3124.9,60.39,-0.6900032538728276
0,-1825.79,-918.56,-3127.41,51.2,-0.6850032302940399
0,-1830.33,-918.14,-3126.73,55.88,-0.6800032067152522
0,-1821.75,-913.91,-3122.38,55.59,-0.6750031831364645
0,-1822.49,-920.12,-3124.87,53.2,-0.6700031595576732
0,-1822.16,-916.76,-3122.89,53.58,-0.6650031359788855
0,-1829.72,-910.75,-3120.83,51.34,-0.6600031124000978
0,-1833.72,-918.13,-3132.3,44.29,-0.6550030888213101
0,-1831.49,-923.2,-3126.83,46.53,-0.6500030652425188
0,-1831.66,-925.46,-3134.67,42.28,-0.6450030416637311
0,-1837.11,-921.49,-3134.0,38.99,-0.6400030180849434
0,-1834.81,-917.72,-3131.9,36.62,-0.6350029945061522
0,-1840.85,-930.8,-3142.16,38.25,-0.6300029709273645
0,-1843.46,-932.86,-3142.39,34.41,-0.6250029473485768
0,-1836.89,-932.24,-3137.94,31.28,-0.620002923769789
0,-1834.51,-924.25,-3142.9,34.1,-0.6150029001909978
0,-1833.46,-923.97,-3134.68,30.79,-0.6100028766122101
0,-1834.76,-922.44,-3141.85,33.29,-0.6050028530334224
0,-1835.17,-921.3,-3135.5,34.23,-0.6000028294546347
0,-1839.9,-927.63,-3137.68,34.92,-0.5950028058758434
0,-1839.95,-926.37,-3140.49,29.93,-0.5900027822970557
0,-1838.7,-932.9,-3142.23,35.73,-0.585002758718268
0,-1829.87,-924.87,-3141.24,38.27,-0.5800027351394803
0,-1828.09,-924.14,-3134.43,43.39,-0.575002711560689
0,-1827.7,-917.47,-3135.59,45.92,-0.5700026879819013
0,-1831.75,-924.52,-3135.24,45.07,-0.5650026644031136
0,-1828.35,-920.8,-3129.28,45.78,-0.5600026408243259
0,-1832.66,-922.98,-3126.86,47.23,-0.5550026172455347
0,-1830.53,-914.74,-3125.57,51.05,-0.550002593666747
0,-1826.16,-916.82,-3126.23,53.19,-0.5450025700879593
0,-1826.62,-916.02,-3121.46,54.98,-0.5400025465091716
0,-1828.63,-915.62,-3127.41,48.38,-0.5350025229303803
0,-1822.11,-907.73,-3119.02,54.53,-0.5300024993515926
0,-1825.59,-910.89,-3124.54,54.98,-0.5250024757728049
0,-1824.94,-912.65,-3122.06,55.65,-0.5200024521940172
0,-1830.78,-912.38,-3122.34,52.44,-0.5150024286152259
0,-1827.45,-918.02,-3125.26,50.21,-0.5100024050364382
0,-1823.78,-904.54,-3117.98,50.85,-0.5050023814576505
0,-1826.08,-912.84,-3122.11,49.67,-0.5000023578788628
0,-1826.6,-909.89,-3120.86,50.88,-0.49500233430007157
0,-1829.32,-911.34,-3122.2,52.35,-0.49000231072128386
0,-1840.59,-927.03,-3134.84,44.33,-0.48500228714249616
0,-1832.21,-920.88,-3135.97,45.89,-0.48000226356370845
0,-1830.58,-915.88,-3126.13,52.59,-0.4750022399849172
0,-1822.52,-913.74,-3123.31,49.84,-0.4700022164061295
0,-1830.99,-919.23,-3126.23,47.96,-0.4650021928273418
0,-1826.73,-915.36,-3125.8,49.55,-0.46000216924855053
0,-1825.85,-920.87,-3125.04,50.73,-0.4550021456697628
0,-1825.98,-924.81,-3127.24,55.26,-0.4500021220909751
0,-1828.09,-918.31,-3128.48,52.26,-0.4450020985121874
0,-1829.09,-919.23,-3125.03,55.13,-0.44000207493339616
0,-1828.72,-920.49,-3126.26,51.32,-0.43500205135460845
0,-1827.48,-917.46,-3124.41,49.33,-0.43000202777582075
0,-1822.23,-910.6,-3120.82,58.71,-0.42500200419703305
0,-1822.73,-910.08,-3123.37,58.41,-0.4200019806182418
0,-1825.97,-910.22,-3121.77,54.88,-0.4150019570394541
0,-1827.26,-909.97,-3123.42,51.86,-0.4100019334606664
0,-1834.8,-921.36,-3130.2,45.91,-0.4050019098818787
0,-1832.29,-917.08,-3129.05,47.49,-0.4000018863030874
0,-1828.28,-916.86,-3126.12,52.87,-0.3950018627242997
0,-1825.37,-912.96,-3125.39,54.06,-0.390001839145512
0,-1817.99,-907.24,-3116.73,56.93,-0.3850018155667243
0,-1822.45,-907.24,-3114.42,59.3,-0.38000179198793305
0,-1822.85,-907.37,-3117.63,61.43,-0.37500176840914534
0,-1825.37,-904.72,-3120.03,59.74,-0.37000174483035764
0,-1824.71,-908.38,-3125.8,61.17,-0.36500172125156993
0,-1828.08,-915.73,-3126.83,56.6,-0.3600016976727787
0,-1826.35,-912.77,-3121.13,57.07,-0.35500167409399097
0,-1822.82,-915.42,-3118.26,59.6,-0.35000165051520327
0,-1823.67,-912.12,-3115.49,60.81,-0.34500162693641556
0,-1823.98,-918.49,-3124.29,61.62,-0.3400016033576243
0,-1824.15,-916.1,-3124.09,59.34,-0.3350015797788366
0,-1818.75,-906.82,-3116.85,60.93,-0.3300015562000489
0,-1830.72,-919.81,-3122.76,49.38,-0.3250015326212612
0,-1825.12,-902.01,-3122.18,53.3,-0.32000150904246993
0,-1824.16,-907.8,-3116.62,56.02,-0.31500148546368223
0,-1833.24,-919.55,-3128.22,52.38,-0.3100014618848945
0,-1830.34,-921.58,-3130.56,55.14,-0.30500143830610327
0,-1832.31,-920.52,-3130.55,52.32,-0.30000141472731556
0,-1837.66,-923.71,-3138.0,45.29,-0.29500139114852786
0,-1834.41,-922.02,-3129.08,44.54,-0.29000136756974015
0,-1836.41,-921.5,-3131.53,44.16,-0.2850013439909489
0,-1829.88,-914.82,-3125.06,50.88,-0.2800013204121612
0,-1829.13,-917.42,-3126.32,45.02,-0.2750012968333735
0,-1831.03,-908.99,-3125.99,50.42,-0.2700012732545858
0,-1830.88,-919.63,-3131.29,46.69,-0.2650012496757945
0,-1829.0,-920.06,-3129.38,45.14,-0.2600012260970068
0,-1824.89,-916.76,-3123.81,45.57,-0.2550012025182191
0,-1819.51,-918.33,-3122.21,47.05,-0.2500011789394314
0,-1826.83,-925.72,-3128.75,49.21,-0.24500115536064015
0,-1832.33,-924.39,-3131.14,51.69,-0.24000113178185245
0,-1828.87,-918.25,-3129.58,45.6,-0.23500110820306475
0,-1826.9,-920.1,-3127.67,54.02,-0.23000108462427704
0,-1834.43,-915.68,-3130.45,46.36,-0.22500106104548578
0,-1831.25,-922.48,-3129.99,50.43,-0.22000103746669808
0,-1828.49,-922.82,-3129.87,52.24,-0.21500101388791037
0,-1833.42,-920.96,-3133.82,46.25,-0.21000099030912267
0,-1828.09,-919.37,-3133.9,47.59,-0.2050009667303314
0,-1827.2,-928.92,-3128.02,45.53,-0.2000009431515437
0,-1823.39,-919.93,-3126.12,49.96,-0.195000919572756
0,-1828.86,-922.47,-3132.09,48.09,-0.1900008959939683
0,-1826.49,-911.34,-3128.37,52.83,-0.18500087241517704
0,-1831.85,-908.24,-3127.41,49.65,-0.18000084883638934
0,-1831.26,-920.85,-3130.92,40.47,-0.17500082525760163
0,-1830.97,-911.26,-3128.33,42.49,-0.17000080167881393
0,-1827.53,-917.0,-3131.15,41.0,-0.16500077810002267
0,-1835.25,-920.67,-3129.7,40.77,-0.16000075452123497
0,-1830.1,-929.52,-3136.46,43.21,-0.15500073094244726
0,-1831.24,-928.5,-3139.27,41.24,-0.15000070736365956
0,-1824.65,-919.99,-3130.74,42.74,-0.1450006837848683
0,-1825.41,-907.34,-3123.64,47.24,-0.1400006602060806
0,-1826.14,-911.92,-3120.08,46.86,-0.1350006366272929
0,-1833.28,-921.68,-3134.84,45.67,-0.13000061304850163
0,-1833.34,-921.7,-3135.12,42.6,-0.12500058946971393
0,-1833.94,-925.14,-3135.36,44.1,-0.12000056589092623
0,-1838.81,-927.42,-3136.34,43.01,-0.11500054231213852
0,-1833.68,-925.82,-3137.71,43.72,-0.11000051873334726
0,-1833.17,-931.72,-3137.86,37.81,-0.10500049515455956
0,-1833.86,-919.44,-3133.63,43.83,-0.10000047157577185
0,-1828.11,-914.45,-3129.96,45.87,-0.09500044799698415
0,-1834.35,-910.34,-3128.4,48.07,-0.09000042441819289
0,-1829.5,-923.28,-3132.31,43.77,-0.08500040083940519
0,-1829.01,-925.11,-3135.19,43.07,-0.08000037726061748
0,-1830.24,-924.69,-3126.95,44.69,-0.07500035368182978
0,-1834.5,-921.36,-3133.05,39.62,-0.07000033010303852
0,-1831.08,-917.37,-3127.6,45.71,-0.06500030652425082
0,-1826.54,-901.73,-3122.55,52.04,-0.06000028294546311
0,-1823.08,-910.53,-3121.08,53.93,-0.05500025936667541
0,-1821.63,-906.13,-3116.45,56.46,-0.05000023578788415
0,-1824.78,-909.71,-3121.11,57.02,-0.045000212209096446
0,-1830.08,-914.87,-3121.6,53.33,-0.04000018863030874
0,-1820.21,-910.87,-3118.67,59.39,-0.03500016505152104
0,-1816.68,-908.22,-3112.3,63.22,-0.03000014147272978
0,-1816.95,-898.17,-3106.97,59.73,-0.025000117893942075
0,-1822.3,-904.42,-3112.73,61.86,-0.02000009431515437
0,-1823.9,-913.78,-3119.2,53.54,-0.015000070736366666
0,-1819.67,-898.26,-3117.03,56.32,-0.010000047157575409
0,-1824.93,-900.99,-3119.3,56.37,-0.0050000235787877045
0,-1824.31,-914.22,-3122.2,57.2,0.0
0,-1826.05,-916.31,-3121.79,58.34,0.0050000235787877045
0,-1826.35,-915.63,-3121.02,55.03,0.010000047157578962
0,-1824.23,-912.57,-3124.2,57.53,0.015000070736366666
0,-1825.46,-911.74,-3123.11,59.51,0.02000009431515437
0,-1827.23,-907.74,-3123.18,57.34,0.025000117893945628
0,-1823.92,-904.88,-3121.13,55.75,0.030000141472733333
0,-1824.73,-918.01,-3125.39,50.75,0.03500016505152104
0,-1826.39,-919.75,-3126.47,49.77,0.04000018863030874
0,-1829.28,-920.27,-3127.18,51.22,0.0450002122091
0,-1830.91,-919.55,-3130.23,50.28,0.050000235787887704
0,-1829.86,-915.11,-3125.86,50.66,0.05500025936667541
0,-1824.64,-914.43,-3119.08,52.46,0.06000028294546311
0,-1832.17,-914.83,-3126.39,48.59,0.06500030652425437
0,-1833.33,-913.96,-3123.44,47.52,0.07000033010304207
0,-1836.37,-916.62,-3124.38,52.76,0.07500035368182978
0,-1820.84,-906.1,-3120.17,58.68,0.08000037726061748
0,-1822.58,-906.51,-3122.09,55.04,0.08500040083940874
0,-1828.4,-919.13,-3126.01,57.72,0.09000042441819645
0,-1834.59,-922.2,-3128.91,55.43,0.09500044799698415
0,-1828.12,-908.82,-3125.17,63.07,0.10000047157577185
0,-1830.59,-905.69,-3125.01,53.49,0.10500049515456311
0,-1825.55,-917.63,-3122.49,53.32,0.11000051873335082
0,-1823.53,-919.94,-3125.77,49.9,0.11500054231213852
0,-1826.29,-920.31,-3126.57,53.34,0.12000056589092623
0,-1824.84,-914.41,-3122.56,58.29,0.12500058946971748
0,-1833.95,-921.21,-3129.53,48.1,0.1300006130485052
0,-1833.61,-920.89,-3137.3,44.35,0.1350006366272929
0,-1832.04,-921.75,-3138.28,40.74,0.1400006602060806
0,-1831.44,-925.31,-3131.94,44.98,0.14500068378487185
0,-1826.17,-914.87,-3125.88,47.73,0.15000070736365956
0,-1824.99,-917.77,-3128.19,48.06,0.15500073094244726
0,-1832.23,-917.44,-3124.82,51.26,0.16000075452123497
0,-1825.89,-911.28,-3122.01,48.37,0.16500077810002622
0,-1832.63,-918.12,-3125.62,44.49,0.17000080167881393
0,-1830.64,-921.17,-3131.0,50.47,0.17500082525760163
0,-1835.87,-924.22,-3132.02,46.0,0.18000084883638934
0,-1832.06,-923.61,-3131.89,47.97,0.1850008724151806
0,-1820.42,-910.86,-3118.57,53.53,0.1900008959939683
0,-1824.23,-910.58,-3120.42,58.01,0.195000919572756
0,-1831.8,-915.6,-3126.53,48.43,0.20000094315154726
0,-1818.14,-907.45,-3124.88,54.99,0.20500096673033497
0,-1820.74,-911.59,-3121.32,54.68,0.21000099030912267
0,-1828.72,-925.33,-3130.08,56.33,0.21500101388791037
0,-1836.58,-926.68,-3133.36,49.77,0.22000103746670163
0,-1834.43,-927.11,-3137.4,46.75,0.22500106104548934
0,-1837.48,-920.96,-3132.86,49.11,0.23000108462427704
0,-1832.06,-921.31,-3130.0,51.36,0.23500110820306475
0,-1827.18,-920.64,-3128.51,50.0,0.240001131781856
0,-1828.43,-915.33,-3126.28,55.66,0.2450011553606437
0,-1827.94,-917.96,-3128.8,49.23,0.2500011789394314
0,-1830.44,-918.57,-3132.57,48.0,0.2550012025182191
0,-1843.83,-921.31,-3135.95,44.15,0.2600012260970104
0,-1833.7,-925.11,-3132.62,44.82,0.2650012496757981
0,-1835.98,-921.27,-3134.08,40.26,0.2700012732545858
0,-1836.39,-916.27,-3129.49,44.12,0.2750012968333735
0,-1823.4,-927.42,-3122.53,47.13,0.28000132041216474
0,-1829.64,-921.52,-3124.74,51.34,0.28500134399095245
0,-1825.22,-918.48,-3124.68,50.83,0.29000136756974015
0,-1829.93,-917.65,-3123.4,54.33,0.29500139114852786
0,-1814.4,-908.4,-3117.64,57.45,0.3000014147273191
0,-1824.26,-918.81,-3127.95,48.08,0.3050014383061068
0,-1831.03,-915.2,-3121.16,53.1,0.3100014618848945
0,-1839.62,-920.42,-3131.72,40.78,0.31500148546368223
0,-1834.06,-920.95,-3133.33,39.85,0.3200015090424735
0,-1828.24,-911.84,-3129.68,43.76,0.3250015326212612
0,-1826.75,-920.94,-3130.31,43.62,0.3300015562000489
0,-1833.55,-927.8,-3134.51,47.6,0.3350015797788366
0,-1828.53,-929.47,-3136.53,44.77,0.34000160335762786
0,-1834.35,-929.1,-3138.14,37.22,0.34500162693641556
0,-1836.83,-918.13,-3130.79,43.07,0.35000165051520327
0,-1837.54,-928.66,-3136.42,43.79,0.3550016740939945
0,-1835.17,-928.6,-3140.78,43.15,0.36000169767278223
0,-1844.93,-924.71,-3141.55,37.03,0.36500172125156993
0,-1834.66,-930.51,-3137.43,46.25,0.37000174483035764
0,-1832.5,-925.15,-3129.89,61.1,0.3750017684091489
0,-1837.73,-936.47,-3144.44,44.77,0.3800017919879366
0,-1839.18,-939.14,-3149.7,30.02,0.3850018155667243
0,-1829.19,-930.66,-3139.2,33.73,0.390001839145512
0,-1828.63,-924.43,-3134.61,37.24,0.39500186272430327
0,-1822.34,-915.9,-3129.4,43.32,0.40000188630309097
0,-1796.0,-893.64,-3101.24,53.45,0.4050019098818787
0,-1780.84,-884.2,-3093.77,57.81,0.4100019334606664
0,-1777.78,-881.92,-3091.14,59.88,0.41500195703945764
0,-1769.8,-868.2,-3078.73,71.32,0.42000198061824534
0,-1773.52,-852.74,-3077.08,70.14,0.42500200419703305
0,-1772.95,-862.66,-3079.77,67.17,0.43000202777582075
0,-1789.42,-871.82,-3087.55,63.94,0.435002051354612
0,-1798.9,-887.34,-3094.72,68.93,0.4400020749333997
0,-1798.36,-893.01,-3099.07,67.89,0.4450020985121874
0,-1811.47,-904.64,-3109.39,62.68,0.4500021220909751
0,-1817.51,-905.92,-3114.71,61.48,0.4550021456697664
0,-1826.91,-917.29,-3123.47,49.04,0.4600021692485541
0,-1829.62,-919.64,-3128.21,53.56,0.4650021928273418
0,-1838.75,-922.72,-3127.3,52.75,0.4700022164061295
0,-1834.67,-910.59,-3130.87,52.17,0.47500223998492075
0,-1838.78,-921.08,-3134.31,42.12,0.48000226356370845
0,-1842.36,-935.48,-3140.82,47.98,0.48500228714249616
0,-1848.93,-939.32,-3147.17,42.85,0.49000231072128386
0,-1846.63,-946.86,-3143.36,42.48,0.4950023343000751
0,-1833.22,-938.73,-3143.15,50.41,0.5000023578788628
0,-1849.6,-933.98,-3142.05,43.96,0.5050023814576505
0,-1849.58,-939.49,-3147.64,38.04,0.5100024050364382
0,-1850.24,-940.24,-3148.95,40.55,0.5150024286152295
0,-1854.58,-942.99,-3145.6,41.86,0.5200024521940172
0,-1848.69,-933.16,-3144.86,42.74,0.5250024757728049
0,-1850.53,-924.6,-3139.35,45.5,0.5300024993515962
0,-1849.62,-926.36,-3139.68,43.71,0.5350025229303839
0,-1843.57,-931.94,-3137.18,45.96,0.5400025465091716
0,-1842.28,-940.56,-3142.54,44.62,0.5450025700879593
0,-1848.32,-946.17,-3153.19,41.88,0.5500025936667505
0,-1849.82,-945.73,-3149.78,44.06,0.5550026172455382
0,-1856.73,-946.33,-3149.07,41.86,0.5600026408243259
0,-1848.73,-938.67,-3142.1,37.73,0.5650026644031136
0,-1848.39,-931.14,-3147.89,42.53,0.5700026879819049
0,-1847.83,-936.92,-3149.86,36.45,0.5750027115606926
0,-1844.45,-947.25,-3151.78,34.54,0.5800027351394803
0,-1834.43,-938.7,-3144.92,39.25,0.585002758718268
0,-1845.54,-928.83,-3140.26,38.57,0.5900027822970593
0,-1834.62,-927.2,-3139.25,45.13,0.595002805875847
0,-1835.93,-919.91,-3137.62,48.06,0.6000028294546347
0,-1831.91,-922.54,-3134.68,42.06,0.6050028530334224
0,-1830.56,-927.3,-3138.65,38.46,0.6100028766122136
0,-1833.89,-927.64,-3137.36,44.46,0.6150029001910013
0,-1832.3,-935.41,-3139.0,46.46,0.620002923769789
0,-1828.29,-918.45,-3129.02,44.33,0.6250029473485768
0,-1825.4,-915.22,-3124.14,51.31,0.630002970927368
0,-1825.69,-919.52,-3127.96,49.51,0.6350029945061557
0,-1826.52,-917.56,-3126.34,47.94,0.6400030180849434
0,-1824.74,-911.57,-3124.36,50.58,0.6450030416637311
0,-1832.8,-915.22,-3127.06,47.04,0.6500030652425224
0,-1828.01,-913.06,-3118.26,54.11,0.6550030888213101
0,-1822.17,-916.26,-3123.58,52.28,0.6600031124000978
0,-1832.76,-911.78,-3122.61,46.08,0.6650031359788855
0,-1823.6,-917.7,-3121.95,51.17,0.6700031595576768
0,-1826.18,-904.72,-3119.75,56.65,0.6750031831364645
0,-1819.38,-915.25,-3114.98,51.55,0.6800032067152522
0,-1826.53,-911.78,-3121.57,52.33,0.6850032302940434
0,-1824.04,-906.3,-3118.19,52.37,0.6900032538728311
0,-1823.87,-915.03,-3122.75,45.78,0.6950032774516188
0,-1833.18,-912.95,-3122.86,46.37,0.7000033010304065
0,-1833.04,-925.54,-3126.29,46.19,0.7050033246091978
0,-1834.11,-925.23,-3136.18,44.76,0.7100033481879855
0,-1834.82,-925.5,-3135.53,44.39,0.7150033717667732
0,-1832.76,-921.06,-3132.03,40.5,0.7200033953455609
0,-1825.42,-921.42,-3133.64,42.8,0.7250034189243522
0,-1828.14,-920.26,-3130.77,43.54,0.7300034425031399
0,-1840.91,-922.97,-3133.48,45.17,0.7350034660819276
0,-1840.03,-922.66,-3136.49,41.02,0.7400034896607153
0,-1836.34,-932.28,-3142.59,36.41,0.7450035132395065
0,-1831.69,-923.01,-3134.15,43.37,0.7500035368182942
0,-1829.43,-912.12,-3125.17,46.48,0.7550035603970819
0,-1824.68,-903.6,-3123.34,52.92,0.7600035839758696
0,-1822.84,-915.19,-3124.69,48.6,0.7650036075546609
0,-1831.98,-927.21,-3136.73,44.56,0.7700036311334486
0,-1824.39,-915.59,-3130.88,48.55,0.7750036547122363
0,-1828.73,-915.39,-3130.14,52.42,0.780003678291024
0,-1828.47,-910.59,-3128.85,52.0,0.7850037018698153
0,-1834.3,-913.98,-3135.12,45.62,0.790003725448603
0,-1833.43,-919.82,-3129.77,51.14,0.7950037490273907
0,-1837.49,-929.96,-3135.58,47.01,0.8000037726061784
0,-1835.36,-921.8,-3137.34,41.49,0.8050037961849696
0,-1835.97,-917.54,-3127.67,43.81,0.8100038197637573
0,-1828.21,-927.41,-3133.41,41.52,0.815003843342545
0,-1827.27,-919.8,-3125.79,47.15,0.8200038669213328
0,-1829.36,-920.28,-3129.66,50.97,0.825003890500124
0,-1833.45,-922.55,-3128.36,52.3,0.8300039140789117
0,-1839.59,-920.68,-3133.95,49.3,0.8350039376576994
0,-1825.48,-913.87,-3126.37,63.1,0.8400039612364871
0,-1827.56,-903.86,-3119.75,67.26,0.8450039848152748
0,-1830.61,-904.6,-3122.55,49.11,0.8500040083940696
0,-1831.81,-914.94,-3124.18,45.24,0.8550040319728573
0,-1827.34,-908.94,-3121.85,50.72,0.860004055551645
0,-1824.06,-904.07,-3116.14,58.08,0.8650040791304328
0,-1823.12,-909.44,-3119.95,50.94,0.8700041027092205
0,-1830.14,-916.94,-3124.39,46.81,0.8750041262880082
0,-1829.57,-910.89,-3127.48,49.11,0.8800041498667959
0,-1833.13,-917.61,-3129.02,51.75,0.8850041734455836
0,-1821.14,-910.39,-3120.73,60.53,0.8900041970243784
0,-1829.57,-916.04,-3123.96,56.23,0.8950042206031661
0,-1830.94,-909.54,-3123.38,59.39,0.9000042441819538
0,-1819.24,-905.21,-3119.04,55.83,0.9050042677607415
0,-1829.84,-916.14,-3121.8,56.96,0.9100042913395292
0,-1830.7,-921.0,-3121.05,61.36,0.9150043149183169
0,-1832.04,-923.35,-3129.43,59.39,0.9200043384971046
0,-1827.84,-924.52,-3130.83,55.03,0.9250043620758923
0,-1822.82,-910.03,-3120.16,58.55,0.9300043856546871
0,-1827.24,-917.72,-3124.45,58.86,0.9350044092334748
0,-1828.57,-910.1,-3121.22,56.35,0.9400044328122625
0,-1827.16,-895.16,-3121.17,56.69,0.9450044563910502
0,-1824.64,-902.7,-3113.1,57.59,0.950004479969838
0,-1821.59,-908.04,-3120.7,54.3,0.9550045035486256
0,-1825.14,-923.18,-3132.48,56.21,0.9600045271274134
0,-1824.5,-914.9,-3126.68,52.83,0.9650045507062011
0,-1824.12,-919.62,-3127.35,52.23,0.9700045742849959
0,-1829.68,-916.97,-3131.99,53.27,0.9750045978637836
0,-1831.58,-912.67,-3127.51,53.2,0.9800046214425713
0,-1830.18,-916.5,-3122.44,52.06,0.985004645021359
0,-1824.33,-912.08,-3122.14,50.12,0.9900046686001467
0,-1829.68,-916.32,-3129.98,47.78,0.9950046921789344
0,-1827.38,-914.75,-3127.53,54.89,1.000004715757722
0,-1828.35,-917.6,-3123.47,53.78,1.0050047393365098
0,-1828.48,-914.34,-3128.68,56.89,1.0100047629153046
0,-1829.16,-923.69,-3128.03,53.78,1.0150047864940923
0,-1829.68,-917.24,-3124.44,58.44,1.02000481007288
0,-1829.84,-914.56,-3125.05,53.43,1.0250048336516677
0,-1833.59,-922.09,-3129.89,48.98,1.0300048572304554
0,-1829.56,-917.57,-3128.6,49.43,1.0350048808092431
0,-1819.5,-907.93,-3117.34,55.66,1.0400049043880308
0,-1832.29,-930.25,-3128.78,44.55,1.0450049279668256
0,-1828.36,-931.08,-3129.75,48.17,1.0500049515456134
0,-1831.47,-917.4,-3125.28,48.06,1.055004975124401
0,-1828.9,-918.71,-3129.25,43.13,1.0600049987031888
0,-1832.49,-921.72,-3133.65,43.05,1.0650050222819765
0,-1836.05,-917.24,-3128.2,46.82,1.0700050458607642
0,-1828.77,-918.53,-3128.65,51.84,1.0750050694395519
0,-1830.27,-920.33,-3131.47,41.98,1.0800050930183396
0,-1826.44,-905.15,-3118.15,46.39,1.0850051165971344
0,-1824.27,-915.12,-3122.21,50.39,1.090005140175922
0,-1826.59,-908.97,-3120.89,53.43,1.0950051637547098
0,-1820.9,-900.43,-3119.5,52.58,1.1000051873334975
0,-1823.74,-905.83,-3114.96,53.28,1.1050052109122852
0,-1822.22,-907.31,-3116.29,55.9,1.110005234491073
0,-1819.75,-912.55,-3118.42,54.22,1.1150052580698606
0,-1824.35,-911.91,-3124.61,49.25,1.1200052816486483
0,-1816.69,-916.79,-3118.87,51.31,1.1250053052274431
0,-1819.76,-924.64,-3127.88,51.02,1.1300053288062308
0,-1831.53,-917.05,-3127.95,40.72,1.1350053523850185
0,-1829.36,-921.93,-3129.21,47.66,1.1400053759638062
0,-1835.94,-922.59,-3133.46,45.07,1.145005399542594
0,-1830.44,-923.68,-3133.32,37.85,1.1500054231213817
0,-1835.19,-920.87,-3137.53,34.45,1.1550054467001694
0,-1830.6,-921.54,-3131.02,44.41,1.160005470278957
0,-1824.68,-919.65,-3126.12,45.97,1.1650054938577519
0,-1826.35,-924.83,-3126.55,45.01,1.1700055174365396
0,-1827.02,-906.48,-3125.13,48.54,1.1750055410153273
0,-1827.05,-910.12,-3123.41,46.92,1.180005564594115
0,-1835.77,-920.56,-3129.36,49.02,1.1850055881729027
0,-1831.18,-918.61,-3132.58,44.78,1.1900056117516904
0,-1832.47,-922.88,-3136.0,45.67,1.195005635330478
0,-1833.88,-925.24,-3133.44,47.72,1.200005658909273
0,-1831.76,-927.36,-3140.17,42.92,1.2050056824880606
0,-1833.52,-920.74,-3133.84,49.51,1.2100057060668483
0,-1837.14,-925.09,-3138.22,50.2,1.215005729645636
0,-1837.49,-923.66,-3131.5,51.86,1.2200057532244237
0,-1841.44,-924.16,-3135.53,47.97,1.2250057768032114
0,-1846.92,-932.1,-3141.63,43.43,1.2300058003819991
0,-1840.93,-918.35,-3132.21,48.36,1.2350058239607868
0,-1829.97,-913.72,-3123.27,53.2,1.2400058475395817
0,-1829.26,-922.27,-3126.17,48.85,1.2450058711183694
0,-1825.01,-914.79,-3126.11,56.7,1.250005894697157
0,-1819.19,-908.36,-3116.53,65.92,1.2550059182759448
0,-1824.0,-909.65,-3116.61,58.5,1.2600059418547325
0,-1812.09,-894.33,-3109.49,64.71,1.2650059654335202
0,-1806.71,-891.48,-3103.35,63.12,1.2700059890123079
0,-1811.49,-894.45,-3111.9,58.6,1.2750060125910956
0,-1808.58,-905.55,-3106.63,65.42,1.2800060361698904
0,-1809.9,-906.97,-3105.05,61.34,1.285006059748678
0,-1809.4,-909.84,-3107.6,62.18,1.2900060833274658
0,-1816.07,-905.24,-3118.67,62.87,1.2950061069062535
0,-1819.2,-903.67,-3111.96,58.79,1.3000061304850412
0,-1815.96,-905.22,-3110.23,59.66,1.305006154063829
0,-1818.18,-902.85,-3110.85,62.85,1.3100061776426166
0,-1816.75,-908.77,-3110.29,72.19,1.3150062012214043
0,-1819.2,-917.7,-3119.03,66.89,1.3200062248001991
0,-1820.35,-912.31,-3125.39,48.09,1.3250062483789868
0,-1820.35,-909.22,-3121.52,55.4,1.3300062719577745
0,-1827.7,-918.93,-3128.97,50.11,1.3350062955365622
0,-1832.13,-927.81,-3131.05,44.64,1.34000631911535
0,-1830.14,-922.35,-3132.66,44.55,1.3450063426941377
0,-1824.7,-910.58,-3124.97,49.02,1.3500063662729254
0,-1826.0,-915.57,-3132.2,46.17,1.3550063898517202
0,-1835.94,-924.32,-3135.73,44.7,1.3600064134305079
0,-1839.26,-917.12,-3139.63,41.64,1.3650064370092956
0,-1834.61,-922.81,-3136.83,43.06,1.3700064605880833
0,-1831.66,-921.93,-3137.11,42.16,1.375006484166871
0,-1833.02,-927.29,-3134.34,44.38,1.3800065077456587
0,-1829.55,-927.89,-3131.09,44.9,1.3850065313244464
0,-1834.17,-919.84,-3133.39,41.38,1.390006554903234
0,-1831.55,-922.46,-3132.31,45.5,1.395006578482029
0,-1836.06,-926.11,-3136.47,44.15,1.4000066020608166
0,-1825.88,-905.27,-3126.53,51.23,1.4050066256396043
0,-1820.59,-914.03,-3121.56,53.47,1.410006649218392
0,-1823.06,-915.75,-3119.79,51.13,1.4150066727971797
0,-1830.1,-907.01,-3125.84,48.87,1.4200066963759674
0,-1828.75,-912.8,-3125.36,52.32,1.4250067199547551
0,-1826.46,-916.82,-3124.2,52.59,1.4300067435335428
0,-1832.9,-932.48,-3137.64,42.68,1.4350067671123377
0,-1827.53,-919.5,-3135.52,44.33,1.4400067906911254
0,-1828.7,-919.7,-3130.55,47.06,1.445006814269913
0,-1828.27,-910.82,-3125.22,51.06,1.4500068378487008
0,-1830.87,-912.52,-3124.39,56.09,1.4550068614274885
0,-1824.08,-917.25,-3127.33,50.56,1.4600068850062762
0,-1833.87,-922.24,-3135.05,45.45,1.4650069085850639
0,-1838.84,-920.22,-3131.34,44.75,1.4700069321638516
0,-1833.72,-917.47,-3130.36,46.9,1.4750069557426464
0,-1835.21,-923.68,-3129.43,43.51,1.480006979321434
0,-1831.95,-921.57,-3130.83,46.97,1.4850070029002218
0,-1828.05,-918.51,-3128.43,45.05,1.4900070264790095
0,-1826.82,-912.27,-3123.35,49.28,1.4950070500577972
0,-1824.98,-909.88,-3125.06,48.43,1.500007073636585
0,-1827.89,-915.15,-3125.6,52.44,1.5050070972153726
0,-1832.24,-930.47,-3134.03,55.2,1.5100071207941674
0,-1832.99,-923.3,-3136.2,43.03,1.5150071443729551
0,-1831.15,-916.62,-3129.64,45.64,1.5200071679517428
0,-1831.2,-929.2,-3136.14,49.01,1.5250071915305305
0,-1837.13,-931.32,-3136.2,42.68,1.5300072151093183
0,-1836.47,-923.17,-3133.11,44.03,1.535007238688106
0,-1830.88,-922.7,-3135.46,45.15,1.5400072622668937
0,-1836.22,-922.93,-3138.57,42.69,1.5450072858456814
0,-1841.44,-931.97,-3138.68,35.82,1.5500073094244762
0,-1834.07,-921.44,-3136.99,39.35,1.5550073330032639
0,-1837.57,-929.48,-3135.2,43.75,1.5600073565820516
0,-1830.46,-922.04,-3130.16,47.08,1.5650073801608393
0,-1827.71,-920.34,-3132.82,46.67,1.570007403739627
0,-1827.49,-921.39,-3126.62,52.62,1.5750074273184147
0,-1827.53,-931.1,-3131.64,43.94,1.5800074508972024
0,-1830.3,-920.14,-3128.09,50.1,1.58500747447599
0,-1832.09,-910.18,-3129.06,51.74,1.590007498054785
0,-1833.73,-927.43,-3130.51,41.18,1.5950075216335726
0,-1836.4,-921.6,-3130.65,44.59,1.6000075452123603
0,-1830.05,-915.02,-3131.01,40.96,1.605007568791148
0,-1829.62,-913.77,-3127.43,40.23,1.6100075923699357
0,-1825.06,-916.65,-3126.84,45.86,1.6150076159487234
0,-1834.76,-925.73,-3132.28,42.22,1.6200076395275111
0,-1839.66,-925.56,-3133.28,43.16,1.6250076631062988
0,-1831.24,-919.24,-3133.57,40.55,1.6300076866850937
0,-1829.61,-920.49,-3131.03,44.77,1.6350077102638814
0,-1836.02,-922.43,-3130.89,46.97,1.640007733842669
0,-1832.29,-918.67,-3128.52,47.87,1.6450077574214568
0,-1824.01,-916.15,-3125.36,50.4,1.6500077810002445
0,-1827.0,-916.81,-3120.24,52.84,1.6550078045790322
0,-1831.01,-918.58,-3130.6,47.52,1.6600078281578199
0,-1834.8,-914.31,-3132.45,44.71,1.6650078517366076
0,-1830.73,-923.55,-3131.15,47.87,1.6700078753154024
0,-1831.65,-928.27,-3128.52,47.87,1.67500789889419
0,-1834.62,-919.99,-3131.51,46.37,1.6800079224729778
0,-1830.92,-920.09,-3137.08,37.56,1.6850079460517655
0,-1829.19,-918.89,-3134.8,38.44,1.6900079696305532
0,-1827.05,-908.66,-3125.19,49.1,1.695007993209341
0,-1839.68,-925.77,-3133.74,43.19,1.7000080167881286
0,-1832.51,-923.24,-3134.81,39.86,1.7050080403669234
0,-1836.2,-929.34,-3136.41,42.47,1.7100080639457111
0,-1829.25,-920.33,-3128.51,45.19,1.7150080875244988
0,-1833.98,-915.52,-3135.59,45.2,1.7200081111032866
0,-1829.82,-913.43,-3123.47,46.73,1.7250081346820743
0,-1820.44,-905.43,-3119.59,54.87,1.730008158260862
0,-1825.38,-908.82,-3119.5,60.69,1.7350081818396497
0,-1829.35,-909.98,-3125.0,56.15,1.7400082054184374
0,-1826.77,-916.0,-3129.46,54.44,1.7450082289972322
0,-1832.16,-914.45,-3127.85,51.27,1.7500082525760199
0,-1829.73,-927.26,-3130.41,50.94,1.7550082761548076
0,-1827.69,-923.86,-3125.31,57.72,1.7600082997335953
0,-1826.01,-914.9,-3119.22,56.24,1.765008323312383
0,-1819.23,-904.46,-3115.37,72.82,1.7700083468911707
0,-1819.22,-910.57,-3121.75,72.22,1.7750083704699584
0,-1827.61,-911.93,-3128.28,53.25,1.7800083940487461
0,-1829.94,-929.08,-3138.22,44.44,1.785008417627541
0,-1836.26,-935.39,-3137.29,42.52,1.7900084412063286
0,-1835.86,-931.58,-3135.1,39.39,1.7950084647851163
0,-1837.67,-930.16,-3134.85,40.28,1.800008488363904
0,-1830.87,-925.45,-3138.69,37.57,1.8050085119426917
0,-1823.13,-926.06,-3133.46,38.52,1.8100085355214794
0,-1824.77,-923.84,-3128.36,42.05,1.8150085591002671
0,-1825.12,-910.69,-3126.47,45.31,1.8200085826790549
0,-1821.52,-904.28,-3124.36,49.51,1.8250086062578497
0,-1819.3,-913.08,-3120.28,50.19,1.8300086298366374
0,-1825.54,-927.79,-3128.48,43.75,1.835008653415425
0,-1821.42,-919.05,-3126.26,50.42,1.8400086769942128
0,-1817.89,-916.66,-3119.55,52.76,1.8450087005730005
0,-1823.9,-914.38,-3124.83,47.74,1.8500087241517882
0,-1830.28,-915.25,-3127.97,47.12,1.855008747730576
0,-1830.07,-918.5,-3129.46,46.04,1.8600087713093707
0,-1823.63,-928.15,-3129.84,46.71,1.8650087948881584
0,-1829.35,-932.47,-3131.24,44.46,1.870008818466946
0,-1833.68,-928.74,-3134.59,44.86,1.8750088420457338
0,-1829.91,-922.83,-3127.15,55.35,1.8800088656245215
0,-1831.2,-915.28,-3132.01,54.67,1.8850088892033092
0,-1819.51,-910.25,-3122.52,51.71,1.890008912782097
0,-1828.0,-912.33,-3133.1,46.69,1.8950089363608846
0,-1835.55,-919.29,-3136.65,43.24,1.9000089599396794
0,-1839.44,-922.27,-3138.41,40.89,1.9050089835184671
0,-1836.71,-927.23,-3138.39,44.08,1.9100090070972549
0,-1830.64,-917.9,-3131.18,49.57,1.9150090306760426
0,-1827.03,-911.55,-3119.31,49.06,1.9200090542548303
0,-1834.43,-914.35,-3124.57,52.04,1.925009077833618
0,-1828.09,-924.78,-3126.16,57.34,1.9300091014124057
0,-1829.02,-907.08,-3123.72,56.15,1.9350091249911934
0,-1830.79,-908.59,-3121.76,56.9,1.9400091485699882
0,-1819.16,-911.6,-3119.86,61.33,1.9450091721487759
0,-1820.58,-915.7,-3126.02,54.83,1.9500091957275636
0,-1820.86,-907.89,-3123.57,54.54,1.9550092193063513
0,-1830.2,-918.2,-3129.94,48.25,1.960009242885139
0,-1833.41,-922.35,-3131.63,42.69,1.9650092664639267
0,-1834.0,-928.33,-3130.03,43.78,1.9700092900427144
0,-1824.8,-921.67,-3127.16,50.49,1.9750093136215021
0,-1832.92,-922.65,-3135.6,45.86,1.980009337200297
0,-1826.17,-921.94,-3132.89,43.02,1.9850093607790846
0,-1828.32,-918.5,-3126.81,44.09,1.9900093843578723
0,-1828.25,-921.29,-3124.1,43.58,1.99500940793666
0,-1835.82,-926.18,-3133.25,45.1,2.0000094315154477
0,-1827.81,-919.63,-3127.44,52.28,2.0050094550942354
0,-1819.01,-908.31,-3121.52,53.2,2.010009478673023
0,-1827.76,-917.07,-3124.43,47.66,2.015009502251818
0,-1831.36,-918.74,-3126.57,51.38,2.0200095258306057
0,-1828.4,-919.51,-3125.99,51.23,2.0250095494093934
0,-1831.84,-924.01,-3133.88,46.49,2.030009572988181
0,-1830.98,-918.82,-3134.72,49.61,2.035009596566969
0,-1825.9,-918.96,-3128.16,49.51,2.0400096201457565
0,-1831.92,-912.74,-3129.61,46.86,2.045009643724544
0,-1830.61,-908.74,-3132.74,51.65,2.050009667303332
0,-1829.99,-913.43,-3125.31,52.18,2.0550096908821267
0,-1826.2,-915.82,-3119.13,57.15,2.0600097144609144
0,-1829.49,-925.68,-3129.03,49.81,2.065009738039702
0,-1826.76,-921.08,-3124.19,54.94,2.07000976161849
0,-1827.6,-915.17,-3116.28,53.77,2.0750097851972775
0,-1823.11,-917.38,-3122.25,58.93,2.0800098087760652
0,-1826.99,-920.21,-3122.74,54.27,2.085009832354853
0,-1817.92,-908.76,-3118.11,62.62,2.0900098559336406
0,-1812.98,-898.97,-3109.87,65.71,2.0950098795124354
0,-1822.1,-910.15,-3122.85,54.91,2.100009903091223
0,-1818.47,-908.96,-3121.42,60.99,2.105009926670011
0,-1827.9,-918.41,-3120.99,56.58,2.1100099502487986
0,-1826.41,-920.25,-3126.9,57.77,2.1150099738275863
0,-1826.96,-909.8,-3121.77,55.71,2.120009997406374
0,-1822.94,-906.57,-3116.21,59.48,2.1250100209851617
0,-1827.81,-915.37,-3127.22,50.07,2.1300100445639494
0,-1825.35,-914.74,-3121.88,54.42,2.135010068142744
0,-1830.1,-912.18,-3125.43,51.49,2.140010091721532
0,-1834.31,-923.96,-3132.04,46.31,2.1450101153003196
0,-1842.84,-927.92,-3140.7,42.2,2.1500101388791073
0,-1838.67,-932.93,-3144.07,35.51,2.155010162457895
0,-1838.63,-927.28,-3138.84,42.96,2.1600101860366827
0,-1836.15,-931.81,-3142.13,42.86,2.1650102096154704
0,-1832.19,-917.2,-3132.11,43.77,2.1700102331942652
0,-1833.37,-916.82,-3129.19,44.54,2.175010256773053
0,-1833.85,-924.16,-3130.51,45.87,2.1800102803518406
0,-1832.24,-911.94,-3133.62,47.54,2.1850103039306283
0,-1837.56,-921.95,-3132.47,44.62,2.190010327509416
0,-1831.6,-923.6,-3133.91,46.92,2.1950103510882037
0,-1837.37,-931.25,-3137.09,40.75,2.2000103746669915
0,-1839.45,-923.78,-3136.23,44.57,2.205010398245779
0,-1830.95,-914.08,-3122.54,56.57,2.210010421824574
0,-1825.48,-912.87,-3121.02,50.27,2.2150104454033617
0,-1823.22,-913.73,-3121.34,54.88,2.2200104689821494
0,-1824.51,-911.49,-3119.29,56.85,2.225010492560937
0,-1820.7,-901.92,-3116.91,57.76,2.230010516139725
0,-1819.24,-913.21,-3117.79,54.05,2.2350105397185125
0,-1815.15,-909.91,-3114.99,65.34,2.2400105632973
0,-1816.13,-907.25,-3115.23,66.91,2.245010586876088
0,-1827.75,-913.65,-3127.58,50.19,2.2500106104548827
0,-1831.6,-918.77,-3131.84,44.77,2.2550106340336704
0,-1833.17,-921.13,-3131.63,47.25,2.260010657612458
0,-1833.6,-920.84,-3131.37,49.26,2.265010681191246
0,-1840.05,-917.44,-3134.58,43.61,2.2700107047700335
0,-1835.47,-920.21,-3132.48,46.4,2.2750107283488212
0,-1833.02,-918.26,-3128.46,48.4,2.280010751927609
0,-1836.98,-925.85,-3134.25,51.32,2.2850107755063966
0,-1832.51,-924.93,-3136.67,51.43,2.2900107990851915
0,-1837.92,-927.43,-3135.42,44.15,2.295010822663979
0,-1839.68,-930.3,-3138.03,43.44,2.300010846242767
0,-1834.73,-926.18,-3134.65,48.5,2.3050108698215546
0,-1835.33,-926.05,-3134.38,43.06,2.3100108934003423
0,-1844.82,-927.64,-3141.76,43.14,2.31501091697913
0,-1841.13,-931.22,-3141.21,46.82,2.3200109405579177
0,-1829.96,-925.72,-3136.54,43.7,2.3250109641367054
0,-1832.0,-919.32,-3130.69,51.4,2.3300109877155
0,-1827.32,-917.4,-3130.24,46.45,2.335011011294288
0,-1835.0,-919.32,-3133.73,48.54,2.3400110348730756
0,-1840.65,-921.58,-3134.43,48.2,2.3450110584518633
0,-1840.49,-925.42,-3136.23,50.6,2.350011082030651
0,-1833.58,-915.53,-3130.21,51.48,2.3550111056094387
0,-1829.79,-918.67,-3129.57,48.39,2.3600111291882264
0,-1831.76,-928.59,-3133.12,48.65,2.3650111527670212
0,-1824.44,-921.16,-3125.2,52.96,2.370011176345809
0,-1834.82,-923.72,-3133.9,44.5,2.3750111999245966
0,-1837.48,-910.16,-3127.96,43.03,2.3800112235033843
0,-1831.63,-907.3,-3125.6,51.6,2.385011247082172
0,-1829.68,-917.55,-3125.26,51.47,2.3900112706609598
0,-1833.65,-927.63,-3132.07,47.8,2.3950112942397475
0,-1830.79,-929.19,-3135.43,44.62,2.400011317818535
0,-1831.68,-927.43,-3132.76,46.69,2.40501134139733
0,-1831.93,-923.02,-3131.73,45.08,2.4100113649761177
0,-1831.74,-922.0,-3130.34,49.61,2.4150113885549054
0,-1835.46,-918.9,-3129.02,47.54,2.420011412133693
0,-1832.95,-919.74,-3130.53,47.56,2.425011435712481
0,-1831.56,-918.48,-3132.05,46.6,2.4300114592912685
0,-1830.09,-912.95,-3132.24,43.15,2.435011482870056
0,-1829.36,-914.46,-3126.78,47.15,2.440011506448844
0,-1823.78,-918.21,-3126.36,47.04,2.4450115300276387
0,-1826.83,-923.59,-3125.32,48.26,2.4500115536064264
0,-1830.73,-917.79,-3135.14,43.04,2.455011577185214
0,-1832.02,-929.47,-3138.06,42.4,2.460011600764002
0,-1833.64,-919.73,-3135.52,43.03,2.4650116243427895
0,-1836.39,-922.1,-3137.8,43.31,2.4700116479215772
0,-1840.89,-923.8,-3137.63,50.65,2.475011671500365
0,-1839.37,-921.08,-3138.27,44.11,2.4800116950791526
0,-1836.98,-921.65,-3135.03,46.8,2.4850117186579475
0,-1837.42,-932.87,-3139.86,43.07,2.490011742236735
0,-1839.93,-929.32,-3141.17,45.86,2.495011765815523
0,-1835.61,-927.61,-3135.33,50.79,2.5000117893943106
0,-1831.25,-917.4,-3127.88,51.81,2.5050118129730983
0,-1832.01,-912.55,-3130.44,47.4,2.510011836551886
0,-1833.17,-914.8,-3126.46,48.92,2.5150118601306737
0,-1829.87,-908.42,-3121.8,49.93,2.5200118837094685
0,-1830.44,-919.13,-3125.86,44.08,2.525011907288256
0,-1819.09,-908.67,-3115.18,67.7,2.530011930867044
0,-1822.07,-915.71,-3116.87,60.66,2.5350119544458316
0,-1834.16,-920.86,-3133.01,36.33,2.5400119780246193
0,-1833.44,-921.72,-3135.05,38.49,2.545012001603407
0,-1829.7,-925.05,-3135.29,41.49,2.5500120251821947
0,-1833.25,-922.44,-3137.37,44.19,2.5550120487609824
0,-1829.25,-913.72,-3126.89,45.81,2.5600120723397772
0,-1826.82,-912.06,-3127.26,44.35,2.565012095918565
0,-1829.5,-917.38,-3125.77,44.5,2.5700121194973526
0,-1824.79,-914.43,-3126.91,43.47,2.5750121430761403
0,-1828.1,-912.76,-3126.04,43.15,2.580012166654928
0,-1823.61,-907.52,-3125.26,50.14,2.5850121902337158
0,-1826.06,-920.62,-3133.35,49.5,2.5900122138125035
0,-1834.48,-915.12,-3134.44,49.27,2.595012237391291
0,-1838.2,-924.2,-3142.71,41.81,2.600012260970086
0,-1832.6,-910.78,-3130.92,50.19,2.6050122845488737
0,-1835.63,-921.44,-3137.95,49.23,2.6100123081276614
0,-1834.91,-924.61,-3134.76,46.98,2.615012331706449
0,-1837.56,-926.06,-3130.38,46.63,2.620012355285237
0,-1837.61,-934.42,-3141.9,43.52,2.6250123788640245
0,-1833.54,-928.65,-3132.95,50.36,2.630012402442812
0,-1831.01,-926.24,-3132.12,48.83,2.6350124260216
0,-1828.38,-920.77,-3133.03,45.95,2.6400124496003947
0,-1827.79,-923.98,-3129.0,46.63,2.6450124731791824
0,-1829.61,-917.41,-3126.48,51.82,2.65001249675797
0,-1829.61,-911.27,-3124.74,51.26,2.655012520336758
0,-1823.5,-904.85,-3121.17,59.85,2.6600125439155455
0,-1825.29,-907.62,-3118.89,58.42,2.6650125674943332
0,-1826.38,-907.94,-3117.72,59.83,2.670012591073121
0,-1823.12,-908.08,-3119.75,59.4,2.6750126146519158
0,-1821.86,-902.82,-3119.32,58.43,2.6800126382307035
0,-1822.7,-902.47,-3117.19,61.38,2.685012661809491
0,-1819.04,-906.55,-3117.15,56.06,2.690012685388279
0,-1825.63,-916.58,-3121.62,54.37,2.6950127089670666
0,-1824.33,-909.69,-3121.84,54.81,2.7000127325458543
0,-1828.3,-918.18,-3126.06,52.93,2.705012756124642
0,-1829.46,-918.3,-3125.23,52.02,2.7100127797034297
0,-1831.87,-917.6,-3125.04,51.29,2.7150128032822245
0,-1830.1,-918.32,-3129.39,47.63,2.720012826861012
0,-1832.75,-917.45,-3133.44,48.15,2.7250128504398
0,-1836.33,-925.38,-3132.9,45.1,2.7300128740185876
0,-1837.41,-930.46,-3139.68,48.2,2.7350128975973753
0,-1833.61,-927.29,-3132.77,49.16,2.740012921176163
0,-1824.54,-923.51,-3126.51,51.17,2.7450129447549507
0,-1828.19,-921.94,-3130.6,49.07,2.7500129683337384
0,-1827.18,-912.82,-3129.99,46.96,2.7550129919125332
0,-1825.4,-920.14,-3127.1,51.81,2.760013015491321
0,-1822.89,-913.89,-3123.95,57.7,2.7650130390701086
0,-1829.31,-911.04,-3123.13,55.23,2.7700130626488964
0,-1828.74,-914.69,-3127.24,55.99,2.775013086227684
0,-1839.71,-923.0,-3132.96,49.55,2.7800131098064718
0,-1843.22,-933.82,-3141.18,43.48,2.7850131333852595
0,-1838.56,-926.24,-3137.97,41.66,2.790013156964047
0,-1836.59,-920.78,-3133.65,47.44,2.795013180542842
0,-1828.84,-915.72,-3129.76,54.58,2.8000132041216297
0,-1831.26,-916.73,-3134.52,49.38,2.8050132277004174
0,-1833.95,-912.41,-3128.58,45.3,2.810013251279205
0,-1830.09,-913.28,-3127.78,48.93,2.815013274857993
0,-1827.74,-916.64,-3129.94,51.62,2.8200132984367805
0,-1825.41,-908.09,-3123.35,55.54,2.825013322015568
0,-1826.63,-909.94,-3123.29,53.27,2.830013345594363
0,-1818.53,-904.48,-3118.69,57.81,2.8350133691731507
0,-1817.49,-908.13,-3118.37,58.15,2.8400133927519384
0,-1821.71,-913.13,-3123.39,53.81,2.845013416330726
0,-1823.65,-912.62,-3120.74,53.91,2.850013439909514
0,-1824.59,-911.25,-3120.76,50.18,2.8550134634883015
0,-1829.85,-914.18,-3126.12,51.13,2.8600134870670892
0,-1828.35,-919.93,-3127.59,49.06,2.865013510645877
0,-1827.4,-919.73,-3130.69,48.27,2.8700135342246718
0,-1830.08,-918.98,-3129.89,53.05,2.8750135578034595
0,-1831.67,-920.74,-3125.14,50.02,2.880013581382247
0,-1826.78,-913.38,-3125.77,50.54,2.885013604961035
0,-1833.07,-916.98,-3129.15,53.14,2.8900136285398226
0,-1829.85,-917.23,-3125.42,50.47,2.8950136521186103
0,-1826.23,-914.11,-3124.07,53.97,2.900013675697398
0,-1821.67,-912.94,-3125.99,56.28,2.9050136992761857
0,-1818.45,-912.44,-3123.45,54.33,2.9100137228549805
0,-1825.6,-915.97,-3118.71,63.39,2.915013746433768
0,-1823.53,-904.14,-3117.36,62.77,2.920013770012556
0,-1823.28,-908.82,-3119.53,62.21,2.9250137935913436
0,-1831.42,-919.03,-3130.39,47.29,2.9300138171701313
0,-1834.72,-920.76,-3134.11,36.13,2.935013840748919
0,-1835.56,-932.98,-3141.74,38.47,2.9400138643277067
0,-1834.99,-931.16,-3139.45,47.41,2.9450138879064944
0,-1834.03,-928.79,-3134.99,43.16,2.9500139114852892
0,-1834.33,-923.29,-3132.58,46.75,2.955013935064077
0,-1833.91,-914.67,-3129.94,44.04,2.9600139586428647
0,-1827.74,-918.28,-3127.77,43.6,2.9650139822216524
0,-1827.95,-917.55,-3131.27,50.82,2.97001400580044
0,-1826.27,-920.93,-3129.9,46.17,2.9750140293792278
0,-1833.52,-920.64,-3131.33,48.36,2.9800140529580155
0,-1830.1,-918.6,-3130.63,44.39,2.985014076536803
0,-1835.82,-918.62,-3130.19,48.7,2.990014100115598
0,-1826.79,-900.64,-3124.04,57.65,2.9950141236943857
0,-1824.28,-903.02,-3122.03,58.42,3.0000141472731734
0,-1824.43,-917.43,-3124.82,55.36,3.005014170851961
0,-1828.18,-917.13,-3128.39,56.02,3.010014194430749
0,-1830.16,-931.34,-3128.26,50.14,3.0150142180095365
0,-1829.26,-929.19,-3131.05,46.71,3.020014241588324
0,-1825.8,-926.98,-3127.56,60.44,3.025014265167119
0,-1833.23,-926.17,-3133.04,55.04,3.0300142887459067
0,-1833.78,-925.34,-3135.4,40.93,3.0350143123246944
0,-1824.24,-920.67,-3131.36,43.83,3.040014335903482
0,-1832.42,-921.13,-3133.03,46.0,3.04501435948227
0,-1832.66,-911.41,-3133.19,44.74,3.0500143830610575
0,-1830.66,-910.02,-3127.6,57.26,3.0550144066398452
0,-1825.36,-911.28,-3123.76,58.26,3.060014430218633
0,-1829.98,-910.43,-3124.91,57.28,3.0650144537974278
0,-1828.42,-911.74,-3121.5,57.82,3.0700144773762155
0,-1821.56,-909.42,-3117.91,59.26,3.075014500955003
0,-1821.47,-904.24,-3117.17,58.63,3.080014524533791
0,-1823.45,-903.93,-3117.57,54.4,3.0850145481125786
0,-1827.17,-909.57,-3119.59,55.28,3.0900145716913663
0,-1827.78,-913.68,-3123.56,54.05,3.095014595270154
0,-1823.68,-916.73,-3126.41,48.57,3.1000146188489417
0,-1829.29,-919.8,-3130.23,48.94,3.1050146424277365
0,-1830.81,-916.15,-3133.02,42.16,3.110014666006524
0,-1827.16,-915.4,-3132.77,46.08,3.115014689585312
0,-1825.89,-918.96,-3127.78,44.49,3.1200147131640996
0,-1833.42,-919.93,-3126.32,43.32,3.1250147367428873
0,-1830.79,-916.39,-3128.62,44.36,3.130014760321675
0,-1825.65,-908.36,-3122.07,46.38,3.1350147839004627
0,-1826.74,-910.76,-3123.57,50.62,3.1400148074792504
0,-1832.55,-914.65,-3121.22,51.5,3.1450148310580452
0,-1830.11,-911.53,-3126.84,47.42,3.150014854636833
0,-1826.85,-915.56,-3124.55,50.71,3.1550148782156207
0,-1821.61,-913.4,-3121.83,50.56,3.1600149017944084
0,-1827.66,-912.64,-3122.48,53.04,3.165014925373196
0,-1828.53,-914.3,-3121.31,56.55,3.1700149489519838
0,-1830.98,-914.21,-3125.51,54.85,3.1750149725307715
0,-1825.46,-911.91,-3123.95,58.47,3.1800149961095663
0,-1829.51,-910.99,-3121.16,57.13,3.185015019688354
1,-1828.01,-908.92,-3124.43,50.66,3.1900150432671417
0,-1827.98,-910.91,-3124.36,53.65,3.1950150668459294
0,-1828.92,-917.89,-3123.28,53.8,3.200015090424717
0,-1833.29,-917.82,-3131.09,48.03,3.205015114003505
0,-1832.88,-919.59,-3129.81,49.11,3.2100151375822925
0,-1826.92,-917.43,-3124.86,50.4,3.21501516116108
0,-1833.19,-918.4,-3133.5,45.98,3.220015184739875
0,-1840.88,-925.33,-3138.38,36.98,3.2250152083186627
0,-1839.66,-925.88,-3137.13,32.67,3.2300152318974504
0,-1835.46,-928.64,-3135.9,40.75,3.235015255476238
0,-1834.61,-930.24,-3143.8,43.41,3.240015279055026
0,-1825.22,-919.06,-3131.31,54.03,3.2450153026338135
0,-1830.11,-922.63,-3131.17,46.14,3.2500153262126013
0,-1825.94,-915.65,-3124.71,45.03,3.255015349791389
0,-1827.23,-913.91,-3122.71,49.59,3.2600153733701838
0,-1831.21,-922.13,-3128.99,47.08,3.2650153969489715
0,-1825.05,-917.61,-3124.42,55.17,3.270015420527759
0,-1821.98,-910.22,-3119.66,55.51,3.275015444106547
0,-1825.97,-918.95,-3127.91,49.67,3.2800154676853346
0,-1821.14,-917.35,-3120.72,54.98,3.2850154912641223
0,-1820.43,-909.85,-3121.23,54.5,3.29001551484291
0,-1824.5,-907.87,-3114.59,58.89,3.2950155384216977
0,-1822.04,-912.58,-3114.94,60.0,3.3000155620004925
0,-1823.18,-910.33,-3120.23,63.21,3.30501558557928
0,-1819.78,-905.38,-3110.56,66.46,3.310015609158068
0,-1821.62,-914.04,-3117.8,60.27,3.3150156327368556
0,-1827.93,-921.57,-3128.01,54.83,3.3200156563156433
0,-1828.23,-913.37,-3126.59,51.87,3.325015679894431
0,-1831.95,-918.41,-3130.92,50.53,3.3300157034732187
0,-1837.47,-922.13,-3128.79,53.74,3.3350157270520135
0,-1839.87,-927.99,-3133.63,45.68,3.3400157506308013
0,-1843.59,-928.09,-3139.39,42.88,3.345015774209589
0,-1837.33,-920.01,-3130.66,42.1,3.3500157977883767
0,-1830.23,-914.45,-3126.41,44.28,3.3550158213671644
0,-1826.94,-911.3,-3122.66,47.07,3.360015844945952
0,-1825.51,-910.24,-3121.89,52.42,3.3650158685247398
0,-1836.24,-917.51,-3135.85,44.13,3.3700158921035275
0,-1836.86,-922.59,-3135.39,48.11,3.3750159156823223
0,-1827.89,-915.34,-3128.99,57.18,3.38001593926111
0,-1825.82,-915.28,-3120.21,55.84,3.3850159628398977
0,-1821.29,-914.56,-3125.44,55.1,3.3900159864186854
0,-1826.09,-908.28,-3123.94,55.18,3.395016009997473
0,-1833.33,-920.31,-3131.01,52.51,3.400016033576261
0,-1824.0,-916.35,-3128.87,54.75,3.4050160571550485
0,-1822.42,-911.89,-3123.4,57.53,3.410016080733836
0,-1824.6,-915.09,-3121.62,55.92,3.415016104312631
0,-1830.85,-914.78,-3126.89,53.68,3.4200161278914187
0,-1823.66,-914.48,-3122.16,56.19,3.4250161514702064
0,-1826.91,-908.49,-3117.45,62.26,3.430016175048994
0,-1820.54,-908.09,-3124.02,58.69,3.435016198627782
0,-1827.2,-912.96,-3119.88,59.93,3.4400162222065696
0,-1821.95,-910.46,-3120.84,59.13,3.4450162457853573
0,-1821.25,-912.55,-3119.42,58.69,3.450016269364145
0,-1825.6,-913.2,-3121.01,54.32,3.4550162929429398
0,-1825.49,-915.52,-3128.23,55.61,3.4600163165217275
0,-1827.92,-915.26,-3123.62,57.2,3.465016340100515
0,-1826.78,-919.22,-3127.82,50.39,3.470016363679303
0,-1828.32,-916.52,-3128.44,52.28,3.4750163872580906
0,-1832.89,-922.7,-3127.77,50.04,3.4800164108368783
0,-1826.97,-917.31,-3128.56,50.84,3.485016434415666
0,-1823.34,-913.49,-3125.75,50.92,3.490016457994461
0,-1823.52,-908.88,-3122.48,51.56,3.4950164815732485
0,-1827.65,-908.25,-3125.33,53.35,3.500016505152036
0,-1822.41,-906.86,-3121.92,53.48,3.505016528730824
0,-1821.66,-901.95,-3116.34,52.69,3.5100165523096116
0,-1835.39,-920.77,-3131.56,46.54,3.5150165758883993
0,-1833.18,-930.55,-3134.9,45.75,3.520016599467187
0,-1833.44,-926.65,-3135.54,46.14,3.5250166230459747
0,-1830.29,-925.23,-3130.66,51.11,3.5300166466247695
0,-1830.97,-922.06,-3130.91,55.33,3.5350166702035573
0,-1832.93,-923.98,-3133.87,47.72,3.540016693782345
0,-1836.22,-926.63,-3135.93,43.0,3.5450167173611327
0,-1838.9,-930.97,-3140.66,41.22,3.5500167409399204
0,-1834.27,-928.44,-3138.85,42.79,3.555016764518708
0,-1832.35,-924.27,-3135.52,46.11,3.5600167880974958
0,-1834.75,-914.11,-3126.54,48.67,3.5650168116762835
0,-1830.35,-921.72,-3130.68,48.36,3.5700168352550783
0,-1827.36,-915.61,-3132.83,46.98,3.575016858833866
0,-1832.33,-925.31,-3132.64,51.95,3.5800168824126537
0,-1839.02,-919.42,-3132.16,48.42,3.5850169059914414
0,-1834.62,-921.65,-3132.09,53.46,3.590016929570229
0,-1831.9,-923.46,-3132.78,51.91,3.595016953149017
0,-1825.24,-920.4,-3122.88,53.74,3.6000169767278045
0,-1828.44,-916.77,-3124.51,57.72,3.6050170003065922
0,-1822.95,-916.39,-3121.0,58.64,3.610017023885387
0,-1831.07,-915.28,-3124.37,52.63,3.6150170474641747
0,-1825.66,-908.38,-3126.65,56.42,3.6200170710429624
0,-1827.8,-902.86,-3121.28,52.37,3.62501709462175
0,-1820.72,-906.8,-3110.97,68.0,3.630017118200538
0,-1822.91,-921.5,-3127.85,55.02,3.6350171417793256
0,-1823.37,-914.2,-3125.33,57.28,3.6400171653581133
0,-1824.42,-917.06,-3129.57,52.49,3.645017188936901
0,-1840.49,-925.92,-3139.69,45.93,3.6500172125156958
0,-1834.87,-923.96,-3137.18,45.88,3.6550172360944835
0,-1830.89,-924.36,-3135.63,42.98,3.660017259673271
0,-1830.78,-927.29,-3135.98,43.64,3.665017283252059
0,-1831.55,-921.21,-3131.24,53.04,3.6700173068308466
0,-1838.14,-922.65,-3132.05,36.43,3.6750173304096343
0,-1834.53,-914.49,-3133.19,44.32,3.680017353988422
0,-1836.99,-915.95,-3131.45,41.4,3.685017377567217
0,-1835.9,-925.04,-3137.56,39.8,3.6900174011460045
0,-1828.22,-914.5,-3128.56,49.96,3.695017424724792
0,-1822.43,-911.51,-3119.59,50.3,3.70001744830358
0,-1828.56,-909.06,-3121.59,49.74,3.7050174718823676
0,-1832.94,-914.76,-3129.14,46.43,3.7100174954611553
0,-1832.08,-916.56,-3130.57,45.03,3.715017519039943
0,-1832.4,-926.06,-3134.08,45.97,3.7200175426187307
0,-1825.19,-920.88,-3128.21,45.27,3.7250175661975256
0,-1823.22,-918.38,-3125.46,45.58,3.7300175897763133
0,-1824.21,-910.08,-3125.06,46.5,3.735017613355101
0,-1828.24,-916.03,-3128.86,52.3,3.7400176369338887
0,-1829.62,-912.92,-3121.9,52.81,3.7450176605126764
0,-1830.36,-910.63,-3121.0,53.92,3.750017684091464
0,-1826.47,-911.8,-3123.94,53.12,3.755017707670252
0,-1830.87,-915.96,-3130.3,43.29,3.7600177312490395
0,-1830.24,-918.94,-3129.29,44.7,3.7650177548278343
0,-1826.76,-914.3,-3126.18,51.21,3.770017778406622
0,-1830.1,-911.29,-3125.56,57.29,3.7750178019854097
0,-1827.12,-910.36,-3121.11,60.39,3.7800178255641974
0,-1829.25,-911.22,-3120.14,51.47,3.785017849142985
0,-1827.73,-916.53,-3126.23,44.19,3.790017872721773
0,-1824.39,-910.6,-3122.7,49.24,3.7950178963005605
0,-1827.24,-917.99,-3125.7,49.62,3.8000179198793482
0,-1824.88,-916.09,-3122.14,49.29,3.805017943458143
0,-1816.91,-908.17,-3120.38,48.73,3.8100179670369307
0,-1813.34,-907.2,-3120.19,53.04,3.8150179906157184
0,-1809.36,-899.51,-3111.14,60.35,3.820018014194506
0,-1800.18,-894.32,-3106.69,61.57,3.825018037773294
0,-1803.63,-890.26,-3108.4,59.57,3.8300180613520816
0,-1795.23,-877.95,-3098.13,59.31,3.8350180849308693
0,-1784.97,-867.85,-3088.65,61.09,3.840018108509664
0,-1778.51,-862.69,-3082.14,60.67,3.845018132088452
0,-1778.23,-865.89,-3079.43,65.63,3.8500181556672395
0,-1777.64,-860.43,-3077.02,72.14,3.855018179246027
0,-1778.87,-860.26,-3080.92,67.91,3.860018202824815
0,-1777.31,-868.08,-3081.15,67.04,3.8650182264036026
0,-1784.41,-869.5,-3086.66,64.51,3.8700182499823903
0,-1784.67,-871.95,-3090.51,64.57,3.875018273561178
0,-1792.73,-888.83,-3099.23,59.19,3.880018297139973
0,-1792.64,-890.31,-3097.59,58.42,3.8850183207187605
0,-1803.29,-889.38,-3102.77,55.56,3.8900183442975482
0,-1803.61,-893.91,-3105.72,57.86,3.895018367876336
0,-1813.68,-907.66,-3114.77,54.52,3.9000183914551236
0,-1820.75,-905.69,-3114.68,62.13,3.9050184150339113
0,-1824.13,-915.14,-3119.31,53.63,3.910018438612699
0,-1829.82,-915.28,-3127.95,47.07,3.9150184621914867
0,-1836.08,-919.41,-3134.02,40.11,3.9200184857702816
0,-1840.16,-932.85,-3140.99,44.01,3.9250185093490693
0,-1848.55,-938.4,-3142.83,45.16,3.930018532927857
0,-1838.61,-931.89,-3138.67,50.53,3.9350185565066447
0,-1841.35,-927.49,-3135.62,50.48,3.9400185800854324
0,-1841.98,-934.91,-3138.59,52.13,3.94501860366422
0,-1848.02,-941.34,-3147.77,44.24,3.950018627243008
0,-1850.19,-942.92,-3151.45,45.22,3.9550186508217955
0,-1848.93,-946.1,-3151.16,48.92,3.9600186744005903
0,-1848.37,-942.38,-3144.39,46.18,3.965018697979378
0,-1853.58,-943.34,-3148.1,44.58,3.9700187215581657
0,-1850.08,-948.54,-3148.98,41.28,3.9750187451369534
0,-1856.98,-947.39,-3146.86,42.14,3.980018768715741
0,-1846.54,-939.96,-3145.76,50.8,3.985018792294529
0,-1852.95,-942.06,-3145.3,42.81,3.9900188158733165
0,-1848.66,-942.29,-3145.16,46.29,3.9950188394521113
0,-1850.16,-933.41,-3145.68,39.38,4.000018863030899
0,-1847.64,-936.86,-3147.09,40.8,4.005018886609687
0,-1848.38,-932.91,-3137.88,47.85,4.0100189101884745
0,-1844.19,-929.91,-3137.02,48.23,4.015018933767262
0,-1846.13,-935.39,-3139.12,48.73,4.02001895734605
0,-1846.24,-936.08,-3145.4,48.76,4.025018980924838
0,-1847.8,-935.69,-3145.08,46.29,4.030019004503625
0,-1843.28,-935.34,-3149.69,40.36,4.03501902808242
0,-1851.59,-932.7,-3140.53,45.02,4.040019051661208
0,-1842.49,-933.28,-3140.92,47.32,4.0450190752399955
0,-1840.23,-925.13,-3138.86,49.21,4.050019098818783
0,-1841.15,-922.89,-3139.2,48.8,4.055019122397571
0,-1845.08,-929.25,-3140.92,43.0,4.060019145976359
0,-1836.2,-934.66,-3142.75,38.13,4.065019169555146
0,-1840.9,-928.18,-3141.02,42.45,4.070019193133934
0,-1840.9,-921.58,-3142.56,38.98,4.075019216712729
0,-1844.23,-918.96,-3139.68,43.03,4.0800192402915165
0,-1834.9,-926.49,-3137.41,45.03,4.085019263870304
0,-1841.54,-924.59,-3133.23,46.32,4.090019287449092
0,-1837.87,-917.4,-3132.96,54.6,4.09501931102788
0,-1841.05,-928.26,-3138.09,51.11,4.100019334606667
0,-1829.61,-912.44,-3122.89,53.32,4.105019358185455
0,-1824.2,-909.56,-3117.27,54.91,4.110019381764243
0,-1828.25,-910.88,-3123.03,50.45,4.115019405343038
0,-1827.28,-914.62,-3125.44,55.51,4.120019428921825
0,-1829.82,-912.91,-3127.0,53.1,4.125019452500613
0,-1819.43,-906.55,-3122.84,53.22,4.130019476079401
0,-1822.86,-912.78,-3122.4,58.25,4.135019499658188
0,-1825.61,-918.6,-3128.18,53.47,4.140019523236976
0,-1831.51,-915.62,-3132.25,49.36,4.145019546815764
0,-1828.36,-918.83,-3134.61,46.71,4.150019570394559
0,-1831.41,-925.91,-3134.37,40.46,4.155019593973346
0,-1833.76,-931.04,-3137.11,42.63,4.160019617552134
0,-1834.12,-930.19,-3129.98,44.24,4.165019641130922
0,-1826.23,-917.54,-3129.47,50.32,4.170019664709709
0,-1825.17,-914.64,-3121.25,55.85,4.175019688288497
0,-1826.45,-919.12,-3128.74,51.44,4.180019711867285
0,-1831.87,-923.83,-3136.08,47.3,4.1850197354460725
0,-1833.82,-923.22,-3133.33,42.87,4.190019759024867
0,-1830.79,-918.23,-3130.5,43.34,4.195019782603655
0,-1823.12,-907.51,-3126.59,51.95,4.200019806182443
0,-1829.34,-916.72,-3123.45,51.64,4.2050198297612305
0,-1824.25,-909.96,-3121.26,57.44,4.210019853340018
0,-1833.69,-920.02,-3124.97,48.73,4.215019876918806
0,-1831.43,-919.34,-3130.64,45.1,4.220019900497594
0,-1837.22,-923.62,-3129.79,46.92,4.225019924076381
0,-1830.95,-930.0,-3128.53,56.5,4.230019947655176
0,-1830.2,-922.41,-3131.39,45.54,4.235019971233964
0,-1826.98,-923.98,-3133.56,42.71,4.2400199948127515
0,-1830.54,-918.59,-3131.68,47.51,4.245020018391539
0,-1830.63,-913.39,-3123.02,50.02,4.250020041970327
0,-1824.2,-909.75,-3123.07,49.61,4.255020065549115
0,-1827.92,-913.31,-3125.0,52.07,4.260020089127902
0,-1817.88,-916.29,-3122.44,49.05,4.26502011270669
0,-1818.79,-915.9,-3128.82,53.28,4.270020136285485
0,-1830.62,-915.81,-3124.3,56.12,4.2750201598642725
0,-1826.54,-910.45,-3125.9,57.3,4.28002018344306
0,-1825.5,-909.39,-3129.87,51.34,4.285020207021848
0,-1823.21,-917.13,-3131.28,49.76,4.290020230600636
0,-1825.15,-908.85,-3130.84,48.42,4.295020254179423
0,-1828.69,-913.41,-3125.76,51.97,4.300020277758211
0,-1818.95,-914.8,-3121.86,58.44,4.305020301336999
0,-1824.32,-912.55,-3121.34,57.96,4.310020324915794
0,-1829.04,-917.03,-3121.72,56.79,4.315020348494581
0,-1829.59,-917.3,-3127.36,52.85,4.320020372073369
0,-1827.18,-917.11,-3130.45,57.03,4.325020395652157
0,-1835.01,-915.99,-3128.78,61.4,4.330020419230944
0,-1829.56,-914.49,-3128.08,50.23,4.335020442809732
0,-1829.31,-907.79,-3124.04,46.5,4.34002046638852
0,-1825.19,-912.2,-3117.14,46.86,4.345020489967315
0,-1819.15,-908.56,-3122.57,50.81,4.350020513546102
0,-1823.18,-905.72,-3116.18,56.62,4.35502053712489
0,-1826.53,-905.72,-3119.6,52.95,4.360020560703678
0,-1832.31,-906.04,-3121.81,51.69,4.365020584282465
0,-1828.57,-897.56,-3122.71,55.69,4.370020607861253
0,-1822.28,-907.2,-3119.83,55.58,4.375020631440041
0,-1814.78,-913.49,-3127.7,53.33,4.3800206550188285
0,-1822.57,-914.38,-3125.17,52.83,4.385020678597623
0,-1834.2,-915.38,-3131.39,46.89,4.390020702176411
0,-1828.37,-916.64,-3129.05,51.8,4.395020725755199
0,-1827.06,-915.97,-3129.74,49.33,4.4000207493339865
0,-1830.96,-917.6,-3124.31,49.54,4.405020772912774
0,-1832.65,-920.62,-3126.83,48.49,4.410020796491562
0,-1829.15,-916.4,-3128.88,48.01,4.41502082007035
0,-1828.64,-919.9,-3129.38,45.19,4.420020843649137
0,-1834.09,-925.33,-3140.51,39.8,4.425020867227932
0,-1836.62,-924.07,-3132.57,44.06,4.43002089080672
0,-1826.27,-920.17,-3127.34,50.14,4.4350209143855075
0,-1827.9,-907.88,-3122.15,54.78,4.440020937964295
0,-1826.15,-917.84,-3118.87,54.13,4.445020961543083
0,-1829.69,-910.4,-3120.04,58.5,4.450020985121871
0,-1824.23,-915.58,-3123.19,56.82,4.455021008700658
0,-1821.91,-905.38,-3122.36,51.42,4.460021032279446
0,-1822.27,-909.39,-3127.16,50.69,4.465021055858241
0,-1836.51,-912.94,-3129.11,45.98,4.4700210794370285
0,-1836.02,-916.44,-3129.29,44.21,4.475021103015816
0,-1828.83,-916.31,-3129.27,52.45,4.480021126594604
0,-1829.11,-921.48,-3122.3,55.87,4.485021150173392
0,-1833.19,-913.77,-3122.22,50.26,4.490021173752179
0,-1825.2,-912.96,-3123.33,55.43,4.495021197330967
0,-1823.37,-910.99,-3120.6,58.19,4.500021220909762
0,-1824.02,-921.59,-3122.31,57.79,4.50502124448855
0,-1813.54,-908.14,-3119.13,53.71,4.510021268067337
0,-1811.63,-907.65,-3113.72,62.93,4.515021291646125
0,-1818.92,-914.73,-3113.9,59.83,4.520021315224913
0,-1819.39,-910.18,-3114.66,58.89,4.5250213388037
0,-1819.65,-908.62,-3121.01,57.85,4.530021362382488
0,-1822.06,-916.96,-3116.62,55.69,4.535021385961276
0,-1823.7,-915.16,-3118.27,62.16,4.540021409540071
0,-1832.14,-918.64,-3123.74,57.91,4.545021433118858
0,-1828.98,-916.32,-3121.38,58.66,4.550021456697646
0,-1832.3,-924.88,-3128.24,52.66,4.555021480276434
0,-1830.91,-921.99,-3134.48,52.05,4.560021503855221
0,-1834.36,-920.47,-3138.38,50.56,4.565021527434009
0,-1836.04,-921.81,-3132.62,48.27,4.570021551012797
0,-1833.27,-926.51,-3137.92,45.72,4.5750215745915845
0,-1830.76,-922.43,-3131.22,53.19,4.580021598170379
0,-1836.15,-925.09,-3124.55,67.19,4.585021621749167
0,-1837.6,-932.89,-3136.81,52.23,4.590021645327955
0,-1844.82,-937.81,-3153.02,27.25,4.5950216689067425
0,-1852.77,-945.04,-3156.98,26.68,4.60002169248553
0,-1852.02,-947.78,-3154.1,26.42,4.605021716064318
0,-1847.03,-942.76,-3153.13,24.27,4.610021739643106
0,-1843.63,-937.08,-3145.1,32.6,4.615021763221893
0,-1846.29,-932.3,-3144.95,34.57,4.620021786800688
0,-1849.43,-941.31,-3147.65,29.51,4.625021810379476
0,-1841.26,-943.61,-3151.12,30.03,4.6300218339582635
0,-1835.67,-935.59,-3144.51,29.98,4.635021857537051
0,-1833.97,-934.93,-3140.27,34.6,4.640021881115839
0,-1834.2,-928.99,-3138.71,37.2,4.645021904694627
0,-1836.29,-931.15,-3136.38,35.8,4.650021928273414
0,-1841.19,-930.89,-3142.19,30.91,4.655021951852209
0,-1833.56,-921.85,-3135.63,38.49,4.660021975430997
0,-1827.79,-917.46,-3134.27,45.44,4.6650219990097845
0,-1830.39,-918.76,-3133.41,42.27,4.670022022588572
0,-1826.92,-920.21,-3134.8,46.31,4.67502204616736
0,-1830.39,-927.06,-3133.42,42.7,4.680022069746148
0,-1830.05,-923.17,-3134.16,42.81,4.685022093324935
0,-1829.02,-913.61,-3130.95,46.25,4.690022116903723
0,-1837.38,-918.98,-3134.18,47.13,4.695022140482518
0,-1836.77,-922.04,-3132.96,55.15,4.700022164061306
0,-1832.67,-923.75,-3128.82,57.41,4.705022187640093
0,-1836.92,-929.96,-3137.08,52.6,4.710022211218881
0,-1830.62,-924.12,-3135.29,54.08,4.715022234797669
0,-1834.89,-921.8,-3130.8,57.52,4.720022258376456
0,-1829.8,-910.16,-3123.57,60.85,4.725022281955244
0,-1827.39,-920.77,-3126.95,52.51,4.730022305534032
0,-1828.88,-912.39,-3127.35,55.34,4.735022329112827
0,-1826.22,-914.27,-3127.76,53.35,4.740022352691614
0,-1819.81,-914.01,-3116.27,68.98,4.745022376270402
0,-1825.0,-911.19,-3120.97,61.71,4.75002239984919
0,-1821.49,-902.29,-3109.64,56.39,4.755022423427977
0,-1818.1,-892.96,-3109.5,67.89,4.760022447006765
0,-1812.34,-896.55,-3105.2,70.48,4.765022470585553
0,-1814.81,-895.89,-3111.29,69.17,4.7700224941643405
0,-1820.0,-906.58,-3117.37,55.1,4.775022517743135
0,-1825.65,-906.11,-3118.29,52.75,4.780022541321923
0,-1825.68,-911.01,-3119.16,54.4,4.785022564900711
0,-1821.64,-907.37,-3119.47,56.49,4.7900225884794985
0,-1824.41,-904.88,-3117.63,51.49,4.795022612058286
0,-1831.6,-915.26,-3126.35,48.74,4.800022635637074
0,-1830.9,-927.66,-3133.86,43.4,4.805022659215862
0,-1831.35,-924.19,-3133.01,47.99,4.810022682794656
0,-1834.58,-921.46,-3130.23,47.75,4.815022706373444
0,-1834.53,-921.72,-3136.6,44.96,4.820022729952232
0,-1834.57,-921.44,-3136.26,41.19,4.8250227535310195
0,-1834.76,-921.38,-3133.06,42.82,4.830022777109807
0,-1836.09,-916.54,-3132.17,40.73,4.835022800688595
0,-1828.34,-925.78,-3136.36,42.69,4.840022824267383
0,-1828.32,-927.24,-3133.53,47.17,4.84502284784617
0,-1829.51,-928.51,-3134.5,39.48,4.850022871424965
0,-1826.43,-911.07,-3130.33,51.75,4.855022895003753
0,-1828.27,-911.02,-3120.68,54.89,4.8600229185825405
0,-1833.67,-915.77,-3122.76,57.21,4.865022942161328
0,-1831.92,-917.49,-3126.0,52.56,4.870022965740116
0,-1824.94,-913.15,-3123.35,61.02,4.875022989318904
0,-1831.18,-915.88,-3120.49,50.22,4.880023012897691
0,-1826.64,-915.23,-3121.77,53.1,4.885023036476479
0,-1829.23,-913.22,-3121.4,46.27,4.890023060055274
0,-1830.0,-916.04,-3126.4,46.82,4.895023083634062
0,-1832.38,-913.41,-3126.42,47.66,4.900023107212849
0,-1828.48,-917.62,-3133.99,49.33,4.905023130791637
0,-1837.94,-920.5,-3131.53,45.93,4.910023154370425
0,-1828.53,-921.34,-3133.69,44.68,4.915023177949212
0,-1828.34,-917.54,-3132.97,45.75,4.920023201528
0,-1833.87,-924.32,-3131.18,40.51,4.925023225106788
0,-1833.45,-920.83,-3129.34,42.13,4.930023248685583
0,-1835.09,-922.56,-3136.45,44.31,4.93502327226437
0,-1832.5,-920.55,-3130.17,53.21,4.940023295843158
0,-1830.75,-919.92,-3130.7,53.17,4.945023319421946
0,-1828.49,-919.29,-3129.74,51.14,4.950023343000733
0,-1820.7,-904.92,-3119.49,66.3,4.955023366579521
0,-1831.16,-918.51,-3129.98,52.47,4.960023390158309
0,-1835.08,-916.46,-3126.98,43.6,4.9650234137370965
0,-1833.18,-921.23,-3131.07,42.99,4.970023437315891
0,-1830.51,-922.95,-3131.5,48.21,4.975023460894679
0,-1830.7,-919.71,-3129.14,48.56,4.980023484473467
0,-1828.12,-914.53,-3121.14,52.07,4.9850235080522545
0,-1818.72,-914.71,-3127.31,55.23,4.990023531631042
0,-1832.54,-917.53,-3127.56,51.32,4.99502355520983
0,-1829.68,-915.81,-3129.18,54.29,5.000023578788618
0,-1831.75,-916.23,-3129.98,48.93,5.005023602367412
0,-1830.36,-913.25,-3128.55,44.39,5.0100236259462
0,-1833.37,-916.9,-3135.99,44.36,5.015023649524988
0,-1834.84,-911.84,-3133.88,43.66,5.0200236731037755
0,-1829.41,-916.28,-3125.73,46.77,5.025023696682563
0,-1829.46,-921.2,-3132.05,47.29,5.030023720261351
0,-1832.31,-920.99,-3129.4,45.76,5.035023743840139
0,-1823.83,-916.95,-3124.74,52.36,5.040023767418926
0,-1824.85,-914.64,-3124.74,54.41,5.045023790997721
0,-1818.21,-914.3,-3122.92,51.68,5.050023814576509
0,-1832.87,-911.4,-3124.28,47.95,5.0550238381552965
0,-1837.38,-926.56,-3134.56,48.12,5.060023861734084
0,-1831.36,-927.09,-3133.94,48.14,5.065023885312872
0,-1841.18,-926.37,-3138.59,38.09,5.07002390889166
0,-1834.62,-924.15,-3131.61,35.39,5.075023932470447
0,-1833.41,-922.83,-3132.59,42.62,5.080023956049235
0,-1837.61,-920.59,-3134.98,48.08,5.08502397962803
0,-1841.18,-921.09,-3131.29,41.37,5.090024003206818
0,-1834.47,-917.39,-3133.24,46.18,5.095024026785605
0,-1828.32,-914.83,-3129.77,50.71,5.100024050364393
0,-1824.72,-913.32,-3126.56,55.84,5.105024073943181
0,-1833.08,-908.86,-3122.18,54.01,5.110024097521968
0,-1829.11,-915.58,-3123.08,47.38,5.115024121100756
0,-1830.12,-919.84,-3128.83,49.19,5.120024144679544
0,-1830.12,-915.39,-3129.48,52.91,5.125024168258339
0,-1822.88,-915.37,-3128.15,52.36,5.130024191837126
0,-1836.1,-918.15,-3128.22,50.75,5.135024215415914
0,-1824.99,-918.06,-3125.37,50.96,5.140024238994702
0,-1825.02,-902.35,-3119.23,53.16,5.145024262573489
0,-1825.94,-906.21,-3124.28,50.27,5.150024286152277
0,-1827.18,-919.09,-3124.7,56.23,5.155024309731065
0,-1827.16,-928.6,-3129.34,52.47,5.16002433330986
0,-1830.74,-931.31,-3134.41,43.36,5.165024356888647
0,-1833.53,-928.32,-3132.66,47.97,5.170024380467435
0,-1828.99,-925.14,-3132.45,44.99,5.175024404046223
0,-1826.73,-914.58,-3127.18,52.55,5.1800244276250105
0,-1825.98,-918.2,-3127.37,50.63,5.185024451203798
0,-1832.31,-917.12,-3127.73,54.66,5.190024474782586
0,-1831.82,-905.53,-3128.51,52.52,5.195024498361374
0,-1836.24,-920.01,-3130.95,51.93,5.200024521940168
0,-1844.86,-928.18,-3135.82,46.15,5.205024545518956
0,-1840.24,-924.34,-3136.78,49.05,5.210024569097744
0,-1834.53,-920.45,-3135.9,45.58,5.2150245926765315
0,-1842.67,-918.66,-3126.98,45.43,5.220024616255319
0,-1836.64,-918.26,-3131.33,46.05,5.225024639834107
0,-1837.72,-921.24,-3133.32,43.74,5.230024663412895
0,-1829.9,-915.72,-3131.58,40.41,5.235024686991682
0,-1835.91,-913.55,-3133.05,38.86,5.240024710570477
0,-1833.94,-920.83,-3139.04,36.14,5.245024734149265
0,-1824.58,-907.56,-3123.16,44.27,5.2500247577280525
0,-1826.94,-918.94,-3128.71,45.06,5.25502478130684
0,-1834.92,-921.39,-3135.35,42.06,5.260024804885628
0,-1834.07,-921.49,-3128.07,45.84,5.265024828464416
0,-1835.59,-920.05,-3134.44,48.92,5.270024852043203
0,-1836.82,-926.54,-3134.09,47.7,5.275024875621991
0,-1830.41,-920.29,-3129.14,45.79,5.280024899200786
0,-1824.13,-919.38,-3125.42,49.09,5.285024922779574
0,-1821.77,-915.95,-3123.68,50.2,5.290024946358361
0,-1821.88,-910.92,-3125.71,52.15,5.295024969937149
0,-1820.64,-905.96,-3119.99,54.1,5.300024993515937
0,-1827.5,-912.82,-3126.86,54.72,5.305025017094724
0,-1825.39,-919.54,-3129.72,54.18,5.310025040673512
0,-1824.91,-918.56,-3130.33,51.19,5.315025064252307
0,-1826.28,-913.46,-3129.23,50.59,5.320025087831095
0,-1828.92,-911.8,-3126.22,50.46,5.325025111409882
0,-1822.05,-913.45,-3124.17,54.91,5.33002513498867
0,-1823.13,-914.62,-3127.26,58.82,5.335025158567458
0,-1824.16,-905.95,-3121.39,59.75,5.340025182146245
0,-1823.53,-909.55,-3123.85,57.9,5.345025205725033
0,-1819.4,-920.22,-3125.02,59.28,5.350025229303821
0,-1825.35,-917.47,-3126.65,51.4,5.355025252882616
0,-1828.06,-913.05,-3126.09,54.2,5.360025276461403
0,-1822.31,-904.2,-3119.82,51.38,5.365025300040191
0,-1830.15,-918.34,-3123.74,50.7,5.370025323618979
0,-1825.4,-916.3,-3124.09,50.87,5.3750253471977665
0,-1829.53,-916.03,-3125.31,54.34,5.380025370776554
0,-1834.27,-915.18,-3129.1,52.13,5.385025394355342
0,-1830.19,-916.75,-3124.58,54.14,5.39002541793413
0,-1832.49,-915.23,-3119.52,56.16,5.395025441512924
0,-1821.82,-917.58,-3119.3,55.62,5.400025465091712
0,-1823.73,-911.77,-3121.01,56.17,5.4050254886705
0,-1820.31,-908.47,-3121.27,53.85,5.4100255122492875
0,-1823.28,-907.81,-3121.37,53.94,5.415025535828075
0,-1826.79,-914.77,-3126.31,50.31,5.420025559406863
0,-1819.56,-913.35,-3120.54,55.49,5.425025582985651
0,-1819.17,-909.13,-3118.97,56.03,5.430025606564438
0,-1826.17,-912.08,-3120.36,58.24,5.435025630143233
0,-1826.42,-917.12,-3123.26,55.85,5.440025653722021
0,-1829.1,-921.94,-3126.65,49.52,5.4450256773008086
0,-1830.5,-920.21,-3130.45,52.62,5.450025700879596
0,-1833.92,-922.93,-3129.42,48.82,5.455025724458384
0,-1833.65,-920.5,-3133.04,49.35,5.460025748037172
0,-1834.05,-913.79,-3126.09,54.75,5.465025771615959
0,-1833.84,-908.83,-3126.56,51.05,5.470025795194754
0,-1834.65,-912.73,-3128.39,52.11,5.475025818773542
0,-1840.2,-919.62,-3133.61,50.02,5.48002584235233
0,-1840.64,-920.18,-3130.61,47.52,5.485025865931117
0,-1840.08,-926.35,-3138.35,41.82,5.490025889509905
0,-1840.65,-928.7,-3142.48,39.65,5.495025913088693
0,-1835.72,-919.94,-3137.79,40.68,5.50002593666748
0,-1835.77,-919.98,-3133.64,39.65,5.505025960246268
0,-1832.41,-911.96,-3130.71,44.2,5.510025983825063
0,-1822.68,-910.24,-3121.06,54.95,5.515026007403851
0,-1813.38,-908.7,-3117.2,54.54,5.520026030982638
0,-1824.44,-909.6,-3120.41,54.22,5.525026054561426
0,-1820.47,-916.07,-3124.25,51.31,5.530026078140214
0,-1833.41,-925.16,-3134.78,46.08,5.5350261017190014
0,-1835.12,-926.09,-3136.05,50.04,5.540026125297789
0,-1835.13,-925.0,-3137.07,46.15,5.545026148876577
0,-1839.3,-925.15,-3140.18,39.43,5.550026172455372
0,-1838.26,-923.0,-3139.4,42.08,5.555026196034159
0,-1837.98,-925.14,-3136.82,41.64,5.560026219612947
0,-1838.72,-920.53,-3134.14,43.3,5.565026243191735
0,-1833.21,-915.17,-3128.14,49.96,5.5700262667705225
0,-1835.34,-917.55,-3131.5,47.43,5.57502629034931
0,-1830.87,-915.63,-3130.21,55.03,5.580026313928098
0,-1836.88,-921.86,-3135.33,42.15,5.585026337506886
0,-1836.82,-931.5,-3140.56,26.93,5.59002636108568
0,-1839.07,-930.34,-3140.57,37.1,5.595026384664468
0,-1838.3,-924.05,-3139.09,35.7,5.600026408243256
0,-1841.03,-929.76,-3136.61,34.3,5.6050264318220435
0,-1840.57,-931.6,-3137.29,39.26,5.610026455400831
0,-1831.07,-929.31,-3134.67,43.41,5.615026478979619
0,-1828.22,-919.93,-3128.57,51.51,5.620026502558407
0,-1823.77,-919.06,-3126.31,55.01,5.625026526137194
0,-1827.54,-909.7,-3121.62,51.46,5.630026549715989
0,-1826.66,-910.25,-3125.16,57.02,5.635026573294777
0,-1819.1,-905.78,-3116.98,53.89,5.640026596873565
0,-1823.06,-906.7,-3120.24,53.69,5.645026620452352
0,-1825.64,-917.13,-3128.62,47.77,5.65002664403114
0,-1830.66,-926.12,-3129.63,46.89,5.655026667609928
0,-1826.74,-917.04,-3126.83,51.8,5.660026691188715
0,-1821.74,-910.26,-3117.88,56.77,5.66502671476751
0,-1822.82,-913.66,-3124.6,54.17,5.670026738346298
0,-1823.05,-920.45,-3123.9,50.11,5.675026761925086
0,-1830.88,-927.29,-3131.41,44.77,5.680026785503873
0,-1830.03,-914.38,-3129.69,45.92,5.685026809082661
0,-1828.94,-920.46,-3127.56,44.82,5.690026832661449
0,-1829.14,-914.59,-3126.29,51.2,5.695026856240236
0,-1830.18,-914.06,-3125.32,56.79,5.700026879819024
0,-1830.62,-916.54,-3121.99,48.87,5.705026903397819
0,-1829.06,-916.1,-3126.29,48.88,5.710026926976607
0,-1826.48,-917.18,-3122.72,51.68,5.715026950555394
0,-1830.74,-912.52,-3126.0,52.22,5.720026974134182
0,-1830.71,-919.79,-3129.21,50.87,5.72502699771297
0,-1831.38,-916.93,-3131.49,50.59,5.7300270212917574
0,-1825.94,-915.2,-3124.18,56.07,5.735027044870545
0,-1834.67,-919.54,-3125.57,51.61,5.740027068449333
0,-1835.83,-916.4,-3131.57,49.4,5.745027092028128
0,-1842.99,-921.9,-3133.32,44.2,5.750027115606915
0,-1835.59,-920.56,-3134.5,39.48,5.755027139185703
0,-1839.01,-921.01,-3131.21,43.51,5.760027162764491
0,-1835.48,-928.3,-3136.3,44.85,5.7650271863432785
0,-1835.82,-931.12,-3139.86,48.38,5.770027209922066
0,-1834.12,-922.16,-3133.08,50.56,5.775027233500854
0,-1826.84,-918.06,-3125.94,48.45,5.780027257079642
0,-1833.33,-922.27,-3128.5,46.34,5.785027280658436
0,-1834.63,-920.55,-3135.93,44.58,5.790027304237224
0,-1829.76,-920.74,-3129.58,47.28,5.795027327816012
0,-1826.29,-916.52,-3127.25,50.51,5.8000273513947995
0,-1821.98,-915.26,-3123.75,57.32,5.805027374973587
0,-1826.29,-916.17,-3125.49,60.14,5.810027398552375
0,-1825.61,-913.81,-3122.73,52.96,5.815027422131163
0,-1825.57,-909.31,-3121.81,57.65,5.8200274457099574
0,-1830.04,-906.29,-3120.59,57.22,5.825027469288745
0,-1826.49,-913.13,-3120.36,60.17,5.830027492867533
0,-1826.62,-910.54,-3122.76,54.08,5.835027516446321
0,-1833.71,-908.53,-3123.61,55.9,5.840027540025108
0,-1826.67,-906.09,-3122.22,56.84,5.845027563603896
0,-1824.39,-906.88,-3124.68,59.55,5.850027587182684
0,-1831.02,-911.68,-3127.02,53.33,5.855027610761471
0,-1829.76,-924.16,-3130.52,46.84,5.860027634340266
0,-1830.69,-919.31,-3131.79,43.87,5.865027657919054
0,-1832.05,-917.97,-3137.21,41.89,5.870027681497842
0,-1832.49,-916.24,-3133.33,43.68,5.875027705076629
0,-1828.8,-911.59,-3127.57,41.87,5.880027728655417
0,-1824.89,-918.44,-3126.98,42.98,5.885027752234205
0,-1824.72,-916.05,-3122.76,51.38,5.890027775812992
0,-1824.06,-922.17,-3128.78,58.46,5.89502779939178
0,-1825.6,-914.01,-3128.51,59.61,5.900027822970575
0,-1826.66,-911.98,-3122.84,63.67,5.905027846549363
0,-1823.33,-908.39,-3120.88,60.4,5.91002787012815
0,-1820.69,-905.83,-3116.98,64.83,5.915027893706938
0,-1826.02,-911.26,-3120.42,67.35,5.920027917285726
0,-1822.08,-912.69,-3121.7,64.12,5.9250279408645135
0,-1828.28,-916.69,-3125.02,63.36,5.930027964443301
0,-1830.33,-912.98,-3120.6,63.44,5.935027988022089
0,-1830.6,-906.34,-3118.59,64.22,5.940028011600884
0,-1828.52,-912.71,-3123.65,57.21,5.945028035179671
0,-1827.55,-916.06,-3125.94,56.97,5.950028058758459
0,-1821.1,-917.95,-3128.05,58.09,5.955028082337247
0,-1826.69,-920.54,-3126.45,53.29,5.9600281059160345
0,-1833.79,-915.74,-3133.06,51.62,5.965028129494822
0,-1836.36,-919.26,-3134.07,45.96,5.97002815307361
0,-1838.91,-926.67,-3138.68,41.98,5.975028176652405
0,-1839.8,-936.81,-3140.11,40.35,5.980028200231192
0,-1838.73,-933.81,-3141.34,35.93,5.98502822380998
0,-1840.85,-932.35,-3142.41,32.34,5.990028247388768
0,-1843.91,-937.19,-3146.07,31.29,5.9950282709675555
0,-1841.42,-934.59,-3145.04,30.59,6.000028294546343
0,-1834.03,-927.83,-3142.65,35.56,6.005028318125131
0,-1829.17,-920.38,-3135.68,35.31,6.010028341703919
0,-1835.04,-922.6,-3136.65,38.68,6.0150283652827135
0,-1834.34,-920.78,-3135.87,42.62,6.020028388861501
0,-1835.03,-922.86,-3133.46,44.98,6.025028412440289
0,-1827.23,-920.42,-3136.55,53.72,6.030028436019077
0,-1823.7,-915.3,-3124.17,45.84,6.035028459597864
0,-1820.61,-908.42,-3121.09,55.66,6.040028483176652
0,-1825.64,-912.68,-3119.87,58.84,6.04502850675544
0,-1826.65,-906.48,-3118.53,55.49,6.050028530334227
0,-1823.62,-907.84,-3117.26,57.67,6.055028553913022
0,-1820.85,-905.44,-3118.23,54.21,6.06002857749181
0,-1826.89,-907.96,-3122.48,52.48,6.065028601070598
0,-1825.38,-911.17,-3119.44,55.37,6.070028624649385
0,-1830.77,-912.68,-3122.01,53.06,6.075028648228173
0,-1829.56,-915.11,-3127.95,52.59,6.080028671806961
0,-1826.85,-914.23,-3126.27,49.25,6.085028695385748
0,-1827.63,-915.49,-3131.96,50.97,6.090028718964536
0,-1828.7,-914.3,-3133.85,51.94,6.095028742543331
0,-1832.43,-914.45,-3129.09,45.39,6.100028766122119
0,-1833.77,-912.7,-3133.15,44.49,6.105028789700906
0,-1834.89,-917.39,-3134.61,39.86,6.110028813279694
0,-1837.14,-928.96,-3141.6,43.3,6.115028836858482
0,-1835.35,-925.32,-3136.34,50.62,6.1200288604372695
0,-1833.88,-925.84,-3134.0,47.7,6.125028884016057
0,-1831.29,-923.93,-3134.32,42.16,6.130028907594852
0,-1839.76,-933.32,-3135.73,34.98,6.13502893117364
0,-1837.61,-932.88,-3138.65,39.3,6.140028954752427
0,-1834.42,-922.42,-3131.32,43.09,6.145028978331215
0,-1824.1,-917.84,-3126.52,50.2,6.150029001910003
0,-1819.77,-917.11,-3120.67,49.01,6.1550290254887905
0,-1826.53,-917.3,-3125.86,49.03,6.160029049067578
0,-1825.86,-911.89,-3122.26,46.97,6.165029072646366
0,-1827.08,-915.48,-3119.91,50.44,6.170029096225161
0,-1825.42,-908.1,-3120.61,56.2,6.175029119803948
0,-1829.36,-909.6,-3125.05,53.0,6.180029143382736
0,-1822.95,-908.15,-3113.68,55.18,6.185029166961524
0,-1824.9,-914.22,-3121.42,62.38,6.1900291905403115
0,-1829.4,-911.74,-3131.22,60.1,6.195029214119099
0,-1827.62,-910.34,-3123.09,60.39,6.200029237697887
0,-1820.89,-904.88,-3118.77,63.19,6.205029261276675
0,-1824.83,-914.24,-3128.66,57.16,6.2100292848554695
0,-1834.94,-916.95,-3128.06,56.76,6.215029308434257
0,-1838.02,-917.32,-3129.29,48.86,6.220029332013045
0,-1828.9,-912.6,-3128.88,55.59,6.225029355591833
0,-1828.57,-907.24,-3120.59,56.6,6.23002937917062
0,-1825.99,-922.52,-3128.71,53.73,6.235029402749408
0,-1835.61,-924.51,-3132.96,45.33,6.240029426328196
0,-1825.88,-915.85,-3129.82,51.22,6.245029449906983
0,-1825.64,-918.21,-3126.61,48.25,6.250029473485778
0,-1824.58,-918.3,-3125.62,51.0,6.255029497064566
0,-1827.79,-920.73,-3130.34,57.36,6.260029520643354
0,-1825.98,-910.43,-3121.32,57.71,6.265029544222141
0,-1825.62,-915.16,-3123.68,56.08,6.270029567800929
0,-1835.04,-921.66,-3127.36,49.07,6.275029591379717
0,-1826.51,-920.36,-3125.49,51.7,6.280029614958504
0,-1820.26,-913.49,-3121.56,55.86,6.285029638537292
0,-1819.86,-910.82,-3121.77,64.11,6.290029662116087
0,-1819.7,-906.61,-3115.13,64.32,6.295029685694875
0,-1819.38,-905.84,-3105.92,80.51,6.300029709273662
0,-1826.83,-913.12,-3123.33,58.64,6.30502973285245
0,-1825.3,-917.66,-3128.84,53.37,6.310029756431238
0,-1822.61,-916.28,-3124.83,60.9,6.3150297800100255
0,-1822.62,-913.38,-3124.39,56.17,6.320029803588813
0,-1825.73,-910.76,-3120.41,50.72,6.325029827167608
0,-1826.89,-910.68,-3124.75,51.98,6.330029850746396
0,-1827.4,-912.71,-3125.54,45.33,6.335029874325183
0,-1824.12,-904.48,-3114.31,54.42,6.340029897903971
0,-1819.09,-905.41,-3118.47,57.78,6.345029921482759
0,-1823.68,-911.27,-3120.81,51.96,6.3500299450615465
0,-1827.06,-913.06,-3127.94,46.7,6.355029968640334
0,-1832.54,-922.07,-3131.49,43.52,6.360029992219122
0,-1836.5,-928.77,-3134.83,46.4,6.365030015797917
0,-1840.26,-930.55,-3139.52,42.34,6.370030039376704
0,-1833.29,-925.53,-3135.24,50.05,6.375030062955492
0,-1839.11,-924.57,-3139.34,47.62,6.38003008653428
0,-1846.02,-929.21,-3140.43,45.1,6.3850301101130675
0,-1839.62,-931.9,-3141.27,47.85,6.390030133691855
0,-1842.13,-924.83,-3138.26,44.77,6.395030157270643
0,-1836.11,-923.59,-3132.22,44.69,6.400030180849431
0,-1834.02,-927.02,-3130.6,43.32,6.4050302044282255
0,-1831.03,-922.4,-3133.58,40.22,6.410030228007013
0,-1823.27,-911.93,-3127.81,44.46,6.415030251585801
0,-1822.91,-912.6,-3126.55,46.15,6.420030275164589
0,-1819.86,-901.89,-3120.07,48.37,6.425030298743376
0,-1815.49,-896.58,-3111.33,49.53,6.430030322322164
0,-1814.23,-892.44,-3107.44,54.91,6.435030345900952
0,-1801.95,-885.6,-3102.33,63.58,6.440030369479739
0,-1796.63,-892.01,-3103.37,52.77,6.445030393058534
0,-1796.67,-881.72,-3098.17,59.72,6.450030416637322
0,-1791.56,-875.8,-3094.37,64.04,6.45503044021611
0,-1791.2,-881.07,-3094.02,60.52,6.460030463794897
0,-1792.26,-876.08,-3094.3,62.02,6.465030487373685
0,-1796.0,-873.52,-3096.88,64.63,6.470030510952473
0,-1794.77,-876.3,-3096.91,62.79,6.47503053453126
0,-1790.44,-875.57,-3097.08,65.23,6.480030558110055
0,-1792.71,-879.31,-3098.1,68.89,6.485030581688843
0,-1792.18,-871.84,-3095.31,69.17,6.490030605267631
0,-1789.88,-869.53,-3092.21,72.05,6.495030628846418
0,-1788.48,-876.17,-3090.47,67.43,6.500030652425206
0,-1791.54,-877.49,-3096.53,60.35,6.505030676003994
0,-1796.55,-876.64,-3095.49,64.74,6.5100306995827815
0,-1792.9,-880.09,-3095.43,65.88,6.515030723161569
0,-1792.09,-889.3,-3091.19,74.53,6.520030746740364
0,-1795.29,-888.01,-3095.39,70.41,6.525030770319152
0,-1797.26,-890.24,-3102.6,66.07,6.530030793897939
0,-1803.33,-888.0,-3103.05,62.74,6.535030817476727
0,-1806.09,-893.02,-3105.57,60.49,6.540030841055515
0,-1805.19,-887.11,-3104.63,63.63,6.5450308646343025
0,-1800.91,-894.78,-3099.49,65.4,6.55003088821309
0,-1801.92,-879.8,-3098.81,69.26,6.555030911791878
0,-1803.48,-889.75,-3099.15,64.73,6.560030935370673
0,-1803.74,-884.53,-3094.0,68.56,6.56503095894946
0,-1798.67,-884.71,-3100.09,73.39,6.570030982528248
0,-1805.81,-886.43,-3101.81,72.89,6.575031006107036
0,-1813.4,-894.56,-3103.98,65.76,6.5800310296858235
0,-1825.84,-897.69,-3115.34,57.81,6.585031053264611
0,-1832.76,-898.37,-3123.21,56.62,6.590031076843399
0,-1831.3,-918.84,-3131.47,49.39,6.595031100422187
0,-1845.09,-933.23,-3145.38,38.01,6.6000311240009815
0,-1848.43,-927.63,-3143.43,34.53,6.605031147579769
0,-1851.96,-939.59,-3150.93,31.6,6.610031171158557
0,-1853.79,-939.01,-3146.86,36.98,6.615031194737345
0,-1855.11,-938.89,-3149.27,37.72,6.620031218316132
0,-1855.83,-936.56,-3151.95,39.58,6.62503124189492
0,-1856.19,-944.53,-3153.5,38.58,6.630031265473708
0,-1858.39,-948.58,-3153.49,37.44,6.6350312890525025
0,-1866.05,-951.74,-3157.81,32.16,6.64003131263129
0,-1862.74,-948.05,-3155.22,30.54,6.645031336210078
0,-1873.59,-954.44,-3164.04,34.9,6.650031359788866
0,-1872.42,-962.15,-3162.19,34.05,6.655031383367653
0,-1870.77,-966.01,-3159.83,34.6,6.660031406946441
0,-1860.9,-954.04,-3152.83,39.73,6.665031430525229
0,-1853.32,-941.79,-3148.6,49.63,6.670031454104016
0,-1853.57,-944.19,-3143.4,45.69,6.675031477682811
0,-1854.61,-939.73,-3150.47,45.3,6.680031501261599
0,-1854.04,-946.88,-3156.09,48.49,6.685031524840387
0,-1862.52,-955.4,-3158.06,36.91,6.690031548419174
0,-1857.71,-952.24,-3157.36,39.67,6.695031571997962
0,-1860.81,-954.92,-3153.05,35.16,6.70003159557675
0,-1854.76,-952.09,-3157.2,34.3,6.7050316191555375
0,-1848.73,-940.07,-3152.38,36.13,6.710031642734325
0,-1854.55,-944.47,-3156.37,34.58,6.71503166631312
0,-1845.0,-938.51,-3146.94,45.18,6.720031689891908
0,-1839.08,-931.4,-3139.95,49.73,6.725031713470695
0,-1844.47,-932.06,-3136.28,52.43,6.730031737049483
0,-1842.03,-935.38,-3139.4,45.13,6.735031760628271
0,-1841.53,-930.51,-3141.33,42.02,6.7400317842070585
0,-1846.76,-926.32,-3137.76,42.34,6.745031807785846
0,-1839.31,-934.03,-3140.57,38.07,6.750031831364634
0,-1846.87,-941.32,-3152.26,30.33,6.755031854943429
0,-1849.44,-945.72,-3152.52,32.48,6.760031878522216
0,-1848.63,-932.07,-3150.35,32.7,6.765031902101004
0,-1845.74,-939.11,-3146.85,41.8,6.770031925679792
0,-1845.14,-934.91,-3143.49,38.98,6.7750319492585795
0,-1839.3,-927.25,-3138.02,42.2,6.780031972837367
0,-1838.04,-930.13,-3135.03,47.58,6.785031996416155
0,-1833.19,-924.23,-3134.92,54.02,6.79003201999495
0,-1842.49,-930.61,-3139.09,49.31,6.7950320435737375
0,-1832.51,-927.3,-3136.15,47.36,6.800032067152525
0,-1830.71,-918.56,-3128.22,51.72,6.805032090731313
0,-1832.62,-905.93,-3127.85,52.15,6.810032114310101
0,-1833.79,-911.01,-3125.14,54.34,6.815032137888888
0,-1833.49,-916.25,-3127.74,51.31,6.820032161467676
0,-1831.62,-923.04,-3133.96,53.37,6.825032185046464
0,-1830.16,-924.75,-3131.94,50.44,6.8300322086252585
0,-1824.81,-916.92,-3126.28,55.03,6.835032232204046
0,-1825.53,-907.63,-3121.31,53.98,6.840032255782834
0,-1827.01,-915.82,-3123.54,59.3,6.845032279361622
0,-1835.41,-916.71,-3129.15,50.53,6.850032302940409
0,-1834.83,-916.51,-3127.99,50.44,6.855032326519197
0,-1832.0,-918.58,-3127.99,50.94,6.860032350097985
0,-1833.28,-925.63,-3137.09,51.12,6.865032373676772
0,-1841.38,-927.57,-3136.9,41.94,6.870032397255567
0,-1843.08,-931.84,-3140.63,41.63,6.875032420834355
0,-1838.16,-926.96,-3139.73,46.25,6.880032444413143
0,-1835.78,-922.16,-3135.2,45.98,6.88503246799193
0,-1835.91,-920.55,-3135.27,45.03,6.890032491570718
0,-1829.88,-921.3,-3131.03,52.16,6.895032515149506
0,-1826.3,-908.65,-3116.47,53.38,6.9000325387282935
0,-1825.12,-913.95,-3126.1,51.0,6.905032562307081
0,-1825.07,-923.32,-3130.06,52.81,6.910032585885876
0,-1827.68,-926.0,-3129.94,48.47,6.915032609464664
0,-1837.42,-930.88,-3140.0,44.68,6.920032633043451
0,-1835.61,-920.57,-3129.58,51.9,6.925032656622239
0,-1829.71,-914.79,-3119.62,68.31,6.930032680201027
0,-1841.52,-938.64,-3144.28,34.98,6.9350327037798145
0,-1847.62,-938.7,-3148.59,25.03,6.940032727358602
0,-1846.76,-943.6,-3147.66,27.49,6.94503275093739
0,-1840.89,-930.01,-3141.34,36.29,6.950032774516185
0,-1843.69,-931.05,-3144.41,38.19,6.955032798094972
0,-1838.51,-934.5,-3145.62,32.39,6.96003282167376
0,-1834.55,-928.18,-3144.09,32.21,6.965032845252548
0,-1826.21,-925.52,-3136.79,39.75,6.9700328688313355
0,-1830.68,-925.3,-3133.5,42.39,6.975032892410123
0,-1826.86,-925.75,-3127.84,47.11,6.980032915988911
0,-1828.76,-921.93,-3125.87,41.37,6.985032939567706
0,-1825.72,-926.72,-3130.5,49.12,6.9900329631464935
0,-1827.42,-927.98,-3131.07,50.99,6.995032986725281
0,-1824.44,-919.08,-3128.75,50.03,7.000033010304069
0,-1826.16,-913.53,-3124.66,47.45,7.005033033882857
0,-1832.03,-924.08,-3134.1,42.62,7.010033057461644
0,-1834.58,-921.73,-3127.85,44.91,7.015033081040432
0,-1835.45,-930.66,-3136.35,46.63,7.02003310461922
0,-1833.89,-926.51,-3136.74,45.46,7.0250331281980145
0,-1830.35,-919.82,-3129.59,48.4,7.030033151776802
0,-1828.56,-918.41,-3125.93,48.32,7.03503317535559
0,-1822.72,-914.89,-3127.81,51.05,7.040033198934378
0,-1822.72,-912.49,-3127.77,53.47,7.045033222513165
0,-1826.5,-915.81,-3128.39,53.83,7.050033246091953
0,-1823.64,-909.03,-3126.63,57.62,7.055033269670741
0,-1825.92,-903.96,-3118.48,59.42,7.060033293249528
0,-1820.05,-910.9,-3120.97,60.92,7.065033316828323
0,-1823.77,-911.62,-3122.49,56.25,7.070033340407111
0,-1830.35,-921.07,-3125.95,48.84,7.075033363985899
0,-1828.08,-910.78,-3115.9,52.67,7.080033387564686
0,-1821.46,-899.8,-3110.31,54.67,7.085033411143474
0,-1824.2,-903.23,-3111.94,52.24,7.090033434722262
0,-1822.09,-900.98,-3115.79,53.54,7.0950334583010495
0,-1819.84,-910.59,-3116.15,52.61,7.100033481879837
0,-1819.74,-909.72,-3119.0,52.15,7.105033505458632
0,-1821.39,-909.41,-3125.43,56.06,7.11003352903742
0,-1828.92,-922.05,-3128.74,54.92,7.115033552616207
0,-1828.2,-920.14,-3127.96,44.43,7.120033576194995
0,-1824.06,-915.27,-3122.64,48.14,7.125033599773783
0,-1818.8,-909.19,-3121.13,49.46,7.1300336233525705
0,-1820.1,-910.73,-3119.03,46.86,7.135033646931358
0,-1822.97,-915.07,-3125.52,43.71,7.140033670510153
0,-1822.13,-913.21,-3127.08,47.11,7.145033694088941
0,-1826.63,-913.92,-3127.85,48.72,7.150033717667728
0,-1832.65,-917.59,-3128.83,53.53,7.155033741246516
0,-1827.87,-919.59,-3127.03,63.65,7.160033764825304
0,-1832.59,-915.82,-3126.94,52.69,7.1650337884040916
0,-1831.1,-920.18,-3130.03,46.58,7.170033811982879
0,-1826.4,-918.78,-3125.1,56.33,7.175033835561667
0,-1818.94,-911.24,-3122.35,60.35,7.180033859140462
0,-1818.24,-906.9,-3115.74,57.21,7.1850338827192495
0,-1823.13,-909.04,-3122.83,56.18,7.190033906298037
0,-1825.34,-902.16,-3120.63,59.07,7.195033929876825
0,-1826.41,-909.17,-3118.09,60.11,7.200033953455613
0,-1831.29,-919.65,-3129.35,56.9,7.2050339770344
0,-1829.26,-913.66,-3127.47,48.65,7.210034000613188
0,-1826.14,-913.2,-3128.99,51.46,7.215034024191976
0,-1823.37,-906.31,-3117.96,59.82,7.2200340477707705
0,-1828.12,-908.47,-3128.13,55.8,7.225034071349558
0,-1834.79,-906.14,-3128.51,51.76,7.230034094928346
0,-1829.68,-913.73,-3120.9,52.77,7.235034118507134
0,-1824.87,-911.75,-3125.08,51.4,7.240034142085921
0,-1825.1,-913.87,-3123.5,48.67,7.245034165664709
0,-1829.35,-919.82,-3128.7,49.56,7.250034189243497
0,-1826.14,-922.46,-3127.9,48.53,7.2550342128222844
0,-1830.67,-918.29,-3127.49,51.91,7.260034236401079
0,-1826.23,-916.1,-3124.45,55.57,7.265034259979867
0,-1829.82,-920.66,-3131.23,50.21,7.270034283558655
0,-1825.79,-902.3,-3119.34,57.67,7.275034307137442
0,-1835.33,-927.39,-3130.37,50.57,7.28003433071623
0,-1837.05,-932.94,-3135.57,50.14,7.285034354295018
0,-1831.7,-919.24,-3129.09,49.64,7.2900343778738055
0,-1836.97,-929.42,-3132.76,43.53,7.2950344014526
0,-1847.02,-937.01,-3147.25,34.29,7.300034425031388
0,-1849.13,-932.74,-3147.52,38.29,7.305034448610176
0,-1845.18,-928.6,-3145.48,42.96,7.310034472188963
0,-1851.48,-938.77,-3147.84,37.9,7.315034495767751
0,-1844.76,-937.55,-3148.66,37.16,7.320034519346539
0,-1834.68,-916.51,-3133.17,47.74,7.3250345429253265
0,-1831.23,-917.12,-3127.37,51.95,7.330034566504114
0,-1833.95,-914.07,-3125.52,52.53,7.335034590082909
0,-1830.03,-914.94,-3128.26,53.72,7.340034613661697
0,-1829.59,-912.71,-3128.51,55.67,7.345034637240484
0,-1825.49,-912.02,-3120.16,58.78,7.350034660819272
0,-1821.3,-907.77,-3114.73,54.27,7.35503468439806
0,-1824.75,-903.26,-3116.28,55.39,7.360034707976848
0,-1824.78,-904.8,-3117.74,61.27,7.365034731555635
0,-1820.92,-902.15,-3118.32,65.41,7.370034755134423
0,-1813.79,-893.41,-3112.31,61.48,7.375034778713218
0,-1817.86,-906.54,-3114.84,63.11,7.3800348022920055
0,-1818.28,-910.18,-3115.27,58.33,7.385034825870793
0,-1825.58,-916.81,-3121.54,58.9,7.390034849449581
0,-1828.27,-921.24,-3129.82,53.01,7.395034873028369
0,-1830.04,-912.08,-3126.23,54.52,7.400034896607156
0,-1834.1,-910.22,-3130.88,56.03,7.405034920185944
0,-1836.34,-915.13,-3129.76,51.09,7.410034943764732
0,-1840.12,-920.06,-3131.77,49.73,7.4150349673435265
0,-1830.11,-913.79,-3125.12,62.71,7.420034990922314
0,-1831.12,-923.7,-3129.05,60.32,7.425035014501102
0,-1834.98,-928.5,-3142.93,40.1,7.43003503807989
0,-1834.96,-930.42,-3144.88,33.49,7.435035061658677
0,-1835.1,-923.93,-3140.01,40.64,7.440035085237465
0,-1832.31,-929.17,-3135.03,39.49,7.445035108816253
0,-1836.51,-924.31,-3132.85,40.44,7.4500351323950476
0,-1838.1,-930.67,-3139.38,39.33,7.455035155973835
0,-1844.75,-929.68,-3138.84,35.3,7.460035179552623
0,-1845.37,-924.48,-3140.98,33.72,7.465035203131411
0,-1839.53,-925.32,-3138.82,34.01,7.470035226710198
0,-1833.31,-917.2,-3133.05,49.22,7.475035250288986
0,-1823.01,-915.46,-3128.11,45.47,7.480035273867774
0,-1826.91,-921.31,-3129.05,46.69,7.4850352974465615
0,-1822.49,-923.82,-3125.84,48.92,7.490035321025356
0,-1822.75,-912.71,-3125.66,54.0,7.495035344604144
0,-1825.68,-911.98,-3118.19,56.52,7.500035368182932
0,-1824.47,-916.42,-3123.64,55.33,7.505035391761719
0,-1822.33,-924.52,-3127.01,49.64,7.510035415340507
0,-1828.95,-916.65,-3132.72,50.58,7.515035438919295
0,-1830.75,-909.54,-3125.63,47.67,7.5200354624980825
0,-1830.01,-916.59,-3126.72,50.2,7.52503548607687
0,-1822.51,-912.3,-3123.76,54.12,7.530035509655665
0,-1827.96,-915.06,-3124.52,51.65,7.535035533234453
0,-1830.91,-918.71,-3125.11,52.5,7.5400355568132404
0,-1834.13,-922.1,-3129.85,47.02,7.545035580392028
0,-1843.05,-928.91,-3137.29,41.37,7.550035603970816
0,-1832.76,-923.7,-3137.8,42.52,7.555035627549604
0,-1846.28,-922.52,-3138.79,42.24,7.560035651128391
0,-1844.2,-926.61,-3140.59,45.05,7.565035674707179
0,-1849.29,-925.14,-3140.68,41.32,7.570035698285974
0,-1844.31,-918.5,-3130.95,46.23,7.5750357218647615
0,-1834.19,-913.18,-3129.59,47.84,7.580035745443549
0,-1825.76,-910.87,-3126.23,52.36,7.585035769022337
0,-1824.79,-913.61,-3123.89,48.98,7.590035792601125
0,-1818.48,-907.56,-3117.19,58.12,7.595035816179912
0,-1817.26,-905.39,-3117.3,57.73,7.6000358397587
0,-1820.71,-906.99,-3118.86,52.3,7.605035863337488
0,-1824.16,-917.51,-3128.04,49.89,7.6100358869162825
0,-1825.93,-914.3,-3130.9,42.35,7.61503591049507
0,-1833.71,-919.31,-3134.65,38.26,7.620035934073858
0,-1837.06,-920.57,-3133.51,38.62,7.625035957652646
0,-1833.49,-916.91,-3130.44,42.71,7.630035981231433
0,-1830.65,-919.07,-3125.7,39.15,7.635036004810221
0,-1832.16,-924.65,-3125.2,47.73,7.640036028389009
0,-1830.26,-931.07,-3131.57,41.57,7.645036051967804
0,-1831.18,-932.41,-3133.72,41.12,7.650036075546591
0,-1828.67,-928.02,-3130.54,42.38,7.655036099125379
0,-1827.24,-921.44,-3127.22,42.5,7.660036122704167
0,-1823.86,-919.35,-3127.44,50.22,7.665036146282954
0,-1821.23,-922.22,-3126.72,51.33,7.670036169861742
0,-1823.93,-912.44,-3119.58,58.11,7.67503619344053
0,-1824.33,-921.84,-3125.01,57.67,7.6800362170193175
0,-1825.58,-914.59,-3127.52,63.83,7.685036240598112
0,-1825.52,-913.98,-3122.94,65.05,7.6900362641769
0,-1829.88,-920.47,-3131.76,61.87,7.695036287755688
0,-1832.71,-912.88,-3128.99,64.87,7.700036311334475
0,-1829.4,-918.12,-3127.82,58.2,7.705036334913263
0,-1830.2,-919.93,-3133.35,51.8,7.710036358492051
0,-1831.95,-924.09,-3132.93,47.6,7.7150363820708385
0,-1827.11,-916.04,-3126.8,47.04,7.720036405649626
0,-1832.19,-917.54,-3129.78,42.08,7.725036429228421
0,-1836.26,-916.2,-3135.35,44.27,7.730036452807209
0,-1835.74,-916.51,-3136.08,40.43,7.7350364763859965
0,-1828.57,-918.98,-3134.67,43.54,7.740036499964784
0,-1838.8,-923.96,-3136.21,43.34,7.745036523543572
0,-1835.4,-916.63,-3130.4,42.75,7.75003654712236
0,-1826.71,-910.94,-3128.83,47.4,7.755036570701147
0,-1822.4,-910.41,-3118.33,52.51,7.760036594279935
0,-1826.21,-910.92,-3123.67,46.53,7.76503661785873
0,-1819.95,-911.48,-3121.19,58.42,7.7700366414375175
0,-1818.53,-907.74,-3116.97,62.47,7.775036665016305
0,-1826.7,-899.53,-3118.36,60.7,7.780036688595093
0,-1820.53,-908.81,-3116.43,61.24,7.785036712173881
0,-1822.15,-915.07,-3116.43,63.03,7.790036735752668
0,-1824.77,-915.75,-3119.48,64.88,7.795036759331456
0,-1827.53,-911.42,-3124.17,57.23,7.800036782910251
0,-1827.43,-902.04,-3123.33,54.58,7.8050368064890385
0,-1837.24,-924.47,-3135.46,42.71,7.810036830067826
0,-1835.22,-920.28,-3135.43,38.02,7.815036853646614
0,-1833.45,-933.37,-3142.57,39.49,7.820036877225402
0,-1831.29,-928.81,-3139.82,37.93,7.825036900804189
0,-1832.76,-928.88,-3134.84,38.25,7.830036924382977
0,-1836.98,-923.57,-3133.4,43.55,7.835036947961765
0,-1829.96,-921.44,-3131.19,46.5,7.84003697154056
0,-1823.7,-913.03,-3123.21,54.02,7.845036995119347
0,-1811.9,-910.6,-3112.67,63.26,7.850037018698135
0,-1813.89,-906.42,-3114.76,61.38,7.855037042276923
0,-1812.74,-901.17,-3108.58,64.71,7.86003706585571
0,-1812.13,-888.81,-3107.92,70.37,7.865037089434498
0,-1816.33,-900.36,-3112.31,69.15,7.870037113013286
0,-1810.82,-906.15,-3113.71,66.75,7.8750371365920735
0,-1817.77,-912.79,-3117.91,57.78,7.880037160170868
0,-1825.47,-914.84,-3125.37,55.47,7.885037183749656
0,-1816.91,-902.85,-3119.33,60.32,7.890037207328444
0,-1818.13,-905.42,-3113.85,54.34,7.895037230907231
0,-1821.47,-912.94,-3123.56,46.7,7.900037254486019
0,-1825.33,-913.88,-3126.8,50.42,7.905037278064807
0,-1823.26,-911.82,-3121.43,50.92,7.9100373016435945
0,-1828.41,-914.62,-3120.86,52.07,7.915037325222382
0,-1829.79,-917.38,-3128.77,49.08,7.920037348801177
0,-1827.13,-922.55,-3133.8,46.3,7.925037372379965
0,-1831.32,-924.07,-3131.44,45.84,7.9300373959587525
0,-1830.0,-915.18,-3125.53,56.08,7.93503741953754
0,-1820.71,-911.77,-3123.67,61.11,7.940037443116328
0,-1827.08,-905.48,-3125.12,61.75,7.945037466695116
0,-1826.62,-910.29,-3125.68,57.41,7.950037490273903
0,-1830.9,-920.63,-3130.67,58.1,7.955037513852698
0,-1830.8,-922.67,-3134.24,54.67,7.960037537431486
0,-1840.02,-922.47,-3133.91,48.57,7.9650375610102735
0,-1844.12,-927.92,-3139.02,42.84,7.970037584589061
0,-1841.23,-921.91,-3138.44,49.25,7.975037608167849
0,-1843.3,-922.22,-3141.05,43.56,7.980037631746637
0,-1835.65,-925.89,-3133.12,41.88,7.985037655325424
0,-1831.76,-923.49,-3134.08,45.72,7.990037678904212
0,-1833.91,-918.8,-3132.01,49.96,7.995037702483007
0,-1832.27,-915.85,-3131.32,46.6,8.000037726061795
0,-1833.26,-913.13,-3123.75,56.65,8.005037749640582
0,-1827.05,-910.84,-3130.36,47.01,8.01003777321937
0,-1830.26,-920.8,-3126.98,42.61,8.015037796798158
0,-1827.11,-916.51,-3122.93,51.55,8.020037820376945
0,-1828.81,-912.57,-3125.25,53.33,8.025037843955733
0,-1830.22,-909.85,-3123.99,53.37,8.03003786753452
0,-1819.89,-895.16,-3117.77,60.06,8.035037891113316
0,-1821.72,-904.24,-3112.15,61.87,8.040037914692103
0,-1817.17,-908.41,-3118.46,64.47,8.045037938270891
0,-1823.35,-905.4,-3116.57,65.71,8.050037961849679
0,-1822.46,-921.14,-3122.1,57.22,8.055037985428466
0,-1823.21,-917.83,-3128.74,49.02,8.060038009007254
0,-1838.28,-926.41,-3130.29,47.17,8.065038032586042
0,-1833.98,-921.58,-3124.4,50.27,8.07003805616483
0,-1835.02,-924.25,-3129.26,52.27,8.075038079743624
0,-1835.83,-922.6,-3130.25,50.57,8.080038103322412
0,-1833.5,-925.45,-3132.35,44.26,8.0850381269012
0,-1835.56,-926.51,-3131.33,40.97,8.090038150479987
0,-1832.7,-915.8,-3133.13,43.67,8.095038174058775
0,-1838.41,-924.6,-3140.19,35.14,8.100038197637563
0,-1833.21,-921.37,-3137.49,41.9,8.10503822121635
0,-1828.96,-915.86,-3124.73,51.37,8.110038244795145
0,-1836.88,-922.04,-3131.99,46.12,8.115038268373933
0,-1830.06,-924.22,-3132.32,38.86,8.12003829195272
0,-1827.59,-926.6,-3133.5,38.74,8.125038315531508
0,-1831.38,-924.36,-3129.85,43.18,8.130038339110296
0,-1828.28,-922.15,-3129.66,43.3,8.135038362689084
0,-1823.03,-914.2,-3127.36,42.54,8.140038386267872
0,-1832.08,-919.5,-3135.7,42.58,8.14503840984666
0,-1830.92,-914.76,-3128.57,47.57,8.150038433425454
0,-1819.92,-916.14,-3127.6,45.37,8.155038457004242
0,-1829.0,-919.52,-3135.05,49.39,8.16003848058303
0,-1829.83,-915.19,-3130.19,53.77,8.165038504161817
0,-1828.67,-910.04,-3126.26,49.01,8.170038527740605
0,-1834.78,-911.39,-3132.72,43.18,8.175038551319393
0,-1832.9,-927.4,-3140.58,38.88,8.18003857489818
0,-1824.95,-920.52,-3134.03,43.36,8.185038598476968
0,-1832.4,-912.21,-3130.68,47.49,8.190038622055763
0,-1833.19,-924.49,-3135.49,49.05,8.19503864563455
0,-1834.18,-925.95,-3137.75,47.22,8.200038669213338
0,-1827.84,-915.84,-3129.71,50.51,8.205038692792126
0,-1827.19,-919.84,-3123.78,55.57,8.210038716370914
0,-1814.59,-913.76,-3123.4,57.09,8.215038739949701
0,-1824.0,-909.12,-3123.52,54.14,8.220038763528489
0,-1828.98,-913.34,-3125.29,52.32,8.225038787107277
0,-1826.65,-912.32,-3125.29,53.13,8.230038810686072
0,-1832.02,-912.57,-3128.2,52.22,8.23503883426486
0,-1836.58,-918.27,-3130.26,51.76,8.240038857843647
0,-1839.1,-924.46,-3135.77,52.04,8.245038881422435
0,-1828.91,-908.32,-3133.43,47.71,8.250038905001222
0,-1835.17,-916.67,-3132.94,44.55,8.25503892858001
0,-1839.05,-931.57,-3140.59,44.04,8.260038952158798
0,-1831.87,-926.66,-3135.99,48.05,8.265038975737586
0,-1826.49,-918.11,-3127.25,49.39,8.27003899931638
0,-1835.19,-924.01,-3134.94,41.95,8.275039022895168
0,-1835.63,-918.34,-3135.13,48.99,8.280039046473956
0,-1838.29,-922.38,-3135.38,45.68,8.285039070052743
0,-1832.26,-926.22,-3136.07,47.51,8.290039093631531
0,-1834.58,-926.84,-3134.61,47.89,8.295039117210319
0,-1826.59,-928.36,-3134.99,49.81,8.300039140789107
0,-1828.73,-926.53,-3134.24,47.1,8.305039164367901
0,-1830.07,-923.01,-3131.58,45.15,8.310039187946689
0,-1833.04,-913.66,-3131.6,53.77,8.315039211525477
0,-1830.68,-920.8,-3131.62,53.78,8.320039235104264
0,-1829.39,-916.05,-3127.35,57.0,8.325039258683052
0,-1828.03,-915.31,-3126.79,61.13,8.33003928226184
0,-1825.65,-911.58,-3122.23,56.26,8.335039305840628
0,-1827.17,-916.83,-3128.57,60.32,8.340039329419415
0,-1824.82,-919.1,-3128.06,57.62,8.34503935299821
0,-1830.06,-909.99,-3124.73,54.52,8.350039376576998
0,-1822.6,-913.61,-3123.73,55.94,8.355039400155786
0,-1828.46,-915.63,-3127.47,53.08,8.360039423734573
0,-1831.88,-923.59,-3132.06,49.91,8.365039447313361
0,-1831.14,-921.25,-3134.38,46.69,8.370039470892149
0,-1829.57,-922.19,-3132.01,52.98,8.375039494470936
0,-1826.14,-919.76,-3132.7,51.5,8.380039518049724
0,-1832.28,-915.09,-3130.22,45.16,8.385039541628519
0,-1831.1,-923.16,-3131.84,50.89,8.390039565207307
0,-1829.81,-920.07,-3131.01,46.22,8.395039588786094
0,-1829.37,-920.42,-3130.66,52.38,8.400039612364882
0,-1829.29,-922.98,-3132.86,51.46,8.40503963594367
0,-1827.05,-919.4,-3127.41,51.31,8.410039659522457
0,-1820.61,-914.52,-3122.06,63.61,8.415039683101245
0,-1824.96,-913.13,-3123.09,64.17,8.420039706680033
0,-1819.56,-912.61,-3123.27,57.08,8.425039730258828
0,-1823.59,-911.54,-3121.24,61.19,8.430039753837615
0,-1826.2,-904.02,-3118.92,58.46,8.435039777416403
0,-1825.33,-910.39,-3124.75,46.5,8.44003980099519
0,-1824.03,-911.54,-3125.38,45.4,8.445039824573978
0,-1825.61,-913.04,-3128.36,46.0,8.450039848152766
0,-1824.99,-922.58,-3127.08,43.75,8.455039871731554
0,-1827.57,-927.14,-3130.66,41.73,8.460039895310349
0,-1829.72,-913.91,-3130.61,44.37,8.465039918889136
0,-1827.54,-920.66,-3131.59,46.88,8.470039942467924
0,-1834.03,-917.07,-3135.08,42.17,8.475039966046712
0,-1836.79,-927.63,-3134.95,45.37,8.4800399896255
0,-1831.32,-915.91,-3131.57,40.02,8.485040013204287
0,-1830.54,-915.06,-3125.08,48.47,8.490040036783075
0,-1828.5,-927.53,-3136.7,49.05,8.495040060361863
0,-1830.64,-928.78,-3131.11,51.26,8.500040083940657
0,-1823.82,-923.42,-3127.24,55.87,8.505040107519445
0,-1834.16,-921.22,-3131.3,52.01,8.510040131098233
0,-1838.87,-917.0,-3133.16,47.7,8.51504015467702
0,-1838.25,-924.31,-3135.12,49.08,8.520040178255808
0,-1824.24,-913.2,-3125.44,51.99,8.525040201834596
0,-1828.41,-917.5,-3131.19,52.93,8.530040225413384
0,-1835.96,-921.8,-3132.85,50.75,8.535040248992171
0,-1832.19,-920.49,-3136.35,47.15,8.540040272570966
0,-1826.88,-917.73,-3132.71,46.98,8.545040296149754
0,-1828.32,-924.64,-3131.37,50.24,8.550040319728542
0,-1821.09,-914.41,-3122.59,47.66,8.55504034330733
0,-1825.08,-907.81,-3118.04,55.95,8.560040366886117
0,-1823.73,-908.5,-3116.7,58.43,8.565040390464905
0,-1823.55,-917.46,-3123.76,55.05,8.570040414043692
0,-1827.2,-923.89,-3127.78,50.1,8.57504043762248
0,-1829.89,-918.21,-3129.81,52.1,8.580040461201275
0,-1829.21,-917.95,-3133.31,52.69,8.585040484780063
0,-1828.76,-917.55,-3127.18,57.36,8.59004050835885
0,-1825.39,-911.89,-3121.37,59.95,8.595040531937638
0,-1824.21,-910.64,-3125.2,59.78,8.600040555516426
0,-1815.35,-904.73,-3119.24,59.87,8.605040579095213
0,-1825.97,-900.67,-3119.39,54.14,8.610040602674001
0,-1829.85,-914.44,-3131.4,47.78,8.615040626252796
0,-1832.26,-929.52,-3140.61,47.84,8.620040649831584
0,-1841.95,-932.06,-3141.55,49.61,8.625040673410371
0,-1839.39,-929.59,-3138.9,40.86,8.630040696989159
0,-1832.28,-923.2,-3135.26,48.02,8.635040720567947
0,-1826.94,-914.75,-3130.35,53.16,8.640040744146734
0,-1820.32,-913.15,-3124.56,49.28,8.645040767725522
0,-1832.37,-911.5,-3127.76,47.86,8.65004079130431
0,-1835.07,-921.21,-3135.3,47.3,8.655040814883105
0,-1842.7,-933.83,-3145.22,35.08,8.660040838461892
0,-1839.93,-929.14,-3136.77,45.22,8.66504086204068
0,-1837.1,-925.86,-3136.09,42.82,8.670040885619468
0,-1829.87,-919.95,-3128.34,47.8,8.675040909198255
0,-1827.32,-904.14,-3121.66,49.81,8.680040932777043
0,-1829.67,-918.87,-3127.54,45.35,8.68504095635583
0,-1835.64,-917.38,-3128.72,46.7,8.690040979934619
0,-1828.19,-919.54,-3130.78,45.27,8.695041003513413
0,-1832.87,-919.38,-3128.69,44.6,8.700041027092201
0,-1826.7,-916.83,-3126.58,51.12,8.705041050670989
0,-1830.82,-923.35,-3136.03,49.55,8.710041074249776
0,-1841.22,-927.57,-3137.48,39.08,8.715041097828564
0,-1832.66,-921.96,-3134.98,41.4,8.720041121407352
0,-1828.99,-918.44,-3132.96,41.66,8.72504114498614
0,-1829.73,-913.7,-3126.72,53.88,8.730041168564927
0,-1828.35,-906.85,-3120.41,60.59,8.735041192143722
0,-1829.67,-907.92,-3128.43,44.57,8.74004121572251
0,-1824.65,-909.92,-3125.05,47.0,8.745041239301298
0,-1827.94,-910.04,-3126.0,51.85,8.750041262880085
0,-1825.28,-910.19,-3123.63,53.43,8.755041286458873
0,-1825.36,-909.51,-3122.74,51.78,8.76004131003766
0,-1819.15,-906.83,-3121.03,53.8,8.765041333616448
0,-1816.27,-905.9,-3117.05,51.81,8.770041357195243
0,-1816.78,-890.89,-3108.38,58.08,8.77504138077403
0,-1810.45,-899.16,-3106.54,61.78,8.780041404352819
0,-1820.39,-906.28,-3116.87,57.91,8.785041427931606
0,-1827.61,-908.63,-3125.33,59.71,8.790041451510394
0,-1820.78,-909.5,-3121.03,61.27,8.795041475089182
0,-1818.24,-909.52,-3115.64,65.38,8.80004149866797
0,-1815.83,-914.14,-3116.1,60.96,8.805041522246757
0,-1822.96,-911.95,-3122.12,57.23,8.810041545825552
0,-1827.23,-915.77,-3119.93,50.91,8.81504156940434
0,-1829.06,-910.21,-3123.03,54.44,8.820041592983127
0,-1824.25,-912.47,-3118.84,61.67,8.825041616561915
0,-1821.34,-912.99,-3116.29,64.72,8.830041640140703
0,-1826.03,-918.97,-3121.05,59.03,8.83504166371949
0,-1819.49,-909.74,-3121.78,59.8,8.840041687298278
0,-1824.22,-909.04,-3122.35,60.36,8.845041710877066
0,-1821.36,-902.98,-3115.56,60.05,8.85004173445586
0,-1826.83,-914.89,-3122.48,57.59,8.855041758034648
0,-1827.61,-915.54,-3129.07,50.73,8.860041781613436
0,-1826.38,-912.28,-3126.56,51.64,8.865041805192224
0,-1828.79,-923.01,-3129.24,50.97,8.870041828771011
0,-1830.39,-919.91,-3127.26,48.64,8.8750418523498
0,-1836.32,-917.19,-3129.48,49.44,8.880041875928587
0,-1831.52,-913.16,-3125.94,51.85,8.885041899507375
0,-1829.37,-914.32,-3134.14,46.31,8.89004192308617
0,-1838.98,-916.11,-3135.57,47.6,8.895041946664957
0,-1828.34,-918.16,-3130.75,51.4,8.900041970243745
0,-1825.02,-918.71,-3123.77,53.68,8.905041993822532
0,-1820.1,-909.02,-3117.96,57.33,8.91004201740132
0,-1819.4,-918.18,-3117.18,65.29,8.915042040980108
0,-1839.43,-927.53,-3140.61,47.05,8.920042064558896
0,-1841.45,-933.53,-3140.64,41.41,8.925042088137683
0,-1838.91,-925.99,-3136.25,38.55,8.930042111716478
0,-1836.31,-930.74,-3136.99,38.66,8.935042135295266
0,-1830.77,-928.85,-3137.05,36.14,8.940042158874054
0,-1824.12,-919.11,-3128.54,47.31,8.945042182452841
0,-1824.24,-912.32,-3123.54,51.07,8.950042206031629
0,-1824.16,-916.98,-3128.14,46.83,8.955042229610417
0,-1824.32,-916.21,-3124.65,47.03,8.960042253189204
0,-1833.06,-921.98,-3128.6,48.59,8.965042276768
0,-1830.26,-918.56,-3125.71,51.89,8.970042300346787
0,-1825.52,-921.52,-3125.96,52.82,8.975042323925575
0,-1821.76,-919.59,-3126.35,46.59,8.980042347504362
0,-1829.28,-923.14,-3131.18,45.94,8.98504237108315
0,-1832.25,-921.72,-3133.0,44.71,8.990042394661938
0,-1835.57,-934.86,-3142.09,40.9,8.995042418240725
0,-1844.36,-937.96,-3146.6,40.14,9.000042441819513
0,-1840.18,-933.64,-3141.37,41.99,9.005042465398308
0,-1829.88,-923.85,-3138.67,46.5,9.010042488977096
0,-1836.5,-926.95,-3136.08,46.45,9.015042512555883
0,-1839.69,-922.76,-3134.25,47.23,9.020042536134671
0,-1831.41,-915.81,-3131.61,45.6,9.025042559713459
0,-1820.24,-908.11,-3118.12,57.74,9.030042583292246
0,-1826.04,-911.1,-3122.62,54.49,9.035042606871034
0,-1814.02,-907.55,-3119.98,54.33,9.040042630449822
0,-1802.46,-891.6,-3110.02,65.8,9.045042654028617
0,-1792.67,-887.26,-3098.69,73.3,9.050042677607404
0,-1785.45,-879.71,-3097.26,70.53,9.055042701186192
0,-1793.96,-873.86,-3096.54,69.63,9.06004272476498
0,-1790.07,-875.97,-3091.19,73.34,9.065042748343767
0,-1789.4,-872.82,-3097.12,74.15,9.070042771922555
0,-1781.39,-869.43,-3091.05,72.87,9.075042795501343
0,-1790.29,-877.7,-3096.99,65.83,9.08004281908013
0,-1801.06,-891.22,-3105.08,65.24,9.085042842658925
0,-1800.72,-888.29,-3101.51,63.89,9.090042866237713
0,-1804.64,-875.58,-3104.47,59.25,9.0950428898165
0,-1807.72,-895.68,-3107.92,59.16,9.100042913395288
0,-1811.58,-910.07,-3116.33,55.46,9.105042936974076
0,-1818.0,-912.96,-3121.73,52.99,9.110042960552864
0,-1827.18,-910.23,-3122.81,52.66,9.115042984131652
0,-1836.42,-915.27,-3130.44,49.59,9.120043007710446
0,-1833.85,-916.59,-3126.36,50.22,9.125043031289234
0,-1826.75,-915.9,-3129.71,49.95,9.130043054868022
0,-1832.86,-913.11,-3125.25,54.57,9.13504307844681
0,-1837.97,-920.09,-3135.61,46.94,9.140043102025597
0,-1843.32,-925.26,-3138.11,49.02,9.145043125604385
0,-1834.88,-922.65,-3129.95,55.49,9.150043149183173
0,-1830.37,-921.67,-3128.77,49.91,9.15504317276196
0,-1841.62,-926.18,-3135.57,49.18,9.160043196340755
0,-1838.76,-932.08,-3142.87,40.14,9.165043219919543
0,-1843.55,-932.89,-3146.49,43.78,9.17004324349833
0,-1856.77,-937.74,-3149.24,41.74,9.175043267077118
0,-1850.67,-941.48,-3147.96,42.02,9.180043290655906
0,-1852.23,-948.38,-3154.58,42.7,9.185043314234694
0,-1854.01,-946.34,-3150.86,40.35,9.190043337813481
0,-1853.68,-939.89,-3149.04,37.89,9.195043361392269
0,-1853.07,-932.47,-3152.54,37.49,9.200043384971064
0,-1849.01,-940.02,-3151.63,40.38,9.205043408549852
0,-1846.91,-936.18,-3141.9,39.72,9.21004343212864
0,-1838.02,-925.71,-3135.98,46.81,9.215043455707427
0,-1843.14,-929.13,-3136.82,41.45,9.220043479286215
0,-1845.02,-931.74,-3140.97,42.5,9.225043502865002
0,-1848.71,-936.91,-3142.1,39.53,9.23004352644379
0,-1836.6,-926.88,-3140.04,42.73,9.235043550022578
0,-1827.2,-919.5,-3129.0,44.9,9.240043573601373
0,-1824.9,-917.94,-3127.03,48.68,9.24504359718016
0,-1827.59,-920.22,-3125.55,53.17,9.250043620758948
0,-1827.91,-917.02,-3127.97,52.47,9.255043644337736
0,-1829.27,-910.76,-3121.91,54.16,9.260043667916523
0,-1830.99,-912.24,-3128.65,47.89,9.265043691495311
0,-1830.12,-919.17,-3137.87,45.83,9.270043715074099
0,-1837.81,-927.49,-3139.34,42.2,9.275043738652894
0,-1844.91,-929.23,-3141.25,42.41,9.280043762231681
0,-1836.52,-922.5,-3138.74,40.6,9.285043785810469
0,-1834.96,-924.7,-3136.67,42.59,9.290043809389257
0,-1830.08,-916.28,-3128.09,47.83,9.295043832968044
0,-1829.4,-912.89,-3127.91,52.15,9.300043856546832
0,-1824.01,-913.52,-3121.73,51.01,9.30504388012562
0,-1823.09,-909.69,-3126.74,55.52,9.310043903704408
0,-1818.4,-902.74,-3121.75,57.68,9.315043927283202
0,-1822.05,-911.82,-3123.87,66.43,9.32004395086199
0,-1824.25,-919.81,-3121.36,60.94,9.325043974440778
0,-1821.38,-916.97,-3125.65,56.74,9.330043998019566
0,-1822.06,-919.19,-3122.98,56.81,9.335044021598353
0,-1832.37,-918.99,-3126.75,52.67,9.340044045177141
0,-1833.14,-921.3,-3128.6,48.63,9.345044068755929
0,-1835.73,-918.36,-3133.24,48.31,9.350044092334716
0,-1839.75,-925.18,-3136.54,37.9,9.355044115913511
0,-1836.37,-919.03,-3129.7,44.9,9.360044139492299
0,-1838.74,-921.0,-3133.9,45.88,9.365044163071087
0,-1840.85,-923.42,-3140.67,43.58,9.370044186649874
0,-1844.49,-925.96,-3138.68,45.89,9.375044210228662
0,-1835.73,-922.48,-3135.18,47.67,9.38004423380745
0,-1832.3,-916.26,-3131.11,51.08,9.385044257386237
0,-1825.33,-902.92,-3128.9,48.39,9.390044280965025
0,-1826.62,-905.96,-3127.51,47.11,9.39504430454382
0,-1828.23,-914.67,-3125.11,48.33,9.400044328122608
0,-1831.96,-925.7,-3130.46,49.51,9.405044351701395
0,-1832.2,-918.4,-3128.04,48.68,9.410044375280183
0,-1828.38,-915.14,-3126.15,49.61,9.41504439885897
0,-1821.05,-906.19,-3120.81,55.4,9.420044422437758
0,-1814.65,-907.74,-3116.07,55.8,9.425044446016546
0,-1827.13,-909.81,-3120.56,56.43,9.430044469595341
0,-1817.67,-906.1,-3116.18,63.0,9.435044493174129
0,-1816.34,-903.31,-3116.71,62.43,9.440044516752916
0,-1818.8,-910.9,-3120.13,56.75,9.445044540331704
0,-1827.66,-919.34,-3123.72,51.35,9.450044563910492
0,-1827.96,-919.59,-3127.34,49.72,9.45504458748928
0,-1832.86,-920.1,-3131.55,47.74,9.460044611068067
0,-1837.32,-925.16,-3135.17,44.48,9.465044634646855
0,-1834.74,-915.79,-3135.24,48.53,9.47004465822565
0,-1832.19,-927.23,-3136.8,47.0,9.475044681804437
0,-1833.48,-928.67,-3133.34,42.07,9.480044705383225
0,-1827.77,-906.11,-3126.97,54.31,9.485044728962013
0,-1830.15,-923.33,-3129.11,56.89,9.4900447525408
