labels,F4,F3,Fz,Cz,timestamps
0,6.493275226277339,7.748574981690242,6.3306946640182415,8.39778059166442,-2.000018952854738
0,-16.716453424944564,-23.500741073642057,-16.668614908878,-10.101378634116807,-1.9950189054725982
0,-31.466187331746156,-22.190056740279015,-24.107927769476657,-16.110538732482198,-1.9900188580904619
0,-21.42592652577388,-20.8893720502473,-16.9172439469258,-4.859699709286139,-1.9850188107083255
0,-13.335671036552055,-23.368687033587655,-10.74656346864813,-2.348861569467003,-1.9800187633261892
0,-16.045420891533375,-22.46800171818767,-22.145886360363107,-4.7280243172453265,-1.9750187159440529
0,-10.43517611651558,-3.4073161298698302,-7.685212646253493,9.212812043518458,-1.9700186685619165
0,-1.6349367359902183,5.893369707107161,5.045457650828561,11.66364750892959,-1.9650186211797802
0,-14.734702773467477,-6.445944230805234,-7.683875491160212,1.4444820745922726,-1.9600185737976403
0,-22.18447425155136,-23.905257966849142,-27.96321209376762,-16.874684264442664,-1.955018526415504
0,-17.66425119155631,-24.264571523423783,-24.192552177507824,-19.193851512990047,-1.9500184790333677
0,-26.654033613024964,-25.73388492118667,-25.651895760973805,-21.29301967475773,-1.9450184316512313
0,-19.31382153345926,-12.833198178582647,-17.871242860412018,-12.302188751755363,-1.940018384269095
0,-18.1236149682403,-21.38251131193737,-24.98059348978555,-11.66135874427556,-1.9350183368869587
0,-25.383413930692143,-15.09182433572079,-25.03994766087222,-14.800529651151368,-1.9300182895048223
0,-6.36321843218715,-9.421137262727648,-8.739305383282936,-1.1697014699937736,-1.9250182421226825
0,-19.653028482336566,-25.360450104218792,-25.798666664626147,-16.02887419738728,-1.9200181947405461
0,-14.332844089225073,-18.1497628698852,-10.828031510735851,-11.578047828981749,-1.9150181473584098
0,-0.38266525955864533,-0.1790755677272059,4.062600074100608,4.282777640532665,-1.9100180999762735
0,-2.372491998978663,1.7916117955866377,-4.016771913401524,1.693602217171518,-1.9050180525941371
0,-11.032324312518316,-6.57770078601325,-4.436147476129362,-5.235574092834887,-1.9000180052120008
0,1.6678377952306862,-4.707013318357811,2.2944733832366184,5.845248716738315,-1.8950179578298645
0,-21.04200567977325,-18.06632580685605,-14.904909337711912,-4.923929347870669,-1.8900179104477246
0,-41.82185474058222,-40.39563825590948,-38.54429564073959,-27.753108280232645,-1.8850178630655883
0,-12.221709388360464,-9.284950668065193,-10.063685526093796,2.587711926812327,-1.880017815683452
0,-11.511569621873786,-0.03426304369947391,-5.4430789919868285,12.098531281384503,-1.8750177683013156
0,-25.77143543785855,-29.773575381573487,-29.112476034925372,-13.160650207998039,-1.8700177209191793
0,-14.341306831362663,-18.472887679138,-23.87187664988197,-14.039832532748175,-1.865017673537043
0,-14.63118379570092,-21.702199932116716,-22.49128082985445,-9.289015683709213,-1.8600176261549066
0,-12.21106632253459,-16.331512134204935,-14.64068856558906,-4.238199650712872,-1.8550175787727667
0,-15.400954402094081,-11.850824277204797,-15.650099845800975,-1.2073844227192478,-1.8500175313906304
0,9.669151976597128,1.8598636485968871,5.570485342370683,9.793430011747395,-1.845017484008494
0,11.399252825158394,8.830551653776304,10.011067012654578,14.264243664042302,-1.8400174366263577
0,-22.23065184483636,-22.378760250848377,-21.618354821065303,-10.134943455067475,-1.8350173892442214
0,-3.770562021806998,-11.79807205413829,-9.867780144725428,-2.884131335303831,-1.830017341862085
0,10.009522306333238,7.782616255876778,8.912791056436511,16.276680033547123,-1.8250172944799488
0,5.359601152004041,9.553304691841008,15.393358797697632,17.46749066146043,-1.8200172470978089
0,4.029674527332044,7.583993266259419,6.403923093967739,12.958300557445389,-1.8150171997156725
0,-4.850257556041878,-0.565318009010949,3.364483959260683,5.259109729146232,-1.8100171523335362
0,-6.510195086657423,-0.06462912265589182,0.9750414068393729,2.3099181830677282,-1.8050171049513999
0,10.219861947088681,6.816059936376412,13.4555954494892,13.690725924960176,-1.8000170575692636
0,2.8199135568642717,3.2967491789220094,0.5861460995069581,9.241532959893712,-1.7950170101871272
0,-13.250040245834885,-14.83256138441719,-13.93330663127551,-8.337660707824195,-1.790016962804991
0,-16.739999449401942,-17.831871742855483,-12.21276273096774,-10.446855074304892,-1.785016915422851
0,-5.05996404143761,-0.1211818847521921,-2.112222186955674,5.50394986455678,-1.7800168680407147
0,-8.879934008448531,-11.300491797402465,-7.331684985748227,-5.655245886703485,-1.7750168206585784
0,31.15009066375838,25.27019853254932,30.808848886596483,31.425557676498368,-1.770016773276442
0,15.480109989072766,-0.6191108816291305,7.639379443617527,5.1463605580876015,-1.7650167258943057
0,29.800123979934973,27.07157997253335,25.90990669757558,27.59716276065166,-1.7600166785121694
0,15.120132646698076,5.292271106292312,6.040430659079372,-3.8420357147894806,-1.755016631130033
0,4.600135997663076,5.07296252961612,3.8709513372466513,-2.1212348684336733,-1.7500165837478932
0,-5.089865960321172,-7.536345748453468,-1.688531259787564,-8.67043470093788,-1.7450165363657568
0,21.520126778867624,22.434346280693138,22.101982875573757,13.480364787172949,-1.7400164889836205
0,24.220114220663874,28.155038625067558,23.60249375017466,19.62116359531873,-1.7350164416014842
0,-9.18990363072337,-4.144268708646213,-5.446998630471728,-10.948038277761022,-1.7300163942193478
0,-10.949926772171251,-10.753575715126036,-11.27649426204019,-19.747240833932015,-1.7250163468372115
0,9.390044799266812,7.5871176104943565,3.6240068595356583,-3.96644407471439,-1.7200162994550752
0,1.0500110867784875,-10.542188726716812,-2.725495261348559,-19.405648000545565,-1.7150162520729353
0,6.729972093465237,0.7585052785712492,7.124999379901679,-8.63485261064527,-1.710016204690799
0,5.869927822027414,8.039199631886897,1.1354907877801301,-0.8340579030922783,-1.7050161573086626
0,3.1398782746760983,2.799894338728997,1.5759789665272748,-0.14326387513176062,-1.7000161099265263
0,-15.500176546745937,-14.729410595630151,-14.323536079766246,-16.47247052354636,-1.69501606254439
0,-6.530236640275511,-11.288715165793516,-10.973054346721735,-16.741677844537683,-1.6900160151622536
0,-14.33030200325084,-10.038019365606958,-20.432575829092276,-26.81088583312578,-1.6850159677801173
0,-5.800372632028378,-6.467323187878688,-12.052100520318637,-13.800094482580693,-1.6800159203979774
0,4.889551477924243,3.243373375452008,2.6783715875351763,0.520696215648343,-1.675015873015841
0,0.1694703316188928,-10.465929667019875,-10.02115949659374,-8.888513728588075,-1.6700158256337048
0,-4.570616065857863,-2.31523230633025,-4.230693763178493,-8.227724304692291,-1.6650157782515684
0,-9.69070770934004,-17.00453453301237,-18.310231202103612,-13.496935501388162,-1.660015730869432
0,4.169195406682834,13.616163663051474,13.860228197490452,15.703852693347411,-1.6550156834872958
0,-6.540906711876759,0.2168622923870317,-1.1093155530353975,0.9946402918966932,-1.6500156361051594
0,-26.951014058671717,-25.2824386344002,-27.968862442156805,-22.954572693437918,-1.6450155887230196
0,-25.43112662634635,-17.331739106219647,-19.448412457735326,-15.263786250037525,-1.6400155413408832
0,2.1787555941785532,9.078960889221156,-1.077965586188767,4.6169996357776055,-1.635015493958747
0,10.448632613490618,7.119661365198242,7.802478187442276,8.177784978636218,-1.6300154465766106
0,9.788504442567843,12.080362334984764,9.612918878552467,11.798569793239011,-1.6250153991944742
0,0.5483710918662599,-9.038936188760882,-3.716643497816384,-1.1006459063123493,-1.620015351812338
0,-3.1917674287773075,-7.188234193786405,-7.016208927022321,-2.1298621065346737,-1.6150153044302016
0,-3.191911109750521,-7.187531667627918,-5.275777394367446,2.330921205795713,-1.6100152570480617
0,1.9579400586680897,3.7831714027395598,4.204651115237628,9.531704043820639,-1.6050152096659254
0,-0.7422139136522508,1.143875030734563,-0.2549233828324229,5.192486420392605,-1.600015162283789
0,15.917626983104432,16.03457922973066,14.565499126732211,13.733268347760529,-1.5950151149016527
0,2.93746275834745,-8.274715987328825,-0.32408134117181,-2.695950162580248,-1.5900150675195164
0,15.167293420747564,10.055989392003276,17.04633522770417,9.644830900187223,-1.58501502013738
0,3.687118978092398,1.6766953798237116,5.786748846817032,6.18561154633865,-1.5800149727552437
0,13.03693943727859,2.5474019879092995,5.527159528746452,4.326391785603437,-1.5750149253731038
0,-0.2832451956350044,8.418109227668152,12.68756728523497,9.367171627103884,-1.5700148779909675
0,4.1265650847332624,12.868817110029678,8.447972127218113,4.767951079337089,-1.5650148306088312
0,6.386370283297125,11.919525645157819,9.608374064734656,5.468730150166968,-1.5600147832266948
0,20.376170404466702,10.440234842171854,13.768773106853065,3.059508846876091,-1.5550147358445585
0,10.605965451759635,12.400944709061376,10.449169261610729,4.620287176271371,-1.5500146884624222
0,41.015755427260586,40.441655252517776,40.49956253575398,23.21106514463223,-1.5450146410802823
0,17.255540331028012,30.342366477283086,16.379952934168728,8.461842757344854,-1.540014593698146
0,24.44532016067066,31.883078385323486,26.800340459360278,8.992620018554918,-1.5350145463160096
0,40.685094911260194,33.64379097545534,35.0307251113211,16.853396931185248,-1.5300144989338733
0,39.75486457507266,47.144504243238494,44.16110688729584,27.514173496903595,-1.525014451551737
0,54.77462914089648,59.1052181805351,57.78148578107069,32.444949715624965,-1.5200144041696007
0,60.794388593223836,68.53593277461539,65.65186178199578,42.575725584744504,-1.5150143567874643
0,37.30414291162286,38.236648007335404,38.76223487418645,15.746501098566366,-1.5100143094053244
0,46.33389207067446,41.227363855139444,34.00260503653374,15.6072762484044,-1.505014262023188
0,62.57363604027371,49.42808028974121,52.702972243412546,38.09805102315004,-1.5000142146410518
0,39.89337478557794,47.228797278508566,42.36333646507148,20.23882540943117,-1.4950141672589154
0,28.773108266955944,33.46951478441373,26.0936976675787,9.969599391454626,-1.4900141198767791
0,2.5128364407986927,2.580232766417811,3.1340558133105563,-14.829627048487113,-1.4850140724946428
0,28.10255926086031,16.28095118064652,14.544410862172507,-3.2488539288104077,-1.4800140251125065
0,25.48227667902046,22.171669981497182,17.82476277259972,5.861918732288916,-1.4750139777303666
0,-3.5780113547030785,-1.5876108780242855,-2.1948884981601586,-8.067309083061614,-1.4700139303482302
0,-14.93830489174486,2.4331085538893342,-7.314542993785841,-11.266537392512038,-1.465013882966094
0,-22.948603983696675,-3.0561717715758867,-11.54420075814978,-8.695766213214693,-1.4600138355839576
0,-32.118908680918196,-21.375451903214806,-28.053861834460665,-20.8249955614102,-1.4550137882018213
0,-31.94921903156996,-17.404731889133682,-17.973526264521475,-12.394225452116325,-1.450013740819685
0,-5.729535081174391,0.6959882238212027,-2.333194088332585,10.626544100928296,-1.4450136934375486
0,-6.23985687298866,-11.98329160996544,-5.432865344394738,-1.7026869152515578,-1.4400136460554087
0,-16.550184448833775,-14.05257143520285,-13.232540070301603,0.8080814864468095,-1.4350135986732724
0,-17.110517849462124,-20.41185129560745,-11.902218302887775,0.9888492929788479,-1.430013551291136
0,9.649142885523284,9.738868766343398,11.438099921861596,18.28961649111138,-1.4250135039089997
0,-1.7112022826387037,6.2995887090577565,6.618414568433968,16.570383067020504,-1.4200134565268634
0,12.36844660742228,-0.10969150898285296,7.818725601059599,10.761149005715316,-1.415013409144727
0,-16.791910483191643,-6.948971929594093,-16.460967016569207,-9.078085709057973,-1.4100133617625907
0,-10.272273593374841,-11.118252594564229,-7.440663320829687,-3.547321094219223,-1.4050133143804509
0,-20.272642761325695,-5.857533545156189,-12.790363347470217,-4.41655716660562,-1.4000132669983145
0,-13.013018023961237,1.9031851780737272,-9.610067131243786,-3.515793942640131,-1.3950132196161782
0,-35.49339941657224,-22.946096464810463,-24.289774705773294,-14.335031438270507,-1.3900131722340419
0,-16.783786972451193,-5.535378513011277,-3.7994861033580793,10.435730331098522,-1.3850131248519055
0,-29.854180722563573,-16.524661004668392,-20.16920135488391,-2.1535086495416498,-1.3800130774697692
0,-26.214580695431987,-21.203943976640293,-27.288920489790357,-4.3427483951324515,-1.3750130300876329
0,-24.684986917074095,-17.703227464283593,-18.6986435357616,-0.28198892059537384,-1.370012982705493
0,-9.685399411060809,-14.962511501221787,-21.218370518385388,2.538769759286361,-1.3650129353233567
0,-42.97581819874446,-43.421796119185906,-38.558101461028095,-28.79047237002674,-1.3600128879412203
0,-11.20624329924797,-23.47108134760042,-20.537836384595806,-7.829715322386123,-1.355012840559084
0,-12.446674729388533,-23.230367213117923,-13.767575307371361,-8.168959110410608,-1.3500127931769477
0,-0.24711250416521965,-6.6596537397790865,-4.907318245453746,1.591796254441919,-1.3450127457948113
0,-4.987556637550706,4.661059050193469,4.862934786385547,9.812550761279757,-1.340012698412675
0,-9.708007142957067,-6.918228864541828,-0.656816226100371,4.523304399132137,-1.3350126510305351
0,6.371535966665606,14.00248249488946,7.643428702837599,7.344057156526505,-1.3300126036483988
0,28.61107267851533,26.923193107036994,29.413669558517878,21.2948090212684,-1.3250125562662625
0,26.08060297896769,20.05390294930092,20.553906325125503,13.635559980123496,-1.3200125088841261
0,-2.0198731473639997,7.234611997267106,3.204138985068344,-2.1036899814468693,-1.3150124615019898
0,-6.440355717467466,4.605320224843435,3.4543675191420617,4.057059120984357,-1.3100124141198535
0,-4.7408447488799625,-1.6039723950810174,-9.13540809268336,-5.562192728605066,-1.3050123667377171
0,-7.401340258852636,-11.313265889975543,-10.535187870480108,-1.821445546271828,-1.3000123193555773
0,-4.201842264088766,-5.462560287098681,-6.4949718337949225,6.16930065205228,-1.295012271973441
0,-15.042350780671455,-11.711855613080171,-13.014760001349993,2.030045850449298,-1.2900122245913046
0,-20.172865823833934,-21.031151893651373,-18.06455239089171,-4.419209967167542,-1.2850121772091683
0,-24.74338740746922,-21.850449153269572,-24.884349018877842,-6.69846681695058,-1.280012129827032
0,-3.9139155437156954,-4.5897474147441475,2.6158500998415484,11.962275285113273,-1.2750120824448956
0,-30.37445024294488,-33.269046699189474,-31.143955048030854,-17.686983676807944,-1.2700120350627593
0,2.5950084860639273,-11.518347026011531,-10.613764474348118,6.133756281602295,-1.2650119876806194
0,-8.125539364126857,-6.167648412838061,-11.133578189411809,4.864495144875114,-1.260011940298483
0,-11.30609380001881,-23.146950875747095,-11.323396202053353,-5.364767102409409,-1.2550118929163467
0,1.2833451725716685,1.1237455704488801,-1.4432185199644438,10.555969524175815,-1.2500118455342104
0,10.522777548328627,-3.865559088000761,0.5169548499439103,4.926705008811178,-1.245011798152074
0,-3.147796678023552,-0.5648648641888667,-5.892876098818831,2.4874393352567044,-1.2400117507699377
0,-7.288377511986246,-6.044171770903193,1.0572886274776527,3.338172486787754,-1.2350117033878014
0,20.751035040841877,5.166520179292338,10.257449022688746,10.14890444626182,-1.2300116560056615
0,-15.089559025273076,-13.90278902594915,-16.152394919381127,-8.03036480387581,-1.2250116086235252
0,-15.820159716162598,-14.362099398586912,-13.042243204819256,-11.769635281378257,-1.2200115612413889
0,-13.370767037100846,-23.411410949668657,-14.492095838972608,-13.178907003606916,-1.2150115138592525
0,-15.111380992125534,-16.860723688738254,-14.87195282593821,-18.778179986923654,-1.2100114664771162
0,-4.84200158391152,-0.21003762363746498,-2.4518141684907935,-3.847454246392891,-1.2050114190949799
0,-11.582628813971468,-9.569352760871677,-19.82167986824766,-17.33672979580153,-1.2000113717128436
0,-7.323262682864208,-4.3386691061256455,-5.5015499257717755,-2.1460066478230466,-1.1950113243307037
0,-10.083903190277084,-12.547986664444997,-2.5814243406004405,-0.31528481423469146,-1.1900112769485673
0,-18.46455033495996,-8.437305440125911,-12.011303111438218,-5.004564306252955,-1.185011229566431
0,-14.005204114510102,-0.976625436630088,-9.891186236286162,-10.983845134734747,-1.1800111821842947
0,6.2241354747426385,6.384053343205212,0.27892628762775606,1.7168726899226157,-1.1750111348021584
0,7.923468437291278,9.864730896644913,11.54903446366855,10.677589157740133,-1.170011087420022
0,-3.707205222315502,-5.074592779413494,1.5991382952138955,-9.29169574122971,-1.1650110400378857
0,-18.397885499681884,-23.033917688318226,-12.650762214689031,-18.64098201695862,-1.1600109926557458
0,-20.66857238993511,-14.193243832864418,-16.120667062928284,-21.900269678762733,-1.1550109452736095
0,-4.529265886956435,7.337428785359224,-3.1205762456270905,-8.6495587345299,-1.1500108978914731
0,5.060034016678546,8.468100165643634,-1.9104897579345859,-5.3988491905942295,-1.1450108505093368
0,2.459327329036345,1.938770307279597,0.3095924056294608,-4.488141052167477,-1.1400108031272005
0,3.2286140581547054,-2.620560790874549,3.2196702507611024,-1.9074343238003457,-1.1350107557450642
0,10.177894211746223,13.550106869698586,11.829743783060874,7.513270990306099,-1.1300107083629278
0,-2.882832202916614,-11.119226712748688,-6.0701869922359,-10.756025113955538,-1.125010660980788
0,-6.493565178915511,-0.34856154013395907,9.039877929686973,5.434677359335704,-1.1200106135986516
0,21.46569529053186,17.712102385617875,14.299938553252105,19.335378406072454,-1.1150105662165153
0,-3.9150507880452876,-6.117234937611492,-10.430005117656991,-9.353921978248627,-1.110010518834379
0,-17.74580340852321,-14.236573512274994,-13.269953079527129,-13.893223798592421,-1.1050104714522426
0,-20.946562564557286,-18.965913340569518,-17.8299053284363,-16.882527059644257,-1.1000104240701063
0,0.8826717513134505,9.144745576275783,7.690138140577027,13.618168234855647,-1.09501037668797
0,0.0018995477497498747,12.015403237812079,7.91017733327697,10.158862081786477,-1.09001032930583
0,-6.878879165959408,-8.753940356433809,-1.419787744523111,-1.3904455222145067,-1.0850102819236938
0,-12.449664380176332,2.5967147927159497,-6.279757087303522,-0.1697545810734564,-1.0800102345415574
0,-25.26045608455966,-15.71263131555693,-21.759730689447697,-16.969065098889672,-1.075010187159421
0,4.878745732438489,10.908021318291144,7.150291455363834,7.351622920584105,-1.0700101397772848
0,12.107941083441883,14.46867269401348,11.470309354161946,13.792309473965595,-1.0650100923951484
0,3.267129981272431,0.37932281097719917,6.5803230139663205,-0.07700544231863427,-1.060010045013012
0,-20.923687561607167,-14.09002833207228,-19.879667558703893,-25.076321832265894,-1.0550099976308722
0,-2.314511532656022,4.070619263496071,-3.5296623573874157,-0.9656396996351094,-1.050009950248736
0,-0.3353419186616723,4.401265596604764,-1.4996613750313719,-4.074959047302632,-1.0450099028665996
0,24.40382129402037,-1.058089333732645,-3.969664603948874,0.15572012259949405,-1.0400098554844632
0,-33.247021881159995,-22.157445528515538,-25.1196720359422,-23.383602191597554,-1.035009808102327
0,7.442128569140921,4.503197011675158,6.150316337963526,3.927074009083409,-1.0300097607201906
0,-21.488727341159965,-22.27616171290683,-22.499699472246178,-22.95225127546196,-1.0250097133380542
0,-16.079589597135904,-10.58552170101953,-19.63971945550624,-21.7815780442214,-1.0200096659559144
0,-9.490458182604895,-7.904882950276021,-5.459743599416189,-11.590906294696127,-1.015009618573778
0,6.278666919873705,9.245754542748394,9.610228109727961,8.69976397717232,-1.0100095711916417
0,-4.952214271513419,-0.053609218064236824,-7.279804313746326,-7.089567223632277,-1.0050095238095054
0,-9.563101738300926,4.707025771060296,4.5401591445407625,0.8211001081378817,-1.000009476427369
0,-1.6239954616954728,1.3676595135980927,0.4501184989209457,-0.6182340221669298,-0.9950094290452327
0,13.245104577487632,8.708292012711366,12.61007376359005,13.042430390827736,-0.9900093816630964
0,6.454198398393523,10.938923271120403,11.860024952282735,10.953093352158902,-0.9850093342809565
0,-16.18671398027778,-14.730446709011986,-9.630027921995966,-10.316245133807577,-0.9800092868988202
0,-4.327632539954475,7.900182074167882,1.33991515324223,2.394414936816894,-0.9750092395166838
0,5.761442738359948,-5.119190377428871,2.2898541904254577,-1.3649264320977037,-0.9700091921345475
0,-6.7294881259245685,-4.308564061736634,-4.410210797933847,-1.5442692365417376,-0.9650091447524112
0,5.179574886727832,-1.2379389764929347,6.299720200688011,3.3563865275644975,-0.9600090973702748
0,-4.461368204114883,-8.037315119122583,-4.380352801214202,-3.7529591356808427,-0.9550090499881385
0,-7.472317378790201,-7.986692486624567,-15.880429791080445,-6.002306222130393,-0.9500090026059986
0,2.946727382605639,2.193928924533279,4.749489244041818,9.68834527251638,-0.9450089552238623
0,-10.894233899678547,1.2145491183171542,-2.980595682344319,-0.05100464738585775,-0.940008907841726
0,7.034798794929454,-4.414831901145897,5.2493154435450515,-6.150355977628591,-0.9350088604595896
0,10.72382548713759,8.335785870278475,4.569222635427059,2.400291285934667,-0.9300088130774533
0,14.782846197292937,2.7564024366233255,14.169125906674733,2.580937147542647,-0.925008765695317
0,-0.05813905511390938,-9.132982198294044,-1.8009747299507586,-5.0384183885351685,-0.9200087183131807
0,2.4308697485501796,-7.652368030664645,-0.9410792622992206,-1.1877753180156905,-0.9150086709310408
0,20.699872626310036,13.62824494364043,16.818812321393363,22.382866363384633,-0.9100086235489044
0,-17.79113040438245,-23.831143270952467,-19.571299967407384,-15.36649334035229,-0.9050085761667681
0,11.707860673471295,4.159467330282858,6.278583882621363,7.764145574324549,-0.9000085287846318
0,-2.733154123267771,-3.6499232474216057,-0.031536117038543754,0.03478311080023688,-0.8950084814024954
0,7.215825222164064,9.660685001542186,11.618340045169097,7.095419272369853,-0.8900084340203591
0,9.004798726222365,12.321292082648323,13.748212380401442,10.756054061993964,-0.8850083866382228
0,19.73376640475548,27.081898000617088,26.95808089885546,20.36668748193903,-0.8800083392560829
0,22.032728272508656,16.302502758746986,19.857945609164858,10.427319533346964,-0.8750082918739466
0,48.60168434241108,56.67310635824621,52.1678065177723,38.967950215819215,-0.8700082444918102
0,23.540634624724248,31.9837087974179,24.767663628233993,1.9985795270536384,-0.8650081971096739
0,25.07957912655206,28.424310070981285,24.12751694080256,5.519207462864573,-0.8600081497275376
0,49.848517851907104,49.014910170017714,48.79736645254917,23.909834017700796,-0.8550081023454013
0,50.517450801494036,48.70550908195545,41.38721215730423,26.63045918477929,-0.8500080549632649
0,55.73637797187422,59.106106790000226,46.3270540450858,31.461082955457172,-0.845008007581125
0,50.775299354730045,56.69670327242675,54.51689210160567,29.821705318554706,-0.8400079601989887
0,56.92421493659016,68.91729850206625,60.99672630787932,43.91232625995571,-0.8350079128168524
0,37.72312469884946,46.167892445983625,39.24655663982634,27.42294576229026,-0.830007865434716
0,43.50202861806299,48.89848506556373,36.89638306834787,24.883563804846137,-0.8250078180525797
0,49.02092666635584,49.809076316987266,39.94620555995252,21.83418036392125,-0.8200077706704434
0,31.9198188116089,35.68966615167517,35.786024077283685,18.224795413325772,-0.8150077232883071
0,44.108705017579226,39.190254516648864,31.235838579326003,17.125408924750747,-0.8100076759061672
0,32.16758524412831,35.24084135494664,26.42564902163841,15.346020868029347,-0.8050076285240308
0,-6.763540552311175,16.281426606045482,6.485455356840741,0.44663121141513895,-0.8000075811418945
0,11.635327582343727,12.472010206490953,17.375257535345597,11.617239921991128,-0.7950075337597582
0,-2.3058103988984597,5.682592090799103,-5.224944493896539,2.1078469660508086,-0.7900074863776219
0,8.523045456519693,9.0131721922257,9.994849217177988,-0.10154769069180314,-0.7850074389954855
0,11.611895100718408,6.863750443154848,12.184638616043333,4.899055917087467,-0.7800073916133492
0,-6.599261514749985,-16.245673224640843,-12.34557635039176,-18.200342245414507,-0.7750073442312093
0,-12.400424438714973,-17.72509887939035,-15.935795735477296,-20.119742212624217,-0.770007296849073
0,-17.00159371969417,-10.004526588458488,-13.616019591998576,-12.009144017858212,-0.7650072494669367
0,-32.982769405047065,-29.29395641778699,-26.62624797143987,-25.408547692839093,-0.7600072020848003
0,-27.813951540197422,-17.923388431598735,-14.216480923588637,-9.507953267571569,-0.755007154702664
0,13.13485983172218,11.317177307672104,16.403281503414934,21.232639229383494,-0.7500071073205277
0,-11.216335330749446,-15.072259261163019,-4.606960737690427,-2.3767702299975673,-0.7450070599383913
0,-22.797537068262905,-26.861698198561022,-26.12720769398544,-16.396181673969977,-0.7400070125562515
0,-25.338745420500278,-34.14113956373268,-29.747459411878108,-22.495595130625205,-0.7350069651741151
0,-30.609960425314082,-26.43058341361666,-26.29771593592523,-25.965010626821684,-0.7300069177919788
0,-41.68118211800975,-31.100029802326077,-39.977977308048985,-35.51442818733286,-0.7250068704098425
0,-37.052410530775866,-33.38947878105309,-40.348243567107744,-31.84384783427829,-0.7200068230277061
0,-5.573645692445015,-15.038930398096984,-14.388514748608603,-8.153269586885026,-0.7150067756455698
0,-11.304887629089192,-23.248384699111984,-14.258790885013102,-13.36269346191505,-0.7100067282634335
0,-21.566136365014188,-23.49784172749092,-16.82907200658207,-9.012119474459661,-0.7050066808812936
0,-38.207391922994404,-36.05730152441642,-31.489358141858062,-23.271547638369285,-0.7000066334991573
0,-21.748654323642455,-15.516764128582256,-20.03964931744485,-8.120977966173099,-0.6950065861170209
0,-25.709923584898146,-17.64622957616601,-14.389945557723497,-12.920410468973282,-0.6900065387348846
0,-28.94119972203973,-34.36569790111864,-28.34024688495147,-22.199845156504324,-0.6850064913527483
0,-20.67248274781513,-22.485169135175145,-13.600553319407195,-14.45928203706042,-0.6800064439706119
0,-25.73377267249696,-33.524643307539506,-27.070864879366397,-25.10872111725556,-0.6750063965884756
0,-7.295069504068509,-12.184120444759037,-1.0011815811635647,-0.8981624019398289,-0.6700063492063357
0,-1.9463732487050047,-14.793600571013462,-9.781503439557625,-1.3276058945284093,-0.6650063018241994
0,-27.80768391134616,-27.07308370855875,-23.851830468145245,-17.137051597567808,-0.6600062544420631
0,-10.339001495785984,-7.002569877907828,-9.532162679337707,2.7835004870192828,-0.6550062070599267
0,-3.51032600443686,-18.882059097864516,-14.54250008410962,-1.3359496420862753,-0.6500061596777904
0,-14.20165743847454,-9.151551385712025,-10.932842692027036,1.2845980141458742,-0.6450061122956541
0,-11.52299579810755,-4.721046757457037,-0.4931905114779325,2.2651434547853397,-0.6400060649135177
0,-14.45434108250938,-13.420545228073053,-9.57354354996837,-7.794313321136685,-0.6350060175313779
0,-24.775693289562632,-24.41004681154719,-21.883901814264657,-21.53377231437436,-0.6300059701492415
0,3.5829475843270524,-4.979551520581213,-0.7642653101689256,0.07676647506421602,-0.6250059227671052
0,-9.488418455948153,-12.279059366434133,-6.6046340423868655,-7.122696951825389,-0.6200058753849689
0,-19.159791404588756,-14.338570359119812,-22.49500801470905,-21.412162593174227,-0.6150058280028325
0,-6.581171254877482,-9.098084507529496,-9.245387229927456,-6.26163044616478,-0.6100057806206962
0,0.057442000971282825,3.042398180501395,3.9542283103532068,10.108899493066092,-0.6050057332385563
0,-15.103951628401024,-8.787122302126226,-9.216161394585994,-5.690572771035222,-0.60000568585642
0,0.9746478662836564,-1.7366459620894552,-0.6065563450175874,5.569952765994964,-0.5950056384742837
0,-16.08675950503268,-9.53617280566303,-0.7169565408992199,5.6804761084496755,-0.5900055910921473
0,-19.86817373156237,-16.08570283853226,-11.997361981874763,-4.829002739612269,-0.585005543710011
0,-1.3895948013701147,4.744763934424372,-2.7977726671822105,-1.8484837743125486,-0.5800054963278747
0,-20.121022701253555,2.2752275090296568,-8.80818859547847,-5.44796699168988,-0.5750054489457384
0,-6.862457416844395,-2.9643121186551817,0.1013902351923458,-2.8874523874835036,-0.5700054015635985
0,1.6261010672713745,1.4861450473939242,1.2009638272395213,10.063060042851244,-0.5650053541814621
0,-11.995347232709081,-0.6234009968070949,-4.549467816701895,-0.35642969613508757,-0.5600053067993258
0,-8.986802300012064,-8.722950255170382,-7.199904693834791,-3.455921600126265,-0.5550052594171895
0,-3.668264117181673,-1.1925027313838938,-1.8603468010386062,2.024584335051411,-0.5500052120350531
0,-28.16973266589083,-21.15205842865251,-21.15079413465319,-17.934911886295158,-0.5450051646529168
0,-22.461207926564555,-22.77161734926803,-21.041246690103655,-16.114410259311263,-0.5400051172707805
0,-8.132689877857423,-15.471179494018362,-11.381704461371555,-15.573910778028392,-0.5350050698886406
0,-13.074178496617812,-11.610744861890314,-12.002167440793706,-10.613413435021391,-0.5300050225065043
0,-29.55567375817998,-21.920313450205207,-21.42263561922653,-27.802918221366248,-0.525004975124368
0,-20.927175636219946,-11.619885254741023,-9.043108986105878,-5.602425126563245,-0.5200049277422316
0,-2.5686841024392137,-9.639460269756007,-5.913587529468373,1.2780658613849485,-0.5150048803600953
0,-14.150199126827344,-13.899038488160377,-17.564071236174186,-6.551445244569198,-0.510004832977959
0,0.0782793217527269,-1.7386199017465396,-7.904560092040531,6.7090415689051754,-0.5050047855958226
0,-9.413248724798704,-10.188204501389514,-9.815054081792203,-0.20047368478223726,-0.5000047382136827
0,-9.85478323393513,-20.567792277130476,-15.305553189068723,-9.799990992249647,-0.4950046908315464
0,5.3236758275258005,-20.567383217884846,-11.356057396410838,-6.83951033995112,-0.4900046434494101
0,-32.79787150657488,-24.416977310908926,-23.0865666850947,-21.7590317137199,-0.48500459606727375
0,-21.69942520136299,-6.266574541512031,-18.797081034873457,-8.18855509832002,-0.4800045486851374
0,-18.16098522019594,-15.626174893237652,-15.747600423732905,-15.378080477201037,-0.4750045013030011
0,-15.642551524335635,-10.915778348233305,-3.9481248279341177,-5.647607832532875,-0.47000445392086476
0,0.3558759267271001,-7.305384887464771,-11.078654222400198,-7.8671371454070735,-0.4650044065387249
0,17.44429717453176,5.385005509065231,5.310811418824427,5.133331603876739,-0.46000435915658855
0,10.502712260607268,2.3453928618363364,2.070272122151529,4.273798435385573,-0.4550043117744522
0,-15.318878774229297,-17.604222808574512,-14.000272085873958,-16.81573663077659,-0.4500042643923159
0,-10.58047588953501,-10.813841481267632,-14.170821178416919,-8.045273574279996,-0.44500421701017956
0,26.527920955426563,6.63653686543231,14.608624872042693,20.185187625756434,-0.44000416962804323
0,7.826311801394825,-0.023087746151106092,3.3280660934950665,3.325646990379762,-0.4350041222459069
0,-18.065303311590206,-17.05271529346181,-19.33249748613653,-10.81389545981779,-0.430004074863767
0,-2.236924343902551,-8.392345753572592,-1.573065838839543,6.136560295418913,-0.4250040274816307
0,13.981448744360936,9.828020897171841,6.416361063934627,20.027014276264442,-0.42000398009949436
0,-18.47018400664987,-18.261615316980095,-16.44421674881442,-8.252533497525995,-0.415003932717358
0,-22.27182255654702,-28.81125437120988,-20.69479924763847,-15.292083006717464,-0.4100038853352217
0,13.04653313586912,5.609103760446477,15.904613597771519,23.39836576793155,-0.40500383795308537
0,21.414883112527342,8.559459105202466,8.514021818402899,20.168812845606638,-0.40000379057094904
0,6.383227414975087,-6.620188309289475,2.7534254450422875,5.829258244535623,-0.39500374318880915
0,8.761566083586287,0.7201615445068379,7.462824507791144,12.619701981513353,-0.3900036958066728
0,-4.010100842287654,1.8705086940970954,-2.4077809638206595,-3.1298559277993294,-0.3850036484245365
0,-4.701773323776227,7.360853166979906,2.4816090593882025,-1.8394154683805357,-0.38000360104240016
0,8.156548677951927,6.521194990389423,6.090994606392088,0.9910233746023656,-0.37500355366026383
0,6.004865201707586,6.471534191042662,-1.4496242940530162,3.5514606160020694,-0.3700035062781275
0,7.103176285953669,13.941870794984897,7.909752386529188,10.341896270550416,-0.3650034588959912
0,23.121481968450396,22.562204827345326,25.539124676155584,20.72233035245804,-0.3600034115138513
0,5.179782285907429,-9.947463687942998,1.7384926019202722,-2.6972371250230758,-0.35500336413171496
0,19.03807727373802,2.022865272080342,10.967856189690542,1.2931938503868599,-0.35000331674957863
0,17.566366965990046,11.493191729985258,17.72721546422645,9.613623290408034,-0.3450032693674423
0,14.44465139523324,20.243515707969486,18.02657044914721,13.804051206335565,-0.34000322198530597
0,1.372930592539706,3.5638372273076353,1.0259211667021013,-0.6755223912345536,-0.33500317460316964
0,-7.00879541207967,5.684156308121342,-6.164732362004033,-2.305097492421507,-0.3300031272210333
0,-19.660526588833235,-4.915527030269388,-14.875390116211259,-14.86467408756834,-0.3250030798388934
0,-13.762262907231507,2.654787231140973,-9.856052074645035,-0.844252166633796,-0.3200030324567571
0,3.795995664406636,11.105099111245739,10.003281784834229,11.156168280978795,-0.31500298507462077
0,-6.1157508412678805,-3.5645913713227775,-2.6473885151009107,-3.0234127339801096,-0.31000293769248444
0,7.472497608815123,5.455715801680885,1.4419370482421292,5.917004798981097,-0.3050028903103481
0,-10.539258952177166,-5.733979351752008,-6.4887415025253325,-8.372579109895302,-0.3000028429282118
0,-9.181020490912061,-6.723676813629529,-0.6894241446792875,1.0278355496205724,-0.29500279554607545
0,-1.1527869735859704,4.886623434272099,8.519889144686264,10.518248787848997,-0.29000274816393556
0,-17.764558365712823,-24.01307858944379,-18.930801611438913,-14.631339384926152,-0.28500270078179923
0,-17.28633463193856,-31.282782865378632,-27.601496389692326,-23.48092895827977,-0.2800026533996629
0,-9.768115735696242,-18.28248937246157,-16.182195165452107,-14.900519920852773,-0.2750026060175266
0,-3.8499016390862972,-4.412198087452028,-3.392897912263881,-3.760112259749372,-0.27000255863539024
0,20.528307696645726,20.988091014446262,19.606395397668365,18.200294039110947,-0.2650025112532539
0,20.196512310115452,14.71837795822554,20.445684792224274,17.950698989900314,-0.2600024638711176
0,38.824712238612754,30.028662767788852,29.914970298069136,32.2711026056749,-0.2550024164889777
0,-5.587092482697575,3.038945465267976,-4.165748060038737,-6.028495102335794,-0.25000236910684137
0,-11.718901820478548,-5.210773928831302,-6.256470258912377,-12.838094124402097,-0.24500232172470504
0,-0.17071574197090755,8.259504605141728,10.832803724022195,1.0023055488356536,-0.2400022743425687
0,2.9874657858979994,4.639781086542376,1.5320739112121418,-2.4672960728524673,-0.23500222696043238
0,-6.90435720350364,-3.639944465558726,1.2113403248435368,-4.036898979298716,-0.23000217957829605
0,-4.976184676643859,-12.159672032267082,-11.689397013138612,-6.426503160054105,-0.22500213219615972
0,-5.008016599657399,3.7105984055550865,-4.050138080627365,7.953891395639497,-0.22000208481401984
0,7.810147061726374,6.540866867420054,0.009117144971083402,14.094284698609309,-0.2150020374318835
0,12.298306341859753,0.2611333728617349,0.2683686866744719,8.294676759178783,-0.21000199004974718
0,4.006461274637525,-5.388602058814561,-9.912383432277121,-0.7149324131951145,-0.20500194266761085
0,-23.435388106609032,-27.328339408197465,-25.95313918822916,-24.444542809584437,-0.20000189528547452
0,-13.927241768386699,-4.878078655029883,-14.143898556453681,-9.094154420671826,-0.1950018479033382
0,9.140900323765225,-3.017819777789123,-5.124661510659024,-2.3737672360441477,-0.19000180052120186
0,-17.020961794756936,-10.537562753939044,-14.845428023129319,-15.713381244203303,-0.18500175313906198
0,-23.18282808785302,-17.877307560182103,-15.456198065003168,-24.65299643266095,-0.18000170575692565
0,-31.134698518184315,-23.017054172157547,-21.42697160616034,-34.47261278743185,-0.17500165837478932
0,-8.946573046395407,-11.806802563943853,0.2922513849984705,-11.492230292323251,-0.17000161099265299
0,-0.9584516311002926,-4.506552707964568,-0.5085290586833964,0.838151071086662,-0.16500156361051665
0,-6.880334229621309,-3.736304575410049,-5.149312903712945,0.2685313226087369,-0.16000151622838032
0,-6.612220798631793,-7.246058136743041,-3.6001001163081785,2.7189104824880603,-0.155001468846244
0,10.46588870562234,5.054186638037345,5.009109337568612,15.33928857085131,-0.1500014214641041
0,-4.646005672916461,-7.775570220760784,-2.941684507888241,9.129665607284055,-0.14500137408196778
0,0.9420961096212821,-8.515328682573351,-8.552481618425606,5.770041610486928,-0.14000132669983145
0,-10.299805902899074,-12.755088716346117,-14.173281959487396,-7.389583401659291,-0.13500127931769512
0,5.848288333617654,-0.01485029024447626,-6.724085495779277,1.9407905883685825,-0.1300012319355588
0,1.8663788634942513,10.245386628224441,4.415107808875283,6.171163598082396,-0.12500118455342246
0,-10.18553426889811,7.775622071620155,6.084297991150676,7.18153564487414,-0.12000113717128613
0,15.352548980818337,8.185856071966379,5.253485087628801,9.40190674567544,-0.11500108978914625
0,24.690628656787922,24.236088660406388,22.542669134339857,22.83227691662603,-0.11000104240700992
0,-12.521295197694004,-10.143680132995224,-6.348149833565572,-5.577353827212593,-0.10500099502487359
0,-14.413222540153043,-18.503450278946456,-20.548971781644276,-17.236985471644367,-0.10000094764273726
0,-1.1951533279941884,-5.24322174794265,-5.629796675267737,-1.1866180024567115,-0.09500090026060093
0,-17.977087517802893,-18.632994509462037,-19.100624478786255,-10.426251404717341,-0.0900008528784646
0,-5.629025065220896,-8.252768531775196,-14.151455155254023,2.5641143372409854,-0.08500080549632827
0,2.4390340750050035,0.4074562179664327,1.8377113335678046,16.16447923943951,-0.08000075811418839
0,13.597089948636944,7.577679773343252,13.97687502680543,24.544843317523945,-0.07500071073205206
0,10.0951426012017,-2.4220978319356243,2.9860359636195435,9.645206585893453,-0.07000066334991573
0,-0.026807922541389306,-11.571876564267216,-11.774805817299276,-5.064430942561749,-0.0650006159677794
0,17.821238421344866,12.97834361005521,15.434349722472383,6.075930744085672,-0.060000568585643066
0,8.819281675981646,10.05856272479691,10.263502621190856,4.196291657390714,-0.055000521203506736
0,-14.092678116350607,-18.40121918658754,-4.33734708340545,-6.783348191310274,-0.050000473821370406
0,-2.344640913769233,-0.0010020908082921665,4.361800645821602,9.257011209158001,-0.04500042643923052
0,-11.59660667407257,-15.420785954133379,-5.689054154246929,-0.22263013014509686,-0.04000037905709419
0,-7.638575354355889,-7.4405707420234535,-5.8699114466721385,10.547727801582639,-0.03500033167495786
0,-22.16054691082614,-20.630356418956513,-27.30077119407791,-18.601914985175952,-0.030000284292821533
0,10.717478701359868,2.409857051724405,-1.9016333580847442,4.508441520051354,-0.025000236910685203
0,29.345501527671576,10.150069707584233,8.90750210085287,13.74879732796666,-0.020000189528548873
0,-11.186478386873219,-27.499718413432177,-21.98336477703161,-19.900847550717153,-0.015000142146412543
0,7.681539001770453,1.6304927269759668,6.125766048879189,12.409506894623144,-0.01000009476427266
0,14.51955373700151,3.4007031677919137,13.184894619572262,19.36986067455565,-0.00500004738213633
0,3.2375658616578917,-1.8590870515243145,-2.835979024012597,2.820213799106864,0.0
0,-4.78442458212095,-0.0688778914636734,-4.216854841337634,-7.5894337226080015,0.00500004738213633
0,1.6235824473925335,12.161330687385664,9.542267207924365,2.2009181180477464,0.01000009476427266
0,7.631586991847236,27.23153872400087,21.06138716388299,7.381269329703068,0.01500014214640899
0,1.6795890927330785,9.151746256208709,8.080505065857817,-4.338380079079662,0.02000018952854532
0,-7.8424112087416376,-8.878046679622745,-14.300379047918199,-19.618030099789717,0.025000236910685203
0,-17.974413871325574,-18.88784004786648,-18.201265139618613,-22.887680723333855,0.030000284292821533
0,-7.906418853083027,-2.7376338124825184,-6.262153170738903,-6.817331939242993,0.03500033167495786
0,-13.55842611096501,-5.877427936478567,-9.623043101599025,-8.016983735492524,0.04000037905709419
0,-7.570435600772259,-0.8572223820996402,-7.133934891482064,-10.736636098871713,0.04500042643923052
0,-32.672447277124974,-14.157017111087308,-23.06482849874289,-23.18628901516949,0.05000047382136685
0,-12.594461093116225,1.4231879153437306,-7.865723880592681,-10.165942468917958,0.05500052120350318
0,-6.666477000031702,3.353392736498008,-4.4866209929493595,-5.215596443214109,0.060000568585643066
0,8.471505052256129,9.36359739183877,1.5524802092608385,0.5047490799716101,0.0650006159677794
0,23.779485114272404,23.253801920389265,23.731579771426052,21.82509411910185,0.07000066334991573
0,8.06746323584331,6.714006360132803,7.590677738410823,6.955438692235682,0.07500071073205206
0,11.075439465497606,3.7042107477691744,2.259774154002744,1.9957828164743185,0.08000075811418839
0,20.173413850445623,22.574415118901694,18.69886906095679,19.55612650796145,0.08500080549632472
0,15.311386436567776,7.994619508094765,5.7079625011253645,5.436469781956134,0.09000085287846105
0,16.19935726821654,17.45482394865635,19.837054515317575,21.656812652648956,0.09500090026060093
0,1.4173263882244065,2.9050284725873325,1.526145143171595,1.757155133004725,0.10000094764273726
0,-21.984706161565494,-13.424766889070172,-7.424765576643603,-8.522502765045164,0.10500099502487359
0,-12.576740339236476,-7.924562105478645,-8.165677605801168,-4.732161029957639,0.11000104240700992
0,-6.708776101855378,-7.254357145250231,-2.326590905649058,-6.731819649896615,0.11500108978914625
0,-2.540813405324002,-5.624151976187279,-7.457505436962918,-2.571478612476998,0.12000113717128258
0,-16.112852204699493,-20.313946565291943,-16.248421159908876,-14.381137904749803,0.1250011845534189
0,2.865107545669244,-2.7037408786248536,3.0906619661026005,3.379202486849459,0.1300012319355588
0,5.303065892023133,3.496465118721205,7.8197439823272585,6.929542576389991,0.13500127931769512
0,12.751022880698525,7.906671462147749,11.038824930091957,8.889882377960628,0.14000132669983145
0,-14.131021442357845,-22.713121812936027,-15.392095149714155,-16.52977809471328,0.14500137408196778
0,-3.3830670314461537,0.6770853290702896,-4.633016216410766,-4.9894388279873185,0.1500014214641041
0,-3.9951138405876616,1.6672929243566177,0.29606177103869724,-11.129099807683756,0.15500146884624044
0,-0.4971618233123509,-3.5124989904264687,2.1351388541273755,-7.008761018779662,0.16000151622837677
0,1.8007890671650157,-3.6622903784592604,-0.6257849255028594,-1.4484224454435393,0.16500156361051665
0,-6.171261122240701,8.4579187971989,8.493290473694842,12.511915928671346,0.17000161099265299
0,-1.6533123444831404,7.928128573443594,0.17236509302922043,-2.1277458800878595,0.17500165837478932
0,-7.325364552247341,-6.5716610131805995,-7.208561026458907,-5.237407855668989,0.18000170575692565
0,-9.627417697781038,-3.051449926424112,-5.7194878437286185,-2.2770699820977915,0.18500175313906198
0,-6.179471732714498,-4.0912381299429255,-6.1304153173540605,-3.156732243157399,0.1900018005211983
0,24.578473391862858,18.908974412815265,21.788656594490362,26.173605377509595,0.19500184790333464
0,1.4664177247591095,-2.73081226177755,4.037727933481544,1.3039428958184405,0.20000189528547452
0,10.94436131399084,8.229401882094535,11.636798740516525,12.864280326708926,0.20500194266761085
0,-3.05769579328733,-6.820383120247618,-1.9041309444207692,-2.2153823158452157,0.21000199004974718
0,-2.699753550415284,-5.060167233634572,-2.0450610819441284,-2.4750450184617137,0.2150020374318835
0,-2.0918119108177486,-2.5099504226939775,-3.775991632831981,-6.264707767900554,0.22000208481401984
0,-1.683870827752254,9.870267348248696,7.173077442234568,1.565629449287763,0.22500213219615617
0,4.794069745696443,-1.0195138851095664,-1.927853817387777,-13.40403335310189,0.2300021795782925
0,4.852009856426109,1.5207059126748852,5.99121462750953,4.746303839133883,0.23500222696043238
0,5.729949551060304,-0.7590732231741453,5.510282815874323,2.806641040555535,0.2400022743425687
0,7.547888875752794,-1.6388512574958187,0.7593507863005495,4.746978265769355,0.24500232172470504
0,-4.974172123852336,-6.008628155055417,-3.5415814229508706,-1.802684470858901,0.25000236910684137
0,3.4137665975449014,-2.2984038803888636,0.887486226264588,3.5276528447875135,0.2550024164889777
0,19.151705085006892,24.561821602138277,21.406553772015517,18.3879902265611,0.26000246387111403
0,8.029643383031406,0.3720483278003617,1.8556212518882331,9.538327687695249,0.26500251125325036
0,-11.142418464763265,-1.887723668930524,-9.405311297301946,-7.9013347595090835,0.27000255863539024
0,-9.794480415208596,-8.187494354084059,-9.586243839046364,-4.040997103349835,0.2750026060175266
0,-11.416542424733734,-11.277263693511902,-11.107176336366466,-9.61065933202501,0.2800026533996629
0,-5.288604448876568,-5.147031652416629,-6.828108751404769,-3.2303214331956527,0.28500270078179923
0,-19.98066644220201,-12.936798195174054,-11.559041045370288,-18.82998339383356,0.29000274816393556
0,-25.78272835809952,-26.316563285172236,-27.189973178446966,-29.279645199895285,0.2950027955460719
0,-1.4547901483952168,-0.3663268844892318,-2.490905109484773,2.7906931641827497,0.3000028429282118
0,-23.256851763275698,-30.046088953704214,-23.811836795812606,-19.30896828443914,0.3050028903103481
0,-19.408913151441787,-9.395849451873882,-11.60276819328434,-10.758629527337702,0.31000293769248444
0,-6.550974260038992,-11.805608336487824,-8.283699256325562,-5.198290544981634,0.31500298507462077
0,1.7369649652191175,0.47463443632605595,-0.7346299381369334,3.1420486831143455,0.3200030324567571
0,-6.325095420530053,-1.7251210887181267,-8.765560191117224,-6.807611822029631,0.3250030798388934
0,-1.6271553617715235,-0.7448748665321967,-7.876489967104866,1.042727960842886,0.33000312722102976
0,-2.719214802705264,13.155373148032941,0.10258078264150194,3.4630680531451903,0.33500317460316964
0,-8.701273687209092,-3.574377000105213,-9.058347892578507,-5.076591523652939,0.34000322198530597
0,1.3666680412199588,-13.424125266312767,-4.459275942975972,8.013749251881197,0.3450032693674423
0,5.534610439411468,-3.7438716057916896,0.3297966817208362,9.664090401022118,0.35000331674957863
0,-20.947446435632315,-1.8636159731432496,-9.77112996778223,-5.935568055345211,0.35500336413171496
0,-10.83950252651716,-11.26335832236995,-10.072055840328481,-0.44522609670668434,0.3600034115138513
0,7.798442224990894,9.88690139298085,3.967019115837205,13.0651162973171,0.3650034588959876
0,1.2463878778002728,-5.742836780364288,0.1860949529742726,1.0954591468813688,0.3700035062781275
0,0.5543344908917978,6.517427204345953,5.585171723464865,3.0758024716667474,0.37500355366026383
0,-23.887717876789875,-15.202306606165953,-13.90575052040285,-15.45385370898278,0.38000360104240016
0,-0.10976916581720886,-6.392038164926768,-4.426671726208021,-0.07350937556567583,0.3850036484245365
0,19.118180683975897,10.74823257555881,11.292408158880336,11.8968354918327,0.3900036958066728
0,18.776131732757726,8.75850566303466,14.101489187798705,11.767180913125816,0.39500374318880915
0,24.84408403953805,18.41878114477507,28.350571412747392,19.557526907482853,0.4000037905709455
0,12.022037661497203,8.679059067010288,5.239654884441671,-4.872126507093156,0.40500383795308537
0,20.639992653916902,9.539339474749342,9.38873965196349,5.588220686412545,0.4100038853352217
0,40.36794907017057,25.88962241179254,29.427825763020078,23.558568504364956,0.415003932717358
0,16.095906961354068,8.259907920587503,13.226913263878345,4.278916962324865,0.42000398009949436
0,18.22386637600875,15.560196042054946,13.456002199064974,5.7092660747465915,0.4250040274816307
0,-3.9981726394394155,-6.049513184216312,-6.144907388440034,-9.260384144760682,0.430004074863767
0,-8.57021003971866,-0.8892197194126571,-2.8358154564826323,-2.3700336828057695,0.43500412224590335
0,-0.06224577974367307,-7.4989235248606665,-9.126721962968068,-7.399682525720938,0.44000416962804323
0,-28.35427981395609,-30.628624561433057,-26.877626865243936,-31.509330659188734,0.44500421701017956
0,-14.296312095783446,-13.658322788841165,-9.578530119505825,-14.778978067649975,0.4500042643923159
0,21.211657422653737,7.491981834797349,10.58056831944152,9.581375266101373,0.4550043117744522
0,3.3396287899121235,4.722289352444654,0.7696684975903585,-4.8182706395810335,0.46000435915658855
0,-8.562397945735565,-10.387400192744009,-10.10122953901349,-11.637915765951902,0.4650044065387249
0,-7.774422736311764,-5.937086757595816,-8.392125744254512,-3.5075600939302736,0.4700044539208612
0,-0.25644553354584065,11.963229701353047,6.966979928430364,7.752796396088616,0.4750045013030011
0,1.741533711300531,2.3635492277007066,8.0360875259333,1.5831537239506637,0.4800045486851374
0,8.049515047124945,12.603871864682976,7.195197094918777,5.0335119093063065,0.48500459606727375
0,2.6374985226037735,2.1841976548728317,1.6343086814533265,3.623870971435756,0.4900046434494101
0,4.545484185984961,3.284526640180318,8.653422331011427,12.984230929182775,0.4950046908315464
0,4.263472085078806,-6.555141137926598,5.082538088541018,7.484591800764255,0.5000047382136863
0,20.271462267187275,4.815194361901092,6.681655998425536,16.394953603522552,0.5050047855958191
0,10.209454778775138,-6.484466818919473,2.330776104465752,5.7953163537529555,0.510004832977959
0,13.677449665102811,3.105875361131451,8.619898449932574,13.635680066666826,0.5150048803600917
0,5.505446970171912,-11.793779056270612,-4.350976922365516,-1.3339552435048365,0.5200049277422316
0,-18.076553262911627,-9.153430029091906,-11.251849969857185,-11.343589563168738,0.5250049751243644
0,-1.9085509911868876,-6.133077514643922,-0.012720649763288572,-0.36322287877167037,0.5300050225065043
0,21.149453828667788,9.18727853045793,8.89641108110685,10.927144823545634,0.5350050698886442
0,5.227461239904411,10.167638149831578,7.385545265982769,11.937513557601497,0.5400051172707769
0,-10.43452871490563,-6.9319986132414115,-8.285318052291009,-4.592116663369753,0.5450051646529168
0,-15.776515993534725,-15.861631715771363,-18.83617883104065,-20.061745826600095,0.5500052120350496
0,-19.46850055312763,-12.501261114357195,-19.647037026944904,-19.691373918902155,0.5550052594171895
0,-7.700482349509915,-8.140886764556896,-12.777892595281145,-13.70100092575359,0.5600053067993223
0,-7.772461337112679,-12.070508620771914,-10.7087454897241,-15.200626830971013,0.5650053541814621
0,7.505562530627829,3.049873363570212,8.450404337320782,2.939748383084727,0.570005401563602
0,-6.576410699277618,-5.409740764284232,-8.710443065882643,-6.909875264968825,0.5750054489457348
0,-0.4483809796935221,5.4306490432414645,-3.62128765080628,-4.5594977559714875,0.5800054963278747
0,-18.940348263253266,-17.588957166103405,-20.09212936853357,-23.549119070235523,0.5850055437100075
0,-26.7223125018356,-17.2885593441221,-24.432968169218142,-30.428739186997106,0.5900055910921473
0,-26.704273645762857,-16.02815744155565,-23.17380400140134,-23.99835808359311,0.5950056384742801
0,-24.92623164311433,-9.577751407669645,-21.294636811526857,-15.917975734964557,0.60000568585642
0,-19.208186439505806,-5.2573411903508696,-9.005466543901704,-3.1175921138866878,0.6050057332385599
0,-18.150137978250022,-4.766926736483622,-9.64629314106362,-0.2872071917051494,0.6100057806206927
0,-5.522086200713,-0.08650799231288642,0.932883455668085,4.633179060861431,0.6150058280028325
0,-9.4440310467862,4.2939150962530075,-6.957936694306283,-3.6464333268139466,0.6200058753849653
0,-7.665972455324477,1.4543425833434251,-1.8487535311484704,-2.5260443253970446,0.6250059227671052
0,0.792089635589742,7.874774522878628,1.9204330053023435,9.034346094475703,0.630005970149238
0,11.100155288330475,21.50521096829914,11.529622975321367,15.314737962006955,0.6350060175313779
0,41.448224564964995,43.735651971906265,39.43881643868063,43.415131305515644,0.6400060649135177
0,1.0862975261659553,-4.493902416022836,8.708013453681312,-2.694473848483827,0.6450061122956505
0,13.664374230706974,15.98654785263227,18.43721407656779,9.095922524518677,0.6500061596777904
0,0.27245473591156655,-7.292997175384942,-6.413581638174759,-12.923679552160953,0.6550062070599232
0,28.160539098145954,46.527462545822715,29.62562636278936,25.056719944424135,0.6600062544420631
0,15.318627372649287,8.767927060870127,26.134838131647694,16.187121036778823,0.6650063018241958
0,5.976719613131844,-12.981603587381178,2.1740537189000375,-6.40247625360219,0.6700063492063357
0,24.21481587176411,15.428870642743046,20.13327317323225,19.14792809369102,0.6750063965884756
0,29.72291619918377,15.439349792425194,26.782496541782503,18.848334098175208,0.6800064439706084
0,35.68102064396303,20.739833902044474,28.941723869911606,29.918741778083938,0.6850064913527483
0,7.649129252047537,4.390323010587302,6.530955200754388,5.12915114977492,0.690006538734881
0,12.157242066948028,13.33081715562512,19.660190575335672,14.889562227721552,0.6950065861170209
0,16.015359130452357,12.451316373569117,11.619430033023301,12.779975024926724,0.7000066334991537
0,29.213480482932425,38.15182069957496,34.11867361164168,31.430389553039802,0.7050066808812936
0,15.501606163027638,22.58233016692523,17.667921347134133,20.570805821957794,0.7100067282634335
0,-2.8602637925150187,-17.137155193320552,-6.512826726596929,-8.808776160418107,0.7150067756455663
0,-12.742129348175462,-17.39663535141003,-16.473570576935774,-15.418356387473693,0.7200068230277061
0,-9.723990468515366,-9.016110277268007,-8.974310171211712,-1.7079348525798284,0.7250068704098389
0,-6.605847117379131,-11.445579939615,-10.915045475816404,-1.407511548403272,0.7300069177919788
0,22.592300742096487,18.14495569385435,20.43422354376941,23.552913532769427,0.7350069651741116
0,13.910453146693797,10.35549665568392,9.853496922224002,9.673340398207467,0.7400070125562515
0,11.188610132183882,7.786042977788549,12.192774693486085,16.713769054027598,0.7450070599383913
0,6.446771733008118,5.156594691111938,3.252056890386359,6.7441995049789725,0.7500071073205241
0,1.1549379825585482,4.867151825795352,6.371343544827563,16.454631754557365,0.755007154702664
0,8.483108913555256,13.247714411339826,9.510634688023913,20.195065805022374,0.7600072020847968
0,-26.478715441595053,-23.7817175232823,-32.92006964922771,-23.18449834258372,0.7650072494669367
0,-0.7205350502125447,17.88885605073834,4.579230564121276,11.80593931209441,0.7700072968490765
0,-13.632349878764833,-5.9505648376727605,-10.361464639997541,-3.843621230597746,0.7750073442312093
0,-12.234159892691947,-7.849980159551724,-15.27215522873056,-4.7131799701807235,0.7800073916133492
0,-11.205965056392387,-7.049389885774153,-6.662841168343876,-7.752736906019501,0.785007438995482
0,-5.317765333175697,6.261206013240561,1.4864775758322395,2.6277079628871856,0.7900074863776219
0,-7.089560685387655,-11.528192432524559,-7.404198960846859,-4.971845362071608,0.7950075337597546
0,-9.99135107460015,-5.2075851927828065,-5.35487074261015,-10.70139687919888,0.8000075811418945
0,-11.073136461617223,-9.266972236753123,1.5144622667083465,-8.9409465863175,0.8050076285240344
0,-5.234916806371037,-2.486353532980873,3.9938001035803934,-8.330494480486498,0.8100076759061672
0,17.71330793191654,12.714270950507517,19.863142804379976,10.469959441991895,0.8150077232883071
0,1.1315377941066442,6.684901245683675,5.122490404816017,0.37041518514584804,0.8200077706704398
0,-6.4302271793793215,-4.2444626159656655,-0.40815706035697263,-2.5291272471162243,0.8250078180525797
0,19.38801305147739,6.596179396570722,19.91120044280965,11.361332148890078,0.8300078654347125
0,-4.463741473649785,-4.843172685911493,2.9405629475293367,-7.418206623364398,0.8350079128168524
0,-32.005490715342525,-27.672518832509475,-33.09006951360108,-39.767743560340286,0.8400079601989923
0,-3.3172346336526974,-1.6518590115935816,-2.7906969077534383,-7.867278657472607,0.845008007581125
0,-14.248973187305264,-8.701193190352537,-5.571319200980262,-9.426811908383371,0.8500080549632649
0,14.259293666163241,10.779478664934693,10.118063641628332,7.393656694790726,0.8550081023453977
0,6.4075659696258365,-1.6898434117364087,6.597451655169049,-2.835872839471702,0.8600081497275376
0,-29.084156234176607,-25.919159386343043,-33.08315512543667,-30.09540050243191,0.8650081971096704
0,-20.24587290216739,-24.16846922423213,-20.263756664793394,-13.374926284555958,0.8700082444918102
0,7.702416009997114,11.632227110689703,8.365647073924759,12.505549825062419,0.8750082918739501
0,-19.40928945200064,-9.277070344186988,-14.554943871067426,-6.2439721616976565,0.8800083392560829
0,-17.73098924150867,-18.29636155081251,-23.395529460667877,-16.083492232655384,0.8850083866382228
0,-27.14268331063383,-23.535646470345917,-29.57610965457307,-24.313010375085057,0.8900084340203556
0,16.815628390150213,9.665074937391807,11.173315589329306,11.237473424926064,0.8950084814024954
0,19.6839459113809,14.285802713618796,15.012746314528009,22.07795918220056,0.9000085287846282
0,20.31226930314781,9.9165368994766,13.442182564518584,15.908446911205445,0.9050085761667681
0,-13.109401385837728,-12.842722464670588,-4.738375618142136,-9.321063374854111,0.910008623548908
0,-13.481066107786306,-14.931975338823731,-21.448928191576428,-11.960571663661158,0.9150086709310408
0,-27.042724814552187,-25.481221682324477,-27.029475113464756,-22.220077942653198,0.9200087183131807
0,5.415622543324924,-4.170461453070645,-7.020016339970279,-0.3895821981568772,0.9250087656953134
0,-10.556023983367067,-16.36969460738633,-14.020551825460645,-13.889084415245593,0.9300088130774533
0,-0.9176643430342885,-7.09892110028986,-3.3610815228965403,-8.488584577974589,0.9350088604595861
0,-16.649298483541102,-11.438140885702705,-11.861605384237446,-15.248082669447237,0.940008907841726
0,23.829073647766318,16.5026460833155,15.457876639259606,5.802421328219575,0.9450089552238659
0,-30.22254789616012,-20.47656014588209,-23.762635403294556,-31.47707256619249,0.9500090026059986
0,-14.794163062000987,-15.425759525630504,-12.013141462391719,-6.366564332885047,0.9550090499881385
0,-7.105771795409552,-11.31495200740464,-11.533641487597528,-7.546053950757989,0.9600090973702713
0,3.112625959247157,-0.08413754144166274,1.3558645727186347,-5.425541397530033,0.9650091447524112
0,5.041030258299893,8.396683922885684,11.615376770941586,4.74497334980503,0.970009192134544
0,-16.46055884179483,-7.682487563580307,-12.555104840445619,-7.554509685394568,0.9750092395166838
0,-21.86214128426244,-14.52165194995777,-17.835580208932047,-14.863990479492374,0.9800092868988237
0,20.016282988541604,14.159190814979457,13.023950718515163,15.006530991613074,0.9850093342809565
0,14.874714034852762,21.80004078264613,19.213487995381907,20.10705475223293,0.9900093816630964
0,-12.886848087476698,-6.039101996153746,-10.236968325217665,-11.832419173880115,0.9950094290452292
0,0.8615966788171376,4.931762528448352,8.012581809122038,3.1681092362871017,1.000009476427369
0,-9.969951608975249,-6.567365594156016,-8.247861549512633,-8.601359994426023,1.0050095238095018
0,-2.9314928931119213,8.72351368536572,1.4217016509972615,2.909173157061386,1.0100095711916417
0,-3.0630271153383077,-6.015599583672834,-7.808728537048542,-8.030291285882809,1.0150096185737816
0,-5.914554216945186,-2.194705351986983,-8.249152061009212,-8.61975329955826,1.0200096659559144
0,8.903925861111125,7.926196429759907,11.620431132186734,10.650787140154735,1.0250097133380542
0,-23.257586821893426,-18.992894188998683,-19.479978904070563,-20.888669942263316,1.030009760720187
0,-4.10909220625241,-2.2119771585527723,-1.8203821160819351,-5.208124521921997,1.035009808102327
0,-4.150590231467648,-7.971052428576452,-7.55077844957862,-4.917576573217037,1.0400098554844597
0,-2.172080836262426,-0.5901199480505429,6.068832150324788,-1.0370260697858158,1.0450099028665996
0,22.176436040950286,30.250820334334655,25.278449738651023,17.01352701509142,1.0500099502487394
0,-1.9850395385649615,9.30176846932518,9.278074369724118,8.984082707853638,1.0550099976308722
0,-2.0265075142148454,-2.047275493589765,-3.232293903363897,-3.965358965820716,1.060010045013012
0,5.362032174156542,1.0836884940500169,4.727344971538202,0.6652020191029848,1.0650100923951449
0,-2.549420413423014,4.944660480311915,-4.263008953769872,-10.484234312470484,1.0700101397772848
0,1.4591347829936794,0.6056405130931017,-0.3033556275328202,-12.493667935287068,1.0750101871594175
0,19.04769782317667,28.926628639905267,16.796305001969653,7.936901176553686,1.0800102345415574
0,-3.7537312335684736,-0.2923750925916383,-1.7540270138541814,-11.472526950463417,1.0850102819236973
0,-14.125152328474854,-5.231370638800473,-16.374351624033714,-18.4419522893839,1.09001032930583
0,5.553434597199124,10.269642046243906,10.345331222394321,4.208625187472346,1.09501037668797
0,-9.5079703973907,-1.15933699271485,-8.90497842326621,-3.630794491390235,1.1000104240701027
0,5.210632747274603,13.03169228877013,8.214719490486976,8.089788702936778,1.1050104714522426
0,14.099244090800166,14.122729934566348,12.804425015051782,1.5403747992981351,1.1100105188343754
0,34.837863692242344,25.48377598753215,26.074138201208537,15.620963826173753,1.1150105662165153
0,37.316491608997836,42.01483048882309,35.5338590982734,17.761555811322705,1.1200106135986552
0,10.845127895842024,8.035893477168596,7.2235877533385295,-11.56784921851458,1.125010660980788
0,34.28377260477904,33.12696498865922,31.35332421111808,16.782748762542937,1.1300107083629278
0,44.89242578518844,37.338045056880134,32.38306851407847,10.77334977979749,1.1350107557450606
0,55.381087483275344,54.49913371251341,45.132820702084494,16.143953857750496,1.1400108031272005
0,53.26975774103109,62.16023098231613,47.43258081162277,14.174561019691954,1.1450108505093333
0,64.23843659543455,72.96133688798545,58.73234887503911,21.485171287482377,1.1500108978914731
0,59.1171240779715,61.64245144524181,54.60212491988831,16.465784681382345,1.155010945273613
0,35.46582021449123,54.32357466346295,36.191908968599265,5.746401219986969,1.1600109926557458
0,67.214525025523,75.57470654583621,63.69170103861869,32.55702092034372,1.1650110400378857
0,70.37323852640343,76.06584708931626,66.20150114242882,29.497643797784907,1.1700110874200185
0,55.181960726741366,63.096996284162216,55.8213092870206,20.198269865372545,1.1750111348021584
0,65.12069162998168,56.29815411380439,55.511125473497636,18.448899133659115,1.1800111821842911
0,52.139431233527375,58.029320555330685,50.540949697265575,22.169531610958764,1.185011229566431
0,34.318179529151806,28.21049558018912,27.71078194853937,6.840167303657856,1.190011276948571
0,37.42693650373784,29.871679155083104,25.24062221316807,0.4108062165927673,1.1950113243307037
0,37.155702140111785,37.97287124297155,30.68047047361887,15.361448353593016,1.2000113717128436
0,27.794476417505425,33.96407180355018,19.72032670958626,14.392093717711324,1.2050114190949763
0,13.033259311916169,11.645280793330361,5.710190898346257,-4.107257688939282,1.2100114664771162
0,35.67205079665979,33.06649816599159,33.4500630152111,21.313394134823174,1.215011513859249
0,24.61085084265319,21.067723872795803,20.99994303367445,8.784049189314095,1.2200115612413889
0,26.289659418264844,34.188957862585866,22.20983092510313,16.344707473768402,1.2250116086235288
0,42.998476489114786,38.30020008149278,36.88972665848152,23.175368986068726,1.2300116560056615
0,29.247302017819923,19.5414504726331,22.55963020023122,3.5260337225691254,1.2350117033878014
0,47.04613596363873,53.292708975962974,45.329541513934096,28.47670167806782,1.2400117507699342
0,28.674978282233365,24.743975528135486,26.029460560051092,9.13737284582052,1.245011798152074
0,11.823828925803177,-1.6247499374451362,8.04938729592952,3.5380472175719486,1.2500118455342069
0,27.552687843720935,16.77653251024265,23.969321676384045,17.088724783827868,1.2550118929163467
0,0.7115549832669545,-1.7621771990452393,-6.02073634552181,-17.060594465743026,1.2600119402984866
0,29.120430290058987,23.459120863623117,25.239213182037645,10.520089458112524,1.2650119876806194
0,23.57931370809166,30.64042662608754,25.139170209708883,14.22077654449132,1.2700120350627593
0,18.238205179426593,30.821740014338335,23.84913468645829,12.391466781995307,1.275012082444892
0,10.687104644041668,5.143060951903353,9.719106559116526,-1.1478398417403617,1.280012129827032
0,22.40601204009916,10.154389360109262,17.94908577253199,7.242856660041034,1.2850121772091647
0,24.2449273040909,27.945725158740093,28.279072269853923,18.26355627346119,1.2900122245913046
0,6.0338503706915505,-12.652931733707803,-2.85093400747627,-7.17574101607098,1.2950122719734445
0,38.43278117269896,42.69841860001094,38.13906688028941,34.89496477598,1.3000123193555773
0,20.0017196409052,20.249776075698357,18.659074871163853,17.395673632966012,1.3050123667377171
0,20.660665703791945,11.981140607169184,14.979089901118693,-1.9036144633835717,1.31001241411985
0,-10.920380712299904,-16.04748789365907,-15.960888095736106,-30.312899532549448,1.3150124615019898
0,-1.5514196822292563,-8.466109515617056,-8.280859186083934,-17.602181593734684,1.3200125088841226
0,31.327548718765794,23.335275652699885,27.069176563531972,20.658539335208886,1.3250125562662625
0,0.29652441487943815,2.536667522739828,-1.6307809134794855,1.6792632373091552,1.3300126036484023
0,-18.174492670631075,-12.081933994585945,-6.520731684321614,-7.140009904545803,1.3350126510305351
0,-8.86550261477623,-14.970528988590196,-6.3406758165483215,0.9307198922442919,1.340012698412675
0,33.00349450591471,40.67088245176879,46.30938662227177,34.24145261014187,1.3450127457948078
0,46.55249861459012,26.64230023720567,43.239455563579426,33.872188230699464,1.3500127931769477
0,20.841509632258074,16.573724276637936,26.079530936105826,17.572926733307114,1.3550128405590804
0,7.8505274769218545,19.265154476589807,18.23961266516812,5.523668094817422,1.3600128879412203
0,24.869552064145605,0.246590741612704,17.87970067324215,16.774412290170208,1.3650129353233602
0,24.178583307663537,24.358032974834465,26.359794880643335,33.08515929285976,1.370012982705493
0,-27.67237888043765,-20.38051892166545,-16.64010479410949,-18.324090925167965,1.3750130300876329
0,-17.61333458882566,-18.199065046213256,-10.249998433539144,-11.06333839310403,1.3800130774697656
0,3.0657160945111164,3.452394503436781,4.900113879909135,1.1274168598843337,1.3850131248519055
0,12.934773082601852,19.70385963033897,16.200232064189592,18.628174805138062,1.3900131722340383
0,33.03383628844597,18.67533023739529,32.87035603683541,35.498935413668384,1.3950132196161782
0,38.96290562355884,50.95680622604954,45.44048571365285,46.17969865469975,1.400013266998318
0,18.721980996855134,-5.7417125046429724,15.060621007625668,13.140464494495617,1.4050133143804509
0,10.261062314423615,4.07977394205135,9.330761828754303,5.361232896300885,1.4100133617625907
0,5.500149480235416,-3.2487345383577964,3.9309080849319145,3.2620038213910663,1.4150134091447235
0,22.71924239692254,25.51276194924297,24.041059682824603,26.592777230001534,1.4200134565268634
0,56.25834096565523,62.82426329901811,64.81121652765667,59.51355308102929,1.4250135039089962
0,2.7274450851920142,-6.684230597234986,4.79137852201384,9.124331330782088,1.430013551291136
0,21.996554651448182,12.45728014947139,22.971545565248718,25.495111932349563,1.435013598673276
0,24.705669558045624,20.59879542625546,24.781717554102926,27.545894836088138,1.4400136460554087
0,29.52478969661243,28.870315118883116,26.801894383202704,29.396679989988495,1.4450136934375486
0,17.763914956493977,22.961839111262062,19.842075944905837,16.037467339544598,1.4500137408196814
0,44.313045224520764,36.96336728488426,38.232262129131755,27.738256827792576,1.4550137882018213
0,17.172180384819843,36.83489951844959,18.94245282322572,23.809048395477653,1.460013835583954
0,22.181320318734944,4.916435687645952,8.26264791197794,7.439841981137608,1.465013882966094
0,23.450464905111932,18.497975665543557,22.082847278099674,10.990637521418686,1.4700139303482338
0,28.189614020555986,22.189519323325236,19.493050802649186,3.0714349516609794,1.4750139777303666
0,11.418767539414212,5.71106653057916,6.603258365047633,-9.007765793543035,1.4800140251125065
0,-11.392074665909707,-14.36738284444899,-15.046530156654576,-28.036964779635937,1.4850140724946392
0,-9.50291272392403,11.04417106590704,-10.416314884825944,-5.2161620711589105,1.4900141198767791
0,-12.263746762864212,-27.564271870536523,-17.08609594120797,-21.555357731169796,1.495014167258912
0,-18.64457690999837,-27.95271178521034,-22.89587344628018,-20.00455182115174,1.5000142146410518
0,-11.045403291324867,-14.941148807948402,-17.935647518885794,-22.853744400875662,1.5050142620231917
0,-15.616226031440092,-12.00958306652214,-19.96541827599327,-30.272935528085625,1.5100143094053244
0,-11.777045253556594,-13.328014686935367,-18.04518583265898,-34.13212525812638,1.5150143567874643
0,3.9621389203288535,-2.6964437938782124,-4.744950302165032,-10.92131364366097,1.520014404169597
0,3.8313263689771975,3.025129488877063,7.725288203529045,-8.900500734909762,1.525014451551737
0,2.2805169712794755,-4.313294961993472,1.2355295730031655,-10.779686580395587,1.5300144989338698
0,15.889710605809395,11.958282730254954,11.71577369467822,-2.478871227565227,1.5350145463160096
0,-2.8410928494290877,15.019862442084813,13.116020456406336,6.301945276833696,1.5400145936981495
0,1.1881064829706078,-1.318555950749536,4.726269745185519,8.312762886256856,1.5450146410802823
0,-8.662691519858438,-6.586972573234628,-11.283478552803512,-7.806418446099435,1.5500146884624222
0,1.7265130193457026,-2.285387550573537,-1.4632245516609288,0.12440123270805836,1.555014735844555
0,5.9157199780728265,18.556198992154478,9.557031634708778,12.585221875588834,1.5600147832266948
0,-11.125070766123585,-21.67221307019741,-11.86271010746028,-5.683956564686344,1.5650148306088276
0,-0.41585933562185495,0.33937613716738557,-2.132449891877263,-2.633134135606749,1.5700148779909675
0,-1.9666458525266046,-2.749033510592465,0.24781216800869643,0.5076891153001715,1.5750149253731074
0,-0.1374304386430394,8.432557862099973,5.748075959016891,-0.271486859346568,1.5800149727552402
0,10.911786784309813,4.264150130813925,6.108341367903547,9.399337893102093,1.58501502013738
0,-14.438994305509453,-13.91425682914306,-21.22139171879752,-10.729836674854344,1.5900150675195128
0,-23.59977382983021,-16.482663142369127,-30.821123414211907,-20.589010610670314,1.5950151149016527
0,-11.760551909472923,5.3789310672597095,-9.41085383006679,-6.47818396109469,1.6000151622837855
0,-33.9913286636176,-29.309474323170413,-35.90058307603569,-23.717356771617627,1.6050152096659254
0,-29.322104209345426,-17.617879435462704,-13.000311259615867,-1.1265290863417041,1.6100152570480653
0,-26.562878661190233,-11.266284389882635,-11.660038486188089,5.3242990517755935,1.615015304430198
0,-30.05365213088561,-6.634689305056405,-13.95976485935784,-4.334872399669398,1.620015351812338
0,-40.75442472729443,-21.183094298300833,-33.35949048122645,-14.144043482911204,1.6250153991944707
0,-55.355196556025014,-53.22149948546872,-48.54921545191447,-29.41321423962422,1.6300154465766106
0,-57.50596771860759,-57.67990497976137,-49.148939868431455,-19.18238471006093,1.6350154939587433
0,-33.176738311771246,-29.66831089029519,-22.038663823785026,3.5884450674168598,1.6400155413408832
0,-28.82750842756431,-19.356717321813697,-15.678387407169687,7.219275055819328,1.6450155887230231
0,-50.12827815408058,-48.11512437548388,-43.26811070483749,-19.86989478138312,1.650015636105156
0,-55.46904757564266,-53.783532149192744,-47.20783380029082,-27.439064480303422,1.6550156834872958
0,-55.089816772152,-25.84194073695091,-32.667556773586696,-17.10823407575417,1.6600157308694286
0,-32.35058581854943,3.8696497710913973,-14.547279701024937,3.252596399291102,1.6650157782515684
0,-3.6413547852980885,-7.8587607127164105,-8.267002655894219,11.463426913124575,1.6700158256337012
0,-32.13212373971434,-20.5371722748923,-24.05672570952115,-8.725742565723754,1.675015873015841
0,-48.03289274678498,-65.4255850007063,-52.06644893147436,-21.304912068774936,1.680015920397981
0,-33.84366186866049,-38.11399897268492,-37.406172388658426,-19.72408162689095,1.6850159677801138
0,-40.71443116386114,-34.21241426928017,-24.695896144377762,-11.83325126946127,1.6900160151622536
0,-47.39520068702379,-47.65083096471061,-43.75562025828906,-28.202421024122508,1.6950160625443864
0,-33.84597048882329,-20.359249129334003,-32.68534478665421,-10.401590916718913,1.7000161099265263
0,-45.886740615901616,-39.98766882996289,-39.24506978227242,-19.210760971286422,1.705016157308659
0,-52.72751111082304,-48.826090130026714,-51.54479529426374,-19.89993121013283,1.710016204690799
0,-28.498282011905363,-30.9845130893303,-31.464521367805666,-5.479101653920966,1.7150162520729388
0,-23.519053353380272,-36.462937763821124,-32.36424804407462,-17.268272321817555,1.7200162994550716
0,-31.58982516611045,-30.231364205809967,-34.32397536060689,-20.687443231641147,1.7250163468372115
0,-48.72059747801723,-43.64979246422197,-37.603703351610704,-24.576614399671314,1.7300163942193443
0,-30.16137031375283,-28.99822258456206,-24.753432047995467,-4.85578584034973,1.7350164416014842
0,-35.48214369432628,-18.846654608961313,-21.55316147752965,-4.244957566467829,1.740016488983617
0,-44.26291763713132,-39.2350885765469,-33.94289166522075,-24.08412958966499,1.7450165363657568
0,-11.693692156087403,-5.723524523795259,-6.792622633589681,7.346698079384187,1.7500165837478967
0,-24.474467262014905,-26.52196248481314,-18.512354402964327,-6.292474569123127,1.7550166311300295
0,-25.53524296326143,-20.620402491656932,-19.912086991893464,-3.5416475444707722,1.7600166785121694
0,-35.09601926589092,-32.72884457433429,-34.93182041718099,-19.330820855541123,1.7650167258943021
0,-36.08679617329314,-28.31728876044958,-27.131554693394694,-14.499994510419032,1.770016773276442
0,-25.657573685769314,-36.325735074837255,-37.19128983234266,-17.739168515898672,1.7750168206585748
0,-38.61835180043308,-25.714183539333483,-27.131025842797698,-17.45834287721287,1.7800168680407147
0,-7.239130511384606,-17.962634172823357,-11.84076273056892,-2.9775175980330637,1.7850169154228546
0,-26.77990981012769,-36.821086991533974,-27.510500498947312,-25.326692680646058,1.7900169628049873
0,-21.950689686020237,-18.569542009179248,-15.790239149138195,-16.06586812598176,1.7950170101871272
0,-13.181470126416107,-15.137999236989256,-14.539978680415338,-22.545043933337453,1.80001705756926
0,12.547748883073998,1.2135413158506574,7.430280909575041,1.2157798997520266,1.8050171049513999
0,-0.20303264228592466,-9.8549203585841,1.7605396240780442,-7.393396622863221,1.8100171523335327
0,10.536185312705438,14.03661573237287,20.72079746634939,17.937426503340422,1.8150171997156725
0,8.735402762721403,10.028149581408702,9.241054438926128,14.778249282737304,1.8200172470978124
0,-9.845380278173986,-20.890318819187563,-15.458689456630246,-7.0409282810981395,1.8250172944799452
0,-13.606163796167769,-22.728789477127513,-17.248434219129262,-5.360106185318805,1.830017341862085
0,1.2830522229583337,2.6327376008484222,8.50182015320106,11.990715572768389,1.8350173892442179
0,7.472267794029985,-0.2557375907854573,-0.15792633712386675,9.951536995780856,1.8400174366263577
0,15.411482931941244,12.805784942958311,14.812326312530118,17.98235808571952,1.8450174840084905
0,2.930697650971905,7.367305196794264,5.262578104307137,8.153178843474958,1.8500175313906304
0,0.229911964576618,-6.971176835178065,-9.447170960308153,-14.626000731143547,1.8550175787727703
0,-15.350874114230944,1.1503388407246242,-2.8769208801351187,-12.385180638692127,1.860017626154903
0,1.408339427755248,2.241852218140885,1.9933283461906428,-10.314360879135902,1.865017673537043
0,8.89755260418973,10.95336329067135,9.52357672023108,5.91645854853434,1.8700177209191757
0,1.8467654288209254,5.6948720515471605,7.2438242433268,7.897277645902769,1.8750177683013156
0,23.92597791493932,15.676378493304181,22.604070916124602,23.768096414326816,1.8800178156834484
0,-5.704809925003579,-10.452117392328589,-11.605683261715562,-1.3510851457767192,1.8850178630655883
0,-6.6055980793518945,0.4193843858521669,0.5245617086834072,5.079732964915609,1.8900179104477282
0,-24.23638653652547,-27.989116180825285,-26.695194173820457,-25.099449254822268,1.895017957829861
0,-7.537175284074331,-6.577619100166511,-6.454950909554543,-5.098631805871274,1.9000180052120008
0,2.7620356916989555,5.963875621221896,1.7052915023333743,5.622185311779587,1.9050180525941336
0,7.3212464052867725,1.1353679775011976,4.415533063510079,-0.8869979012245802,1.9100180999762735
0,-22.31954312863155,-13.693142036999367,-20.6142262240823,-20.356181444021324,1.9150181473584063
0,7.2996671048337625,8.728345572183246,6.966013641794514,-0.5453653153219344,1.9200181947405461
0,-8.421122878933648,-17.650169200156807,-18.64374733604228,-16.28454951299464,1.925018242122686
0,4.608086935859273,-2.448686358772685,2.6264908458833163,-2.53373403397514,1.9300182895048188
0,-2.872703434823567,-8.807205907789317,-9.903271808319834,-4.082918874380633,1.9350183368869587
0,1.7365060250337345,2.3342721493351877,5.516964705980685,7.947895970216484,1.9400183842690915
0,8.435715331396388,2.3357478095604756,3.5972003936726438,6.528710504319263,1.9450184316512313
0,-2.895075499978633,1.2872210699253872,-0.8425647404156712,-2.100475267890533,1.9500184790333641
0,-3.625866453574698,-2.8813080726336824,-2.9623306916227574,-10.289661342524713,1.955018526415504
0,-6.256657513859474,-11.179839621159726,-15.67209745520946,-17.51884771546759,1.9600185737976439
0,-19.437448664878747,-21.408373578233824,-29.811865025767005,-31.708034381598413,1.9650186211797767
0,3.151760110111187,-3.676909945422608,-1.2916333965031286,-5.487221334085597,1.9700186685619165
0,-6.679031171298358,-6.775448723090119,-12.171402559031225,-16.316408564218253,1.9750187159440493
0,-6.869822490914946,0.45601008928573383,3.388827496179847,2.084403938179213,1.9800187633261892
0,-11.990613830019656,-10.382533507253791,-3.9009432207405412,-11.194783815778328,1.985018810708322
0,-2.151405169195425,-6.931079511201196,-6.710714699346107,-12.253971814273294,1.9900188580904619
0,7.537803511628558,4.320372079502586,6.519513071066917,3.486839955245597,1.9950189054726017
0,-0.8029877672438501,-5.438178732652258,3.2597401013433975,-10.592348493982872,2.0000189528547345
0,4.906221014330835,10.333268054968075,9.259966402141117,4.808462851748652,2.0050190002368744
0,9.815429876176477,-5.60528755508449,2.540191983640133,0.3192740064041867,2.010019047619007
0,49.18463883737236,24.366154439459425,37.750416855271936,31.960084983806823,2.015019095001147
0,28.533847915152972,39.97759404001775,36.41064102498808,37.43089579670897,2.02001914238328
0,0.9630571239870944,-23.380968753638545,-7.889135501595524,-10.008293544191206,2.0250191897654197
0,-45.37773352370408,-48.83953394289193,-43.658912720668965,-48.89748302980307,2.0300192371475596
0,8.361475984525637,18.331898471685587,12.901309371732891,2.333327349401181,2.0350192845296924
0,-2.43931433760602,-1.126671508807966,8.5115307807745,9.804137604634088,2.0400193319118323
0,29.31989552429371,24.134756117268434,28.47175151188041,25.574947747881133,2.045019379293965
0,22.41910558392829,12.956181350780927,15.771971569326071,14.885757790296447,2.050019426676105
0,-10.77168414654217,-12.652395808608528,-4.137809044297701,-4.563432258488106,2.0550194740582377
0,-14.412473656123943,-16.72097536188229,-17.157590327516782,-9.032622389899696,2.0600195214403776
0,-4.203262933779056,2.660442690368461,1.0426277211491475,8.418187404450688,2.0650195688225175
0,18.48594803217313,18.861858348212383,21.272845103656085,24.718997132947408,2.0700196162046502
0,26.905159253369057,14.14327161155985,22.243061821712224,32.84980680311371,2.07501966358679
0,4.31437074027888,3.4446824793042623,2.7232778757692713,7.730616420571127,2.080019710968923
0,-5.306417498107901,5.226090949230694,4.913493264845512,9.441425988844378,2.085019758351063
0,10.95279454633557,17.14749701830766,9.443707987011539,18.322235509882788,2.0900198057331956
0,-23.65799311846146,-30.79109931708719,-20.896077960145973,-10.666955015479065,2.0950198531153355
0,-17.158780484186284,-18.729698060487408,-12.335864578937128,-6.696145587051601,2.1000199004974753
0,13.780432458437728,13.601700785622937,7.794348129083544,15.944663795305997,2.105019947879608
0,-16.47035428041211,-19.126902780126493,-12.22543983685121,-12.914526868181284,2.110019995261748
0,19.718859309781042,18.904491241392282,12.344771522856394,8.366282422619962,2.1150200426438808
0,-14.051926760490245,-14.29411715058515,-14.805017792074214,-12.972908332157207,2.1200200900260207
0,1.0772875191993911,9.537272043159337,8.10519221818654,1.8079008678367472,2.1250201374081534
0,32.51650215918492,52.27865882147195,32.27540155338933,29.808710023075207,2.1300201847902933
0,-16.56428283070749,-33.809956817984336,-20.5643897873864,-16.150480866397473,2.135020232172433
0,0.9049325586174488,-5.7285748787425685,-4.76418180581843,-11.49967180112775,2.140020279554566
0,6.214148336002204,-3.5071953642717557,9.796025496388399,-1.1288627815219296,2.145020326936706
0,-10.126635489627626,-27.825818277071495,-22.723767882093174,-15.698053807230734,2.1500203743188386
0,17.652581090643906,8.715556381456969,12.576438057770117,7.212755122851652,2.1550204217009785
0,-2.28820191447,20.146928610713633,6.866643315284173,11.453564010258141,2.1600204690831113
0,-16.918984496533646,12.398298409913387,5.416847889589294,4.944372856337067,2.165020516465251
0,3.4002333529960493,4.489665777163239,7.307051779228938,14.375181661731212,2.170020563847391
0,-10.480548356791614,0.9810307094577249,-12.382745017795731,-14.024009573685182,2.175020611229524
0,-9.48132961619184,-36.7376067965971,-18.132542503512816,-14.303200850324137,2.1800206586116637
0,30.50788958494833,30.983753256090502,25.067659320579494,21.41760783175164,2.1850207059937965
0,-16.1928907432822,9.73511086508859,-4.9021395466781,-3.7915835272416465,2.1900207533759364
0,-26.77367059105659,-33.6535339723097,-24.111939106576802,-23.96077492719859,2.195020800758069
0,-27.37444994782299,-8.232181258828037,-14.301739360055315,-10.309966367664275,2.200020848140209
0,-30.31522880099166,-30.78083099599869,-22.941540306716803,-18.179157846983372,2.205020895522349
0,4.023992864490989,19.240516816339344,16.888658055432277,12.821650637846124,2.2100209429044817
0,-22.076784934347025,-18.23813782048046,-13.491144270612962,-11.227540909356488,2.2150209902866216
0,31.8824378206222,19.863205095295523,22.41905271836559,21.223267515409248,2.2200210376687544
0,-3.0783388523364437,8.254545565271666,3.689249025237602,11.504075915766816,2.2250210850508942
0,-8.759114935482756,-19.864116409426067,-8.480555347758523,-1.7251157055113786,2.230021132433027
0,12.02010958853471,-7.952780827813974,5.4496396011912465,4.245692653494645,2.235021179815167
0,-52.28066526270558,-48.41144768801587,-47.54016612586025,-35.2134990055292,2.240021227197307
0,-8.831439470506908,-2.8501169862356206,1.660027474273285,7.807309319728369,2.2450212745794396
0,28.94778698553847,17.571211283368193,22.33022040625714,25.33811763242856,2.2500213219615794
0,-15.242985873252724,-2.097462872446318,-4.4995873246956615,5.608925935627518,2.2550213693437122
0,9.586241974226457,16.083860552754185,5.980604286134042,12.609734231267078,2.260021416725852
0,16.545470548652883,7.6851815646307955,17.160795242825884,18.790542519997793,2.265021464107985
0,12.654699870069253,18.5865001679008,18.480985548683712,20.34135080113726,2.2700215114901248
0,8.053929957415145,-1.582183633821102,5.161175205785673,6.012159072443174,2.2750215588722646
0,-40.3168391712428,-13.630869837762845,-22.29863578490986,-23.747032669604817,2.2800216062543974
0,29.27239250226192,22.230441558602593,31.411552577163995,25.103775571068258,2.2850216536365373
0,64.24162499619091,59.2617505573236,55.821740292046265,48.694583790226346,2.29002170101867
0,-2.5991416728785803,17.273057158429616,14.081927357694338,13.12539198199344,2.29502174840081
0,34.600092508668425,6.254361358868397,15.342113768961699,9.086200137872389,2.3000217957829427
0,60.469327551589494,89.45566315268088,65.11229951786625,45.29700824705117,2.3050218431650826
0,-0.8414365364178178,5.016962530689659,4.412484593570753,2.2878162966517976,2.3100218905472225
0,-37.41219975044269,-25.74174051977349,-20.117331017585848,-18.011375728104866,2.3150219379293553
0,27.547037913515766,24.13955398670315,33.17285266918412,23.76943215705479,2.320021985311495
0,-28.933723540016015,-27.089153964617946,-25.52696436175338,-31.25976006365916,2.325022032693628
0,-14.604484105809954,-17.727864387992096,-7.1367821261160405,-23.988952405571823,2.330022080075768
0,30.26475622214876,35.44342270309961,40.21339936055475,13.181855117167562,2.3350221274579006
0,-40.30600254954636,-39.30529270428731,-38.026419917350516,-35.637337508201206,2.3400221748400405
0,-28.10676041372336,-10.834010622772482,-20.176239975531747,-20.84653029315014,2.3450222222221804
0,-15.617517361606604,-15.012731063939846,-13.676060828660738,-14.185723247431474,2.350022269604313
0,-14.128273382129272,-31.691454037677243,-22.125882489523725,-15.334916378808328,2.355022316986453
0,-35.06902846216802,-35.13017955183561,-33.11570496894413,-40.694109693180444,2.360022364368586
0,-24.829782586526292,-23.498907611678035,-23.425528275532265,-22.51330319428732,2.3650224117507257
0,23.839464262172708,36.122361780030985,30.01464758432167,21.847503116494455,2.3700224591328585
0,-6.521287897388164,-12.166371378371542,-9.95517739464676,-5.54169076080496,2.3750225065149984
0,-1.4920390464111455,11.734892911142488,4.064996782192029,7.3691151739337055,2.3800225538971382
0,-32.62278916605496,-30.043845353793557,-29.874829890675063,-12.830079079464731,2.385022601279271
0,12.776461763307195,2.717413824816576,10.23534258181673,10.740726478804728,2.390022648661411
0,-3.0742862377225473,-15.75132955411597,0.8255141955287799,6.061531848572004,2.3950226960435437
0,-3.0550331481128947,1.75992450925433,1.3556849466248806,8.272337029342667,2.4000227434256836
0,-6.775778946716215,-9.548823984519727,-4.064145168837872,-3.0068579799637174,2.4050227908078163
0,-7.14652361206763,-7.727575034303103,-5.383976154802709,-8.406053180819805,2.410022838189956
0,2.8627328777948255,7.513671361583341,1.0661919850229604,-2.0852485746088623,2.415022885572096
0,-37.51800945456398,-36.315084794638565,-32.433640752610486,-26.014444162175227,2.420022932954229
0,-9.488750585496714,-10.243843499828937,-11.963474369971955,-12.56363994335339,2.4250229803363688
0,-23.24949048963834,-28.30260474923503,-27.85330886767818,-16.482835916520326,2.4300230277185015
0,-3.700229139793654,-3.42136853618177,-7.063144244405129,-1.042032078539394,2.4350230751006414
0,-7.240966507323719,-3.5301348523843545,-11.782980497077583,-6.321228425143868,2.440023122482774
0,-0.41170256265199423,-10.348903688532578,-4.372817621298613,-3.5404249513757513,2.445023169864914
0,19.897562724183338,27.802324965150937,13.61734438812521,19.390378348048188,2.450023217247054
0,8.8268293828195,7.273551118207103,13.73750553646115,5.9011814781920355,2.4550232646291867
0,-12.263902557918481,-19.7452252206219,-16.702334171576172,-15.638015556511741,2.4600233120113266
0,-7.804633069665402,-0.5240040429899842,-6.71217473162999,-7.797212751869016,2.4650233593934594
0,-23.255362123611015,-40.96278533991377,-28.13201613881682,-32.516410102988026,2.4700234067755993
0,-6.036089689813196,-9.181569100900802,-1.091858386992767,-1.3856076035466485,2.475023454157732
0,11.863184262860097,3.379644686373603,8.058298531255035,5.375194754250262,2.480023501539872
0,9.7024597660265,15.040856035396587,16.838454623808236,8.655996978904312,2.485023548922012
0,5.111736850892187,1.202064959630802,0.4786098980380489,2.8167990787256985,2.4900235963041446
0,-0.9789844520625829,-5.166728528034314,-0.9512356394948885,0.5576010615122973,2.4950236436862845
0,-4.85970411279837,1.804475584974535,-2.6610819826666865,3.5184029346815393,2.5000236910684173
0,-15.180422101214013,-12.994322688666223,-16.03092912527044,-4.90079529454615,2.505023738450557
0,6.188861613295556,-1.2231233359037847,-2.0807770605793685,5.17000638097681,2.51002378583269
0,5.528147061828634,14.928073656715899,14.18937421875427,12.630807968286222,2.51502383321483
0,3.177434275502968,-9.130731697311214,1.3895247202067313,-0.2683905259792466,2.5200238805969697
0,17.06672328499495,-2.0595393846901735,0.23967445084872996,-0.4275890957294101,2.5250239279791025
0,-9.523985879665394,-13.268349392018251,-5.7801765826031355,3.883212264783383,2.5300239753612423
0,-5.284693188917606,-24.29716170521462,-22.570028373282742,-6.975986438799579,2.535024022743375
0,-0.9653986131546461,-3.3059763089961036,-2.7898809135614053,2.2948147991890737,2.540024070125515
0,-17.546102122317265,-17.194793186671614,-23.329734194635343,-18.384384015364684,2.545024117507648
0,-6.9368036856556445,-9.613612320279278,-8.64958820639447,-12.85358287598665,2.5500241648897877
0,-3.8275032715298822,-3.2824336907462626,-2.639442937444233,-2.902781775213341,2.5550242122719276
0,2.0917991524657973,-8.36125727807937,-7.609298375377928,-1.3919807045997352,2.5600242596540603
0,-22.78889638075932,-24.95008306147116,-25.409154507000366,-27.791179654965582,2.5650243070362
0,16.94041016221603,7.92108898088949,10.420988681834496,2.759621383728514,2.570024354418333
0,16.36971881510427,7.652258871708803,7.351131206102956,9.500422422463558,2.575024401800473
0,11.149029611075502,5.503426633842297,11.801273080816095,4.581223472546594,2.5800244491826057
0,-3.461657417822772,-2.165407710295612,-8.728585679618199,-7.567975455027593,2.5850244965647455
0,-7.202342240323102,-13.204244138593156,-18.95844506113685,-18.177174349382497,2.5900245439468854
0,13.82697517468737,10.956917371214901,16.091694950673435,10.973626800838817,2.595024591329018
0,14.336294858178082,15.07807684153659,12.781834370589616,16.984428007445015,2.600024638711158
0,-15.234383159447944,-18.17076570554223,-20.2480267868728,-19.06477071796559,2.605024686093291
0,-20.53505884810635,-11.939610248157683,-16.567888507346854,-24.493969363958612,2.6100247334754307
0,16.42426782280949,13.571543235992678,12.272249224192594,11.876832081641284,2.6150247808575706
0,4.683596884511152,-3.367305230312909,-0.9176135765014197,-4.002366368000876,2.6200248282397034
0,-14.927071631819683,-7.796155624260135,-18.0374768934652,-12.461564699266969,2.6250248756218433
0,3.8822623048927376,3.704992076997274,3.7026592895167862,-3.3607628982096425,2.630024923003976
0,15.98159872586272,5.766137896464409,15.882794989079628,9.130039049625356,2.635024970386116
0,-3.0890623378715096,-2.392718142903992,-3.0870697781992815,3.4208411588999548,2.6400250177682487
0,5.970279144178541,7.398423981606212,2.7330650037547404,8.261643443966385,2.6450250651503886
0,3.009623202038762,-3.8404357075232487,-8.326800649295752,-4.4875540813237755,2.6500251125325285
0,-8.371030134527857,-6.239297187926027,-11.926666721434348,-7.746751403402977,2.6550251599146613
0,-3.8916808357677204,-1.1481604371021747,-9.98653319613647,-2.9459485085556443,2.660025207296801
0,16.197671128265952,15.502974567658052,9.283599943930167,18.77485461723366,2.665025254678934
0,-6.742974212506831,-5.805892151060421,-9.526267283363628,-8.904342012099095,2.670025302061074
0,-7.513616828401029,-18.29476057092005,-14.426134859851205,-22.373538382832127,2.6750253494432066
0,30.745743310138966,17.466369330597356,23.44399723302623,20.387265519063508,2.6800253968253465
0,6.555106232220566,5.367497576266749,5.674129013923435,1.488069708030391,2.6850254442074863
0,8.254471965841951,9.758624188516427,11.434260500841273,9.158874198274217,2.690025491589619
0,-9.526159462083863,-8.860250810919307,-10.99560828912207,-16.46032099653724,2.695025538971759
0,6.6332119748994165,6.400872599277121,1.5045226606925253,-5.589515862795775,2.700025586353892
0,-6.167413696769125,-6.088005559642155,-13.485346632922695,-12.228710386314091,2.7050256337360317
0,12.401963549363522,9.083114733590534,4.134783847271652,3.4820954479214334,2.7100256811181644
0,4.861343739541581,9.824233500082325,3.014914118918306,3.2029016555027767,2.7150257285003043
0,16.69072689944489,16.445350760378297,14.195044199669026,14.093708252063106,2.720025775882444
0,0.22011305390409552,1.746466534069734,-0.8448258932945263,6.364515252726172,2.725025823264577
0,-15.670497772964094,-13.702419160106972,-20.0246961432645,-11.0746773280864,2.730025870646717
0,32.87889444269449,38.588693696159844,32.36543346642361,30.396130523537806,2.7350259180288496
0,59.07828972403959,53.479805120274236,52.285562951994415,49.60693882063111,2.7400259654109895
0,6.037688091933517,10.350915127188047,9.455692327651178,0.35774757413706904,2.7450260127931223
0,4.297089564203489,-1.207976271201332,1.7158216047805115,-9.441443207436649,2.750026060175262
0,6.3164941566736434,10.193130935055692,5.4759507928790105,4.609366483212958,2.755026107557402
0,21.105901884221694,13.96423675504171,11.056079900630165,11.870176653238152,2.760026154939535
0,29.60531276065983,29.015341196916797,28.276208935977706,28.00098730939175,2.7650262023216747
0,6.84472679808606,3.136444267364342,2.3363379056138904,7.251798457212182,2.7700262497038075
0,-5.695855993167653,-6.292454028432454,0.356466814837166,1.0626101007142628,2.7750262970859474
0,8.793564396217306,0.6586463139530616,4.7165956680673835,3.273422242848549,2.78002634446808
0,28.262987975033827,25.66974529875136,27.29672446920082,21.68423488596723,2.78502639185022
0,32.69241475096302,27.85084292950891,30.96685322108548,26.635048031543032,2.79002643923236
0,9.38184472962116,10.451939208114567,14.486981924613296,13.875861679437692,2.7950264866144927
0,-9.298722085483268,5.823034134520879,2.3171105784839265,-0.1633241723452159,2.8000265339966326
0,-0.659285691922025,-3.4458722926567753,0.047239179891400654,-2.4525095270708093,2.8050265813787654
0,4.550153912632954,1.6552199246341737,-0.44263227459497634,5.468305611528245,2.8100266287609053
0,8.609596730540982,7.516310784280314,9.827496211399145,7.299121239550399,2.815026676143038
0,16.30904276375751,9.58740028391512,15.567624633914422,14.839937352687759,2.820026723525178
0,-1.3915079865706637,5.348488420611955,-3.582247011714225,2.5207539458702404,2.825026770907318
0,-1.592055520087245,6.699575190730165,1.3678812691219624,5.071571013182581,2.8300268182894506
0,11.01740016313747,5.910660589955034,5.048009470659869,7.28238854804364,2.8350268656715905
0,-3.9731409372177517,-3.0082553865873347,-7.691862412998003,-3.34679345662162,2.8400269130537232
0,0.37632117826412925,-8.2171727440584,-10.801734387691274,-6.075975008174683,2.845026960435863
0,-12.484213491046326,-18.706091487381354,-16.261606458748435,-15.445156113820916,2.850027007817996
0,-6.46474494541828,-11.965011620613016,-12.97147863047092,-8.194336780080045,2.8550270552001358
0,-25.08527318434022,-16.553933146516474,-21.451350905810642,-16.463517012440533,2.8600271025822757
0,-15.625798206057665,-10.00285606644825,-18.111223286150622,-21.75269681514438,2.8650271499644084
0,28.793679992540163,30.27821961930455,24.068904228618287,20.548123808865892,2.8700271973465483
0,24.803161414932674,8.1392939105091,14.73903163919306,7.9889448573443085,2.875027244728681
0,4.892646063446,2.170366805959316,2.7491589455872507,-1.9502336722589204,2.880027292110821
0,2.122133938763561,7.271438303378757,0.8292861467277283,2.4605882168796733,2.8850273394929538
0,17.701625040449784,16.762508399749596,19.0394132408003,13.181410521194406,2.8900273868750936
0,-7.428880632663334,-4.036422908697506,-7.030459774618176,-4.217766763266039,2.8950274342572335
0,-24.18938308214412,-19.585355626316776,-20.850332902384203,-14.946943640789298,2.9000274816393663
0,4.710117690826884,0.8957102427037597,2.3697938549261615,9.203879884463557,2.905027529021506
0,-5.230378314057079,0.35677469486362257,0.1399204954962907,1.824703808663849,2.910027576403639
0,8.929128903433146,4.597837727095067,9.750047017910394,7.1055281279493165,2.915027623785779
0,6.778639343490346,-0.3811006636955228,1.7801734205683997,6.216352838046901,2.9200276711679116
0,12.828153005838018,10.999959519158724,2.9602997014350647,7.037177934128891,2.9250277185500515
0,15.907669889356209,14.011018271871212,9.510425858041517,12.528003410709598,2.9300277659321914
0,8.047189991801243,4.602075589865834,0.5205518874737204,2.4988292615302283,2.935027813314324
0,-3.7632866901790676,-7.726868532276213,-5.339322213593378,0.39965547960250547,2.940027860696464
0,-28.043760160433227,-20.28581410023826,-23.75919644847861,-12.959517942431695,2.945027908078597
0,-10.99423042221556,-9.014761119069924,-11.56907081972652,-1.7286910117566898,2.9500279554607367
0,-16.694697477343976,-16.713709592598157,-21.54894532847564,-11.727863734994346,2.9550280028428695
0,-7.425161326077885,-9.942659523312221,-12.2888199742294,-0.42703611810233955,2.9600280502250094
0,-12.305621967371223,-10.061610912444277,-8.878694754925931,-7.596208166431792,2.9650280976071492
0,-2.4360793991196994,-0.5305637601533771,0.6114303327544908,-1.115379884831417,2.970028144989282
0,-5.4365336183942405,-2.1295180658608794,-5.508444707095974,-5.174551277731236,2.975028192371422
0,-21.57698462156841,-16.34847382851222,-18.708319869868266,-15.23372234911376,2.9800282397535547
0,-9.167432404101376,-1.8874310464912087,-12.428195150181036,-6.662893102288644,2.9850282871356946
0,0.19212303970498948,-3.2063897174633857,-4.138070541512034,-4.672063539684454,2.9900283345178273
0,0.41168171643480195,-0.6053498385332046,-0.18794603629328047,0.44876633702634244,2.9950283818999672
0,10.061243632949097,9.095688593417439,6.9721783735724365,9.829596526526418,3.000028429282107
0,-0.39919120409811987,2.8067255813794705,-1.1876973037965897,0.2304270273959761,3.00502847666424
0,6.800377211536997,15.44776112788317,13.54242693943926,13.751257837783868,3.0100285240463798
0,10.359948885636527,11.698795234691499,4.502551110637624,4.252088955228055,3.0150285714285125
0,17.059523823326547,18.629827902481054,17.392675216431552,16.022920376497083,3.0200286188106524
0,10.31910202871359,15.120859130561843,8.042799262495857,0.353752097475975,3.025028666192785
0,-7.471316495219506,-1.5581110831740828,-6.1070767464825,-8.335415886680057,3.030028713574925
0,1.5582682538290573,4.282917258099612,7.303047193544419,1.3254164189484996,3.035028760957065
0,-0.15214372196038323,1.9139441506692139,4.033171086342892,-0.11375099055062493,3.0400288083391978
0,8.217447579609395,1.5949695905533467,5.343294935381329,1.757081880053928,3.0450288557213376
0,13.167042160468487,2.5159935735519885,10.913418743644018,9.017915025918816,3.0500289031034704
0,8.526640021868625,11.067016095206087,12.793542513433191,13.928748441826482,3.0550289504856103
0,15.196241164080998,5.658037150609408,15.903666246089845,15.529582121754695,3.060028997867743
0,2.7658455863073335,-8.050943265707565,-0.06621005819810352,3.9204160585395793,3.065029045249883
0,5.045453286809412,4.450074840462504,7.413913599755673,13.101250243880715,3.070029092632023
0,18.215064263090763,20.54109146318265,22.434037218356675,28.922084668376982,3.0750291400141556
0,2.724678511851834,-1.1878934039775946,-0.44583920489873685,8.112919321203742,3.0800291873962955
0,11.364296028852216,6.223120231732084,9.684284326438343,13.273754189859794,3.0850292347784283
0,-2.8960831909817606,2.944132362408817,7.234407807961273,16.204589260340782,3.090029282160568
0,-4.046459153221173,1.2851429797466056,-4.29546876536596,6.645424517348864,3.095029329542701
0,-7.2268318634815065,-14.163847924756874,-12.715345398894765,-7.403740055494486,3.100029376924841
0,3.9927986729223237,11.387159640514207,11.654777902184598,19.16709552477733,3.1050294243069807
0,-1.0575675490348493,-0.23183433263129655,-2.065098867065902,4.427931240646206,3.1100294716891135
0,-4.487930534271213,0.3291701475400399,-2.22497571160903,-0.6012329260691438,3.1150295190712534
0,-21.78829028747709,-9.16982692737364,-15.784852636388386,-7.9503969940709975,3.120029566453386
0,-8.848646812592301,-0.5188255656227484,-2.0847296458902873,3.5804390179079117,3.125029613835526
0,5.400999887536223,7.492174224837578,0.5353932560895613,1.9912750913135344,3.130029661217659
0,3.300649810792203,1.3231724361015647,-2.1944839337694737,-1.4078887923818963,3.1350297085997987
0,6.030302955092163,14.814169059935997,-2.5343612185921227,-2.7470526517663667,3.1400297559819386
0,8.249959317957718,3.1551640875001197,2.0157613986260317,-5.06621650534907,3.1450298033640713
0,25.32961889622244,22.476157509120547,20.9758839148554,-0.6153803713900068,3.1500298507462112
0,20.30928168551014,15.39714931399878,12.786006326479592,-14.50454426778462,3.155029898128344
0,20.63894767966217,27.758139489804044,21.296128628640886,-2.623708211897082,3.160029945510484
0,34.968616870395266,42.66912802214108,38.106250814740584,17.35712777944278,3.1650299928926167
0,44.368289246901554,51.21011489373809,42.62637287577643,19.74796368931454,3.1700300402747565
0,68.60796479497176,65.42110008334907,60.406494799351215,40.08879949959126,3.1750300876568964
0,44.037643495859676,40.1520835648124,36.326616568760606,14.799635189951635,3.180030135039029
0,60.37732532557948,52.98306530676893,49.13673816264087,20.710470737536525,3.185030182421169
0,39.04701025488779,33.68404527299262,27.886859555203117,10.741306117280304,3.190030229803302
0,33.65669824969024,35.23502342291153,34.83698071672132,11.99214130242156,3.1950302771854417
0,25.02638927175517,33.00599971212915,24.167101614036465,11.532976264849898,3.2000303245675745
0,29.006083279517178,30.8369740928278,26.397222210989586,12.803810975270453,3.2050303719497144
0,15.995780228635912,17.35794651406415,18.047342468768935,10.65464540323281,3.2100304193318543
0,17.515480072400265,19.358916922209794,20.717462346231407,13.975479517120835,3.215030466713987
0,13.445182762148681,18.419885261466625,21.72758180014803,10.186313284144369,3.220030514096127
1,21.82488824755212,17.940851474161292,14.6377007853148,9.317146670360561,3.2250305614782597
0,16.44459647663517,9.661815500874784,12.027819254690307,8.02797964077384,3.2300306088603996
0,6.224307395753737,7.322777280686171,4.6379371597211705,6.64881215947867,3.2350306562425324
0,-5.08597905007146,-8.486263248353827,-7.421945549141041,-1.3603558101658186,3.2400307036246723
0,0.40373708354043103,4.4146938513731415,3.808171078160872,5.660475694702969,3.245030751006812
0,-7.906544259056581,-10.484351482485252,-4.611713008295076,-3.5086933633297828,3.250030798388945
0,-10.10682313318367,-10.57339931196118,-6.101597858268601,-1.2078630218007538,3.255030845771085
0,-9.127099593549941,-3.882449698477906,-6.7514835212082005,4.672966681753412,3.2600308931532176
0,-25.277373693929633,-15.771502702654256,-17.091370045983037,-10.386204290159544,3.2650309405353575
0,-15.667645486757888,-20.850558384134413,-19.001257480506002,-9.21537597484269,3.2700309879174903
0,-13.297915022800227,-10.859616801253635,-5.711145871367051,3.7754515908753583,3.27503103529963
0,-11.97818235118195,-19.188678010796853,-18.421035263753232,-7.173721629321502,3.28003108268177
0,-20.298447519592536,-15.597742067986005,-20.260925701504306,-5.642895671390609,3.285031130063903
0,-29.15871057419203,-30.656809026384238,-22.920817226899604,-17.662070570817384,3.2900311774460427
0,-36.30897155909548,-34.49587893749512,-35.13070988022341,-23.841246362155108,3.2950312248281755
0,2.300769484083975,3.385048149613758,3.5993963005175873,9.18957692139442,3.3000312722103153
0,-7.899487484113683,-15.00402781201462,-7.590498720760838,-1.9296007522474503,3.305031319592448
0,-40.29974250173346,-46.67310686778476,-39.47039497885401,-30.648779414573458,3.310031366974588
0,-12.299995605311214,-20.38218906116441,-18.930292507077056,-5.67795909630323,3.315031414356728
0,-18.35024682931958,-22.12127443294123,-21.470191336548805,-5.137139826876579,3.3200314617388607
0,-26.18049620614803,-27.78036302122205,-28.180091495994862,-18.626321634529326,3.3250315091210005
0,-29.030743766154973,-33.839454861643,-34.57999301175878,-20.175504546408188,3.3300315565031333
0,-19.90098953739339,-31.008549987149596,-29.629895907493463,-17.354688588222665,3.335031603885273
0,-11.961233545548701,-15.247648427792097,-19.309800203932873,-10.063873783976833,3.340031651267406
0,-14.25147581433572,-12.836750211045539,-22.619705919107396,-7.813060156143269,3.345031698649546
0,-20.271716365899174,-18.755855362439757,-18.999613068742676,-10.34224772602842,3.3500317460316857
0,-8.361955220907507,-3.834963905995804,-8.839521666571896,-6.531436514010651,3.3550317934138185
0,-5.562192398630572,-0.2940758645486471,-6.3394317247108845,-2.4806265396651925,3.3600318407959584
0,-7.482427917271481,-7.4131912602063075,-6.40934325416014,-9.599817821910346,3.365031888178091
0,-10.562661794256893,-13.512310114595394,-12.069256265126542,-12.899010379039021,3.370031935560231
0,-11.532894046225387,-14.24143244862592,-9.789170767022272,-7.988204228531345,3.375031982942364
0,-5.593124688899925,-12.850558282106372,-11.179086768317235,-6.757399386911365,3.3800320303245037
0,3.156646262838139,-6.249687633600133,-7.569004276472234,-4.8065958698449025,3.3850320777066436
0,0.9564187945741567,-0.6888205206159472,0.6610767019524365,3.9742063076158205,3.3900321250887764
0,-10.093807107977048,-6.927956959975054,-8.838843838958335,-3.694992869268531,3.3950321724709163
0,-1.414031458923949,-5.597096968040763,-1.3787659046667498,-3.494193415112318,3.400032219853049
0,-2.224254272001873,-6.226240560694333,-2.268689500234693,2.6866046556067698,3.405032267235189
0,-9.924475560538271,-16.425387753187987,-15.84861463031177,-8.562598671408953,3.4100323146173217
0,-14.02469533735778,-17.694538559859804,-12.248541298915557,-12.291803410164805,3.4150323619994616
0,-19.294913614399654,-17.983692993722432,-19.378469509006067,-16.4910095739978,3.4200324093816015
0,-17.255130402261745,-16.612851066164858,-17.12839926211875,-4.570217175174041,3.4250324567637342
0,-12.685345709937272,-14.15201278689777,-11.948330558197414,-7.119426224851122,3.430032504145874
0,4.104440455050649,-6.711178164093521,-0.20826339572100017,8.57136326657748,3.435032551528007
0,-6.805771913879318,-10.450347204666716,-10.608197772128118,-3.6478487109960427,3.440032598910147
0,-13.11598282279856,-15.079519914494558,-12.358133684119254,-11.767062167631002,3.4450326462922796
0,-11.456192277163034,-6.728696298414722,-9.468071127572179,-4.346277113106016,3.4500326936744194
0,-18.546400281418343,-13.14787636017491,-21.738010097290974,-14.205493556540217,3.4550327410565593
0,-8.506606838726048,-4.727060102496947,-10.427950586774866,-4.564711506212607,3.460032788438692
0,-2.476811950989218,-4.366247527225574,-3.257892588149309,-2.0939309695808634,3.465032835820832
0,4.712984380752077,-2.9654386355467532,2.242163907493177,1.19684804647997,3.4700328832029648
0,-6.317217844207145,-6.264633428181891,-6.147781090451302,-6.232374464622769,3.4750329305851047
0,5.502581373487736,7.126168094500724,8.072272427575175,6.988401490662479,3.4800329779672374
0,0.8323820331838025,-0.4530340677110925,3.702324471100252,1.849175905918133,3.4850330253493773
0,-19.527815865749346,-14.582239915018448,-18.35762495048546,-16.040051225332387,3.490033072731517
0,-3.3980123235717024,-1.9914494473749018,-1.6275758276275227,0.7207200906213047,3.49503312011365
0,7.421792660153442,8.48933733576342,9.412471849740891,14.12148984788327,3.50003316749579
0,-5.26840091369066,-8.539879564783732,-7.80748190801133,-9.947741959371298,3.5050332148779226
0,6.881406955796356,8.580899851786475,8.682562909430512,-3.856975337138259,3.5100332622600625
0,24.931216269226553,18.211675586074076,23.812606312090196,13.333789708615239,3.5150333096421953
0,2.7310270264216143,-0.8075523619164799,1.682648309216943,-4.9654468280759225,3.520033357024335
0,-20.739160773784015,-20.666783992857532,-20.067311090892506,-25.394684953233885,3.525033404406475
0,-16.62934713269913,-23.826019307239353,-21.147271880018888,-24.363924672232972,3.530033451788608
0,-10.97953205061959,-17.215258304203367,-16.08723404878103,-13.363165988806607,3.5350334991707477
0,-3.629715526457257,-5.46450098106018,2.3728024138280075,-2.952408904805889,3.5400335465528805
0,0.9701024418905068,-3.25374733363235,5.052837519953502,3.6883465792037926,3.5450335939350204
0,0.7099218570007607,2.427002643085919,7.952871282001823,1.84910046313779,3.550033641317153
0,-11.530257278377695,-3.3322510455818386,-7.087096287915116,-3.74014725309276,3.555033688699293
0,-11.900434961169674,-18.261508394096083,-16.097065177843,-15.219396569532428,3.560033736081433
0,-8.160611187563,-5.310769396357308,-12.767035375322976,-9.468647485727892,3.5650337834635657
0,-12.630785952758377,-15.220034045310964,-11.087006866805968,-13.517900000277294,3.5700338308457056
0,3.4590407489880266,-1.189302332865476,-1.3669796375632095,0.8328458892845871,3.5750338782278384
0,15.248868923976069,17.2714257497911,12.37304632790679,17.013590186115664,3.5800339256099782
0,1.2386985783565658,4.692150211467625,-0.7169289547949286,4.334332893290013,3.585033972992111
0,-13.071470282233792,-5.257128939618248,-13.756905470316559,-0.7749259867788393,3.590034020374251
0,-8.90163765222346,0.7335883042899827,-4.016883203214094,1.715813547754196,3.595034067756391
0,-5.931803525434067,0.11430195090263351,-1.076862137493535,-1.9334485014779337,3.6000341151385236
0,-4.46196789487936,-8.66498799194725,-8.836842256596281,-7.1827121328207735,3.6050341625206634
0,-8.362130752900912,-2.9242815161878206,-0.9868235435204071,0.46802265558518263,3.610034209902796
0,4.987707908695869,7.636421386586758,8.093194019083967,20.738755865761853,3.615034257284936
0,-1.2324519015593989,4.437120724886563,-2.556789551357255,5.129487499363112,3.620034304667069
0,-11.582610174987742,-18.60218349292834,-15.146774237481237,-9.90978244274609,3.6250343520492088
0,-12.502766902577136,-8.891491258320846,-12.506760021577547,-7.529053960109193,3.6300343994313486
0,-10.582922074524092,-5.8308025619768244,-8.81674688501198,-5.318327051942877,3.6350344468134814
0,2.7769243199615397,2.81988260629342,1.0532651918997158,1.7123982831399995,3.6400344941956213
0,10.816772292298692,12.590564257076792,16.563276229433882,7.743122046876198,3.645034541577754
0,-1.4533781461163888,-2.4387575992378223,2.853286247698998,-6.706155759033241,3.650034588959894
0,5.856473015714292,5.421917047271113,5.953295266120447,-3.975435132991146,3.6550346363420267
0,2.1663257884054996,1.492588206149485,6.623303303423905,0.27528392674013713,3.6600346837241666
0,7.326180182231059,12.55325588661544,15.093310377695142,8.956001422099037,3.6650347311063065
0,14.146036206985478,9.943920097348714,10.923316506180516,10.846717354867602,3.6700347784884393
0,14.645893871675364,13.96458084617421,12.19332170503784,17.92743172614402,3.675034825870579
0,20.795753184115156,14.405238139811116,11.173325989253305,13.588144535891681,3.680034873252712
0,22.12561415055382,25.08589198364605,25.733329372580208,21.288855782640177,3.685034920634852
0,14.37547677541211,16.036542381430756,16.163331867276376,10.089565463339376,3.6900349680169846
0,39.04534106111851,32.67718933497499,32.49333348372063,33.020273573275965,3.6950350153991245
0,19.64520700784084,18.90783284389336,21.09333423008768,17.990980105852,3.7000350627812644
0,19.985074613236037,18.728472905489014,23.73333411215699,13.581685052368803,3.705035110163397
0,17.714943872609897,19.72910951490489,12.603333133392317,12.112388402198992,3.710035157545537
0,7.184814779347734,15.649742665364778,6.1633312953358566,4.893090143255515,3.71503520492767
0,1.494687325396776,3.6103723483973282,0.6533285982073952,-4.936209737519892,3.7200352523098097
0,3.7245615018300566,5.73099855424227,4.993325041505167,0.7844887463729455,3.7250352996919425
0,7.094437299249076,6.111621272329666,5.293320624321867,1.035185581396227,3.7300353470740824
0,3.1443147078471587,-0.9077595084465329,-2.2466846545999486,-7.424119245905675,3.7350353944562222
0,3.9641937173582114,3.632856200423018,0.09330920321685487,-7.11342574879144,3.740035441838355
0,-15.235925682797603,-7.556531612745338,-9.846697803769715,-9.382733940048347,3.745035489220495
0,-14.216043503008349,-11.355922959530346,-15.136705676751037,-14.192043831714047,3.7500355366026277
0,-9.45615975281627,-7.185317850996596,-10.136714416117249,-6.59135543487974,3.7550355839847676
0,-14.046274440582271,-11.48471629738784,-13.49672402113642,-7.31066875964131,3.7600356313669003
0,-8.096387573490782,-1.1741183080753868,-3.2467344899302675,-0.7899838152678592,3.76503567874904
0,-9.966499157639559,-6.413523891699709,-2.626745819693229,-2.8593006104778276,3.77003572613118
0,4.373390801785775,0.8570669436161277,2.1932419929408735,7.581380846280125,3.775035773513313
0,-9.096717699804504,-13.232345809858478,-11.196771048391073,-2.087939453445876,3.7800358208954528
0,-26.44682466648578,-27.241762159233804,-25.29678493962127,-17.36726151815359,3.7850358682775855
0,-33.766930101197204,-35.69118211023789,-34.49679967548463,-28.21658535583702,3.7900359156597254
0,-19.32703400477715,-16.330605666318576,-10.686815248627417,-5.915910973128607,3.795035963041858
0,3.1028636243208987,-4.910032828447889,1.743168350498061,7.214761624906369,3.800036010423998
0,7.032762789213877,-0.12946359584608202,6.7431511327406435,13.755432433952384,3.805036057806138
0,8.522663493359133,-3.8288979669124976,7.34313310914618,15.386101449317135,3.8100361051882707
0,1.0325657397847687,-9.018335939675122,-2.6068857096250353,4.916768665261495,3.8150361525704106
0,-11.21753046893896,-5.527777511735198,-2.7069053132766867,-0.34256592501190386,3.8200361999525434
0,3.702374869720323,-0.037222680135938824,-3.0669256915522065,3.4580976710486913,3.8250362473346833
0,-9.987718241400836,-15.556671441379947,-8.116946833953492,-8.261240554240299,3.830036294716816
0,4.052190200883102,-2.7761237913834926,4.533031270381823,9.55941939143402,3.835036342098956
0,12.762100199925133,9.104420274552723,13.373008632511587,14.950077500278347,3.840036389481096
0,0.8320117588348691,-6.7950392385723495,0.19298526321792564,1.2107337639610356,3.8450364368632286
0,-9.55807511974401,-9.544502325706489,-8.91703882721761,-7.058611826566398,3.8500364842453685
0,3.6018395666767926,-3.673968981498845,2.0829363713314004,8.062040719304646,3.8550365316275013
0,13.141755820669124,-4.183439200025289,7.852910869132577,10.002691392062616,3.860036579009641
0,23.15167364443995,15.127087025055854,24.302884676253917,27.933340181652923,3.865036626391774
0,26.121593038964228,27.837609699849615,30.242857801703813,23.223987076680025,3.870036673773914
0,20.691514003266114,17.41812882924796,22.84283025252401,15.08463206377811,3.8750367211560537
0,9.00143653421477,9.888644416298995,14.792802033365414,8.405275127573239,3.8800367685381865
0,14.47136062683725,16.04915646230625,16.452773146699755,12.295916251125712,3.8850368159203263
0,14.221286274731824,3.9896649672027302,5.472743593283227,2.766555416362989,3.890036863302459
0,0.3112134702735728,0.030169929891690817,4.562713372611832,4.127192604375528,3.895036910684599
0,0.14114220490221346,-1.5793286513118625,-2.9873175166025243,1.9378277956886858,3.900036958066732
0,4.851072469579591,-3.868830778227113,-0.8773490759701379,4.52846097046085,3.9050370054488717
0,-1.768995744939879,-6.7583364525049,-1.3573813071066756,1.5590921085417437,3.9100370528310116
0,-4.3690624480138185,-7.967845675403506,-9.237414211461735,-8.640278810441517,3.9150371002131443
0,0.9008723510455867,-7.997358447587643,-10.19744779010873,-4.949651806800181,3.920037147595284
0,-9.149191356866103,-2.606874769032374,-12.52748204342022,-4.179026900450079,3.925037194977417
0,-7.369253580501775,-5.176394639090237,-7.527516970812894,-2.3284041108084357,3.930037242359557
0,-3.7993143280727484,-3.1759180566302962,-0.9275525707516,-2.367783456896022,3.9350372897416896
0,2.1406263927756015,-11.935445020070036,-8.157588840986772,-8.387164957407858,3.9400373371238295
0,-11.109431425212492,-10.194975527216277,-12.927625778698554,-13.416548630584854,3.9450373845059694
0,-2.4794877889484095,5.565490424883284,-1.2876633803779052,-6.895934493920594,3.950037431888102
0,-16.149542704807637,-12.154047160198179,-8.727701641754695,-16.79532256392983,3.955037479270242
0,-3.759596178401586,-8.273588278423464,-2.987740557916259,-15.144712855995985,3.960037526652375
0,-11.139648214463527,-20.663132925057468,-19.407780123330948,-24.894105384119694,3.9650375740345147
0,-6.919698816868884,-9.292681094241297,-12.777820331586085,-13.293500160609927,3.9700376214166475
0,-1.029747988720772,-5.262232778827139,-10.397861175060749,-3.7628971960485527,3.9750376687987874
0,-3.0997957325318266,-0.8417879706412643,-3.2479026449022967,-2.7722964997246966,3.9800377161809273
0,-4.469842050437173,-9.45134666088695,-8.27794473132068,-4.211698080221996,3.98503776356306
0,-6.909886944242322,-2.010908840310231,-6.467987423834432,-1.1611019457407745,3.9900378109452
0,8.070069584613364,9.649525500730938,7.431969288594697,12.069491895718418,3.9950378583273327
0,5.640027534838388,0.06995637195224624,2.4319254172668785,4.090083435997387,4.000037905709473
0,9.109986904850423,20.980383782693846,16.49188097325882,18.600672666338728,4.005037953091605
0,0.28994769248161806,0.3908077415571032,5.321835966982931,0.7312595770908066,4.010038000473745
0,3.35990989501812,14.701228256217794,12.091790407942055,1.6118441577223306,4.015038047855885
0,8.43987350934604,12.171645333393796,11.531744304662682,1.1324263971505932,4.020038095238018
0,7.969838531912358,10.752058978767137,9.731697664659976,0.4030062840735352,4.025038142620158
0,-3.060195041403604,8.242469196902379,3.781650494440789,3.8135838070707178,4.030038190002291
0,-7.9502272151165965,2.482875991369922,-1.858397200278942,-4.015841045398937,4.0350382373844305
0,-8.930257993626961,0.503279365039427,2.521554585802523,-1.805268284922886,4.040038284766563
0,-8.060287380752516,0.49367932040853546,-7.818494142111803,-3.5446979229727056,4.045038332148703
0,1.9096846204124904,3.7940758598106052,9.091456621246529,-1.9341299707808877,4.050038379530843
0,15.389658007193573,7.444468985396131,5.651406881126544,-5.293564439302895,4.055038426912976
0,-0.220367223275725,12.054858698906623,-0.648643357514155,-0.6930013391928498,4.060038474295116
0,-0.530391074413723,6.265245001385251,10.391305909854104,3.2375593191537457,4.065038521677248
0,-2.920413549985491,3.455627893056646,-1.5087453126510113,-0.8718824745648932,4.070038569059388
0,-2.510434653739324,0.29600737349130435,1.0512029787185837,-2.2913267306860896,4.075038616441521
0,-0.9704543892346602,-2.023616558086463,-2.468849212492142,-7.200773459488893,4.080038663823661
0,1.3995272401484653,-2.4232439025222963,1.0610981172498335,-3.2802226709730364,4.085038711205801
0,5.0395102310819135,1.0071253394369297,1.7710449715150467,0.210325625265278,4.090038758587934
0,-14.860505419808915,-19.53250883272472,-17.61900864604727,-16.899128579963435,4.0950388059700735
0,-24.720519715596723,-17.522146418907067,-24.379062731285366,-15.818585295224867,4.100038853352206
0,-4.680532658314184,2.2882125821069135,-3.7691172788372973,-6.008044528030772,4.105038900734346
0,-3.090544248625597,-6.501431827372109,-8.849172281886998,-9.89750628469783,4.110038948116479
0,-14.160554486169826,-14.271079644326488,-10.899227732496545,-15.62697057049994,4.115038995498619
0,-0.7505633698603301,-0.10073086510217505,-3.9392836218764087,-8.076437389676277,4.120039042880759
0,-3.6405708979481455,8.059614514574463,5.500660059462657,-0.03590674542086919,4.1250390902628915
0,-0.8805770681997086,3.789956499148227,-2.7893966786445468,5.454621359775502,4.130039137645031
0,13.78941812179417,12.66029509268962,11.070546173598801,14.84514692349256,4.135039185027164
0,-17.100585325665165,-10.999369701306538,-15.639511374192388,-7.244330057157818,4.140039232409304
0,-8.490587408266077,-21.06903787955305,-12.169569312318586,-9.733809585501398,4.145039279791437
0,-11.510588123128159,-17.888709438070162,-17.169627630360935,-16.423291664657906,4.150039327173577
0,3.5494125335322617,-2.528384371466795,1.0003136832702528,-1.9427762968936415,4.155039374555717
0,-2.3605854338429433,-16.888062672954064,-13.44974535876016,-19.11226348343018,4.160039421937849
0,-0.4605820205491916,-10.09774433461406,-4.4098047429765845,-11.7517532244219,4.165039469319989
0,15.679422778103994,12.502570652428538,8.89013554472151,8.488754481057262,4.170039516702122
