labels,F4,F3,Fz,Cz,timestamps
0,-2.5209616600196183,1.8429703594687634,0.6065771640825172,3.0198559437642998,-2.0000181739703464
0,0.15968327650000058,3.703197029722464,-2.9024204213466405,-0.6088780270928205,-1.9950181285354205
0,-5.589671881129089,-2.2365769260070776,-3.3014184326015226,-2.227612815909625,-1.9900180831004946
0,-3.7090271296698316,1.4336484989953295,-0.8304168623672397,-1.9563484186932127,-1.9850180376655686
0,1.7116175344106301,2.443873311375352,1.7505842968682535,3.104915168655891,-1.9800179922306427
0,2.582262114858114,-4.5659024822734535,-5.028414947266625,-1.0038220497029897,-1.9750179467957167
0,-2.33709338456819,-5.835678875321457,-2.27741458703074,-0.6825600696339709,-1.9700179013607908
0,1.3435510398261934,-2.9254558608804544,1.243585385511015,1.0787011129815518,-1.9650178559258649
0,-0.17580460828380803,-3.5452334316600567,1.7145849784480176,-0.44003849773055825,-1.960017810490939
0,5.184839674741401,6.344988419954687,5.235584199836671,3.401221102328539,-1.955017765056013
0,-0.9945161075907607,-1.3147902983315376,-0.08341694247267628,3.5124799171477017,-1.950017719621087
0,4.456128048030843,5.485430421056961,0.5575815591284069,6.573737950469986,-1.9450176741861611
0,1.7767721447092903,5.915650585441327,7.218579712055918,5.024995205639374,-1.9400176287512352
0,1.7474161853236896,-0.6441297982043559,3.2095775234803168,4.496251685503816,-1.9350175833163092
0,1.9880601725307372,1.0860892767613575,3.6005750001952355,6.607507392396265,-1.9300175378813833
0,5.1787041087733865,6.806307816758124,7.461572148564768,5.948762328126232,-1.9250174924464574
0,3.139347996223136,5.6165258279456545,6.052568974480819,1.7700164939658334,-1.9200174470115314
0,-2.3400081632588883,1.3067433160677293,-3.446434516670905,-2.948730109243393,-1.9150174015766055
0,3.220635631972981,8.966960286404266,-0.6654383198414242,0.022522519162161192,-1.9100173561416796
0,0.1512793834625391,-0.3428232562071024,-2.134442430019498,-4.126225620101187,-1.9050173107067536
0,-2.148076907316893,-13.062607307234433,-6.183446842032875,-5.384974526123612,-1.9000172652718277
0,-1.8574332388979329,-1.712391862030994,-2.242451550429907,-9.09372419764045,-1.8950172198369017
0,-0.2367896097115479,2.6378230845064436,-1.6214565494125668,-5.422474632835755,-1.8900171744019758
0,2.5138539819212133,-0.21196246219905368,4.6895381670735965,2.908774170709299,-1.8850171289670499
0,-1.9655024623031596,3.818251503282333,0.04053260512006934,-6.169977784167455,-1.880017083532124
0,0.8851410592797286,-3.2615350137387806,-4.738473229271959,-2.7187304943802584,-1.875017038097198
0,-0.8442154516703781,1.378677991968946,-6.2474793300536815,-5.077483956558456,-1.870016992662272
0,-8.08357199342348,-7.261109474325149,-3.636485690858465,-7.946238166927755,-1.8650169472273461
0,-7.112928563988229,-3.7008974071464795,-7.635492304841277,-7.544993121185039,-1.8600169017924202
0,-1.2122851608825338,-0.9106858006733302,-4.554499164629578,-2.093748814400251,-1.8550168563574942
0,-1.5216417811232754,-5.550474648724355,-0.9235062623288026,4.997494758877135,-1.8500168109225683
0,1.7290015785656143,-3.2502639447956807,3.3774864103319975,6.788737604243387,-1.8450167654876424
0,0.839644921541608,-1.9500536820449408,-1.2815211382595424,7.019979727000817,-1.8400167200527164
0,-2.999711748858786,-2.269843853309028,3.3694711002217548,4.301221131897966,-1.8350166746177905
0,0.6309315707064902,-3.5896344511635143,-2.5895368659950493,-1.9375381768619038,-1.8300166291828646
0,0.40157488364041494,7.100574532010401,-3.258545028710419,2.633701804586308,-1.8250165837479386
0,5.442218193347989,3.0307831038383823,5.862446620339178,3.044941079948173,-1.8200165383130127
0,-2.597138496894448,3.280991271694265,2.923438089418281,-1.9038203472084245,-1.8150164928780868
0,-2.31649518394537,-3.2288009573702108,0.7144293865968727,-1.5225824734235163,-1.8100164474431608
0,-0.7158518646428115,-1.3685935764532082,-1.5945794802924687,-5.28134529518859,-1.8050164020082349
0,-1.3152085356845595,-6.448386578560699,-4.243588503485494,-1.8501088087716944,-1.800016356573309
0,-3.584565193616182,-5.2281799564011715,-6.882597675049645,-7.488873010108901,-1.795016311138383
0,-4.333921834789932,-5.457973702233986,-4.241606986669446,-10.477637894684316,-1.790016265703457
0,-0.953278455279487,-1.9177678078176141,-1.350616429553438,-0.7564034573716445,-1.7850162202685311
0,0.597364949114754,-1.9275622644861137,1.4103740054625178,-2.0551696924376213,-1.7800161748336052
0,3.1280083827208425,5.4026429366752815,4.551364327675039,8.11606340618063,-1.7750161293986828
0,3.7386518497959234,-4.577152195372002,1.5923545462674056,-1.9927041554828095,-1.7700160839637569
0,7.569295354336765,8.823052348252475,7.073344670148687,8.038527628364259,-1.765016038528831
0,8.209938899889625,12.79325657618375,8.634334707825532,11.159758763137868,-1.760015993093905
0,5.71058248937935,3.2034604964821,9.00532466721464,12.700989253610398,-1.755015947658979
0,-0.4287738749126642,8.543664116423484,0.42631455551345987,2.9222191036360465,-1.7500159022240531
0,3.51186980882965,1.0338674425871837,0.1873043793256488,4.073448316188248,-1.7450158567891272
0,1.5325135421537506,5.194070481027762,3.858294144939368,8.444676893605896,-1.7400158113542012
0,-2.2368426735689213,-6.865726762550327,-6.170716141485668,0.7859048377201363,-1.7350157659192753
0,-3.1061988370325686,-3.935524282518297,-2.5797264737718493,-1.6028678500727505,-1.7300157204843494
0,-4.56555494680491,-4.425322073006621,-0.6887368455442531,-4.731641168567703,-1.7250156750494234
0,-0.5049110011807054,0.02487987224117655,-5.50774725015663,1.0195848835372718,-1.7200156296144975
0,-1.0242669981802985,0.225081559778892,-2.026757680690718,-0.31918969227164484,-1.7150155841795716
0,-3.933622935626626,-3.5747170036925633,-4.86576812991561,-5.8779648943769045,-1.7100155387446456
0,-10.652978811104338,-3.874515811343559,-7.074778590226473,-9.056740720947056,-1.7050154933097197
0,-7.832334621719342,-9.694314856066118,-10.463789053521873,-8.5655171696617,-1.7000154478747938
0,-3.921690363871701,-8.154114130239355,-10.042799510995122,-7.334294237471218,-1.6950154024398678
0,-7.131046033253172,-7.613913625527146,-10.891809952944554,-19.733071920458055,-1.6900153570049419
0,-5.4204016249500295,-4.703713332821915,-7.000820368695875,-5.001850213662073,-1.685015311570016
0,-4.379757133485976,-1.0635132423592368,-7.329830746653556,-8.860629110995838,-1.68001526613509
0,2.220887447103682,4.54668665603036,0.001158925538533473,-3.5694086054262506,-1.675015220700164
0,1.3115321230569734,5.226886372573559,3.77214866071807,1.0218113107257474,-1.6700151752652381
0,7.832176900590998,5.437085917225143,5.793138471816687,0.7430306454867697,-1.6650151298303122
0,9.682821785597806,11.357285299443081,8.86412837147778,7.334249406923977,-1.6600150843953863
0,13.943466783317106,8.677484528002443,10.60511837176083,8.745467602842497,-1.6550150389604603
0,11.824111898024826,15.617683610792769,9.966108483918553,19.866685240421234,-1.6500149935255344
0,7.634757132869462,14.207882554610121,14.187098718236074,20.547902325727605,-1.6450149480906084
0,5.59540248994928,-1.9219186349346684,7.438089083931464,11.759118863273967,-1.6400149026556825
0,2.196047970560927,2.3182800468497495,5.47907958918282,6.910334855956184,-1.6350148572207566
0,5.666693575451051,-5.351521395740008,1.0800702413503611,10.551550305387106,-1.6300148117858306
0,-1.7826606950239594,0.27867704159694223,1.8910610472888427,-5.037234787710851,-1.6250147663509047
0,-3.282014840738757,-4.9811246366642985,-3.547947986389604,-2.036020423105379,-1.6200147209159788
0,-4.761368861545506,-3.740926425798469,-9.756956853055778,-9.234806600573444,-1.6150146754810528
0,-8.270722757001012,-17.22072832067666,-8.115965545716481,-6.403593319495232,-1.6100146300461269
0,-4.590076526168249,-2.370530315479902,-4.674974056721133,-5.982380578641175,-1.605014584611201
0,-7.599430167514115,-12.140332403507099,-7.783982377702231,-12.081168376091133,-1.600014539176275
0,-5.91878367888606,-2.400134577218172,-7.622990499628497,-7.759956709152696,-1.595014493741349
0,-9.928137057487522,-9.559936828350338,-10.68199841277039,-16.04874557422101,-1.5900144483064231
0,-8.667490299798152,-4.029739147985742,-8.731006106588604,-12.487534966610363,-1.5850144028714972
0,-13.486843401451146,-8.569541526574664,-10.060013569646737,-13.846324880397624,-1.5800143574365713
0,-7.646196357110434,-7.789343953916624,-9.219020789581808,-5.675115308393934,-1.5750143120016453
0,-3.5155491604682694,-11.929146419079474,-6.908027753119143,-5.933906242328236,-1.5700142665667194
0,-0.4749018044677419,-11.938948910250092,-5.78703444614571,-2.2926976731506565,-1.5650142211317934
0,-1.5542542816341154,-10.088751414585667,-3.1760408538501252,-3.101489591297455,-1.5600141756968675
0,3.0663934156758312,1.6814460817661945,0.4349530390894394,3.2497180131137324,-1.5550141302619416
0,3.9670412950963114,6.611643593308541,2.915947248265462,3.9209251500676086,-1.5500140848270156
0,1.4076893640851025,-1.1981588653523643,1.536941789286748,4.662131829395815,-1.5450140393920897
0,-0.18166237014318629,3.38203872017734,1.6179366776170525,-1.4166619393787123,-1.5400139939571638
0,0.5489860994601651,0.2022363640803947,3.9289319285270072,2.354543853002033,-1.5350139485222414
0,-0.6703652201169767,-1.6475659195899548,-0.6400724429188192,-0.14425078434654193,-1.5300139030873154
0,-2.339716321880448,-6.6673681167821925,-2.609076421816664,-3.6330458423630514,-1.5250138576523895
0,2.8609328012158532,9.04282978669719,3.0019200067003595,4.6881586880305175,-1.5200138122174636
0,2.11158215623356,5.493027805070461,1.1429168575060342,0.5693628159162003,-1.5150137667825376
0,3.602231750117741,-3.656774047709514,0.313914145402187,-3.6594334496973904,-1.5100137213476117
0,-0.9671184104007772,-0.25657575797955035,-3.7650881148930524,-4.138230099800108,-1.5050136759126858
0,-3.806468318745072,-0.13637731212462045,-1.0540899086210143,-5.687027125155279,-1.5000136304777598
0,-2.465817968295766,-1.7861786964505684,-2.6430912208583512,-10.75582451608526,-1.4950135850428339
0,-1.4351673522239106,-3.19597989716672,-2.062092036476498,1.7353777376696167,-1.490013539607908
0,-0.9645164634711738,1.3442190996573717,-1.4210923401428954,-1.7034203531062682,-1.485013494172982
0,2.0361347051675533,-1.0755816919130399,1.1199078836489242,-0.29221877735213125,-1.480013448738056
0,5.046786160902405,1.7846177422423022,4.000908650472005,4.1389824760603515,-1.4750134033031301
0,4.817437910748747,6.474817416186781,6.671909975767605,7.36018341815524,-1.4700133578682042
0,6.608089961336747,12.535017343702561,4.822911874620365,10.301384059581022,-1.4650133124332783
0,9.148742318768523,6.435217537954006,9.783914361589957,14.542584410279051,-1.4600132669983523
0,3.809394988510666,2.985418011304113,7.814917450587194,10.373784479192365,-1.4550132215634264
0,4.0400479753880845,3.5156187754420563,4.335921154790727,10.724984274119397,-1.4500131761285004
0,-3.0192987162564493,0.13581984162849903,-1.4130745132708775,1.686183801791479,-1.4450131306935745
0,-6.298645082264469,-8.613978779067116,-7.682069541396125,-3.652616931812196,-1.4400130852586486
0,-2.477991118320247,-0.2437770754727478,-2.2910639172840446,-2.621417920993179,-1.4350130398237226
0,-5.697336819733961,-11.693575036049406,-6.470057628249873,-5.800219159926914,-1.4300129943887967
0,-9.426682181357437,-5.773372648720203,-5.2290506611400565,-7.289020642428694,-1.4250129489538708
0,-5.806027197470761,-5.6331699007479346,-5.458043002301591,-6.007822361801845,-1.4200129035189448
0,-10.735371861649147,-5.0429667787303325,-9.267034637529607,-6.716624310739075,-1.4150128580840189
0,-6.004716166693359,0.02723673127507853,-3.2060255520079397,-7.97542648128863,-1.410012812649093
0,-6.994060104624596,-8.622559356380865,-4.5550157303113625,-6.594228864828304,-1.405012767214167
0,-0.9434036667717058,-6.942355026938958,-1.1940051565204257,-2.013031452071737,-1.400012721779241
0,-0.4127468439711775,10.047849734812917,3.737006185591511,2.3281657667784823,-1.3950126763443151
0,7.82791037314448,7.888054944257501,7.358018312289355,8.749362801692337,-1.3900126309093892
0,11.378567993763243,8.368260616389096,10.679031239514114,11.640559662359879,-1.3850125854744633
0,9.949226026465492,10.368466765444502,7.30004498254977,8.02175635777509,-1.3800125400395373
0,4.089884478960599,7.32867340480445,10.52105955584647,3.412952896063139,-1.3750124946046114
0,8.880543358115984,5.768880547005545,11.352074972957507,11.52414928456633,-1.3700124491696855
0,13.271202670041157,4.619088203844637,14.463091246444572,12.815345529877304,-1.3650124037347595
0,12.891862419959297,12.949296386474899,17.624108387694516,11.306541637654687,-1.3600123582998336
0,10.592522611989308,7.749505105333183,13.955126406711223,9.597737612454315,-1.3550123128649076
0,8.933183249089629,7.8297143699993,8.12614531204415,8.998933457747668,-1.3500122674299817
0,4.213844333193698,5.459924189202622,0.34716511101576497,4.4801291760563515,-1.3450122219950558
0,4.424505865442635,6.080134570948974,1.028185810189837,1.541324769151808,-1.3400121765601298
0,-6.284832153527796,-3.25965447732135,-4.180792584164984,-1.5274797616637856,-1.335012131125204
0,-2.34416972323316,-6.919442948449227,-7.739770065726596,0.543715584725398,-1.330012085690278
0,-6.88350684299391,-3.489230835148083,-3.988746627834563,-2.2950891905729787,-1.325012040255352
0,-10.22284351168869,-6.099018129714082,-10.167722263291147,-9.183894086331787,-1.320011994820426
0,-8.832179727546999,-9.168804823923287,-8.256696964241081,-6.292699100981706,-1.3150119493855001
0,-9.431515487970145,-3.0985909089596406,-3.18567072209298,-7.131504232368934,-1.3100119039505742
0,-7.050850789473462,-13.558376375344485,-7.774643527557048,-6.200309477660646,-1.3050118585156483
0,-7.410185627733754,-9.87816121283516,-12.433615370699115,-6.079114833366386,-1.3000118130807223
0,-2.6795199976898263,1.0320545896717301,-8.202586240820438,-2.017920295396924,-1.2950117676458
0,0.14114610628349494,3.4022710439436867,-1.1915561263523808,0.23327414080116837,-1.290011722210874
0,2.7518126901125988,-4.387511838022607,0.5994749849488248,-2.0155315199526447,-1.285011676775948
0,2.162479759748972,-0.9772940442068389,1.7905071056204145,4.495662727260575,-1.2800116313410221
0,-0.5568526789931609,-4.107075562468855,-1.5684597517773655,2.2568568873165686,-1.2750115859060962
0,5.953815379531407,6.343143619514778,7.372574425236295,9.078050964864623,-1.2700115404711703
0,13.57448394069068,11.503363514043507,11.393609648903334,13.189244964072698,-1.2650114950362443
0,11.915153009232725,17.753584132902823,16.58464593084525,14.940438888282792,-1.2600114496013184
0,9.005822588923209,15.263805486803287,10.215683281631286,12.01163273968336,-1.2550114041663925
0,9.996492682445446,11.534027585046246,14.076721710568055,10.23282651918581,-1.2500113587314665
0,12.0471632914641,20.79425043546567,10.207761225710813,11.854020226497303,-1.2450113132965406
0,4.857834416664066,3.7544740444651126,7.958801833953833,5.38521386024615,-1.2400112678616146
0,8.668506057820707,7.034698417180528,9.459843541162115,10.266407418111868,-1.2350112224266887
0,1.09917821395999,0.32492355786079846,-1.4091136476461448,-3.71239910300107,-1.2300111769917628
0,-3.2801491164072405,0.8551494702667127,-0.5180697280167843,-2.0912057066637164,-1.2250111315568368
0,-5.999475934934579,-3.304623842047724,-4.887024695680636,-5.300012396510755,-1.220011086121911
0,-5.06880224305829,-10.454396375466294,-3.3559785462334344,-10.608819175879077,-1.215011040686985
0,-4.328128041772685,-10.274168125957804,-4.614931274961386,-7.687626047533362,-1.210010995252059
0,-1.9274533316036053,-2.5639390887680555,-1.9138828767819056,-4.416433013494802,-1.205010949817133
0,3.083221887269403,12.096290741495931,1.047166653707879,-2.0452400750930275,-1.2000109043822071
0,1.0538976147917993,-0.4634786296570872,4.408217322061226,-7.874047233147004,-1.1950108589472812
0,5.324573850811705,8.756752802922742,7.719269133713501,4.827145511915828,-1.1900108135123553
0,4.765250594916728,10.69698504384486,0.6903220937330097,-0.13166184008438422,-1.1850107680774293
0,1.5159278463302748,12.66721809699885,5.231376206743706,-0.09046928929589834,-1.1800107226425034
0,0.2766056039270307,7.667451965317971,5.402431476969209,1.4007231640619457,-1.1750106772075775
0,2.0372838663586044,3.347686650751901,5.7934879082114135,4.951915519682688,-1.1700106317726515
0,3.547962632129426,-6.932077845442747,5.334545503769702,5.033107777060289,-1.1650105863377256
0,3.4686418995460953,-2.911841522208865,6.895604266396534,1.7342999353413102,-1.1600105409027996
0,-0.4506783333475831,-1.4116043782849172,1.566664198298064,9.725491993257915,-1.1550104954678737
0,-3.2099980687026872,-6.581366412080084,-2.3722746987603247,-2.1933160508973706,-1.1500104500329478
0,-1.9993173086695823,-5.271127621646507,-4.791212423183941,-5.2421241991748815,-1.1450104045980218
0,0.7113639447528446,-6.360888004576738,-1.700148973244539,2.8890675463179822,-1.140010359163096
0,0.5220456896992317,5.229352442021169,-4.019084346924764,-1.9297408163991494,-1.13501031372817
0,0.8527279243284418,-4.110406278662397,-2.4780185419010627,-1.268549289216498,-1.130010268293244
0,3.5034106467329527,1.299835836651176,1.7530484444171632,1.7626421260280583,-1.125010222858318
0,-4.8859061450982715,-2.6899212087133786,2.3241166147624224,-1.4861665724616455,-1.1200101774233922
0,0.2847775467888282,7.290322588610687,-0.344814028166506,-0.2249753864659379,-1.1150101319884662
0,-3.0145382795522275,4.680567231875654,-4.113743481749894,-7.143784317696994,-1.1100100865535403
0,-3.3338536258868436,-8.889187275934734,-1.8626717433111681,-8.992593367604627,-1.1050100411186143
0,-5.583168493732498,-7.22894093190841,-6.97159880994144,-9.811402537084582,-1.1000099956836884
0,-3.6624828842549615,-6.108693732753704,-4.360524678365178,-10.880211826223402,-1.0950099502487625
0,-7.631796798180604,-2.108445674565366,-5.5994493448415055,-1.519021234212738,-1.0900099048138365
0,-7.141110235716588,-12.448196752857623,-5.318372805120396,-10.3978307594527,-1.0850098593789106
0,-0.5404231964910801,-1.8479469625606177,-3.0872950544503617,4.133359600264894,-1.0800098139439847
0,2.2302643203366785,3.4623037019627434,0.3537839123503069,2.6445498475141727,-1.0750097685090587
0,3.7409523157701043,9.562555246590485,5.304864100698789,10.845739984850718,-1.0700097230741328
0,11.561640790626583,11.102807676894482,12.715945515900293,11.446930014362133,-1.0650096776392068
0,8.242329745203836,12.103060997680181,7.707028162719842,14.928119937280718,-1.060009632204281
0,6.953019179029711,8.533315212746801,7.988112045090322,10.01930975371587,-1.0550095867693585
0,8.563709090805173,11.213570324846796,7.499197166080936,10.510499462578723,-1.0500095413344326
0,3.2443994784777805,4.923826335755509,7.520283527975589,4.191689061700071,-1.0450094958995066
0,-2.7049096605998613,0.024083246437180295,7.331371132315027,6.122878548052253,-1.0400094504645807
0,3.4357816706005564,6.744341057309414,4.472459979928273,7.164067917944981,-1.0350094050296548
0,3.096473468972411,4.054599768411913,3.213550071019276,0.765257167118883,-1.0300093595947288
0,3.3671657312339374,0.18485937940757172,7.714641405279069,1.6964462908496987,-1.025009314159803
0,5.717858453805839,0.4751198896393826,6.815733981898381,3.6076352841098416,-1.020009268724877
0,4.438551632723779,2.4353812982774015,5.516827799481082,0.5488241416564533,-1.015009223289951
0,1.8092452635941025,-0.7143563956097997,3.417922856019491,-0.3099871419425503,-1.010009177855025
0,-0.5100606583393982,1.6259068069521634,2.759019148991422,-1.578798572220313,-1.0050091324200991
0,-0.14936613802869902,-11.803829095066149,-1.6698833244830278,-2.117610154682775,-1.0000090869851732
0,-0.6686711804703427,-1.4435641024547765,-2.448784567445786,-2.7264218947056724,-0.9950090415502473
0,-7.317975790593341,-6.40329821553368,-4.447684582879077,-2.3852337974660984,-0.9900089961153213
0,-7.947279973069003,-2.4930314341213813,-7.136583373500039,-5.664045867888036,-0.9850089506803954
0,-11.706583732019087,-6.3827637575959795,-6.215480941581905,-7.212858110546894,-0.9800089052454695
0,-9.34588707075093,-4.532495184896745,-9.54437728880455,-10.311670529498386,-0.9750088598105435
0,-7.915189991630404,-12.252225714445093,-11.603272416116846,-8.850483128077178,-0.9700088143756176
0,-11.594492496085154,-18.14195534391746,-14.552166323553072,-16.849295908712858,-0.9650087689406917
0,-15.75379458457647,-12.30168406987677,-14.641059010009851,-8.098108872757269,-0.9600087235057657
0,-8.47309625645744,-6.611411887557514,-7.899950473106929,-5.906922020435219,-0.9550086780708398
0,-8.362397509917653,0.1888612089314598,-5.43884070927873,-5.505735351034089,-0.9500086326359138
0,-1.281698342171731,5.159135226096811,2.7322702858898675,2.095451136795334,-0.9450085872009879
0,3.6090012501828466,10.059410170487347,2.4133825172129266,-0.4033625552516378,-0.940008541766062
0,1.3297012707545735,-1.4203139517372714,2.7544959895097194,-2.202176425363133,-0.935008496331136
0,0.26040172306814047,3.79996286509982,3.0456107073923118,4.2390095282976,-0.9300084508962101
0,5.661102610479075,1.3302406263503548,6.836726675180955,3.9401953075178415,-0.9250084054612842
0,7.641803936094473,6.710519337127358,4.037843896811803,1.4613809138810918,-0.9200083600263582
0,3.502505702592703,9.380799002190866,3.288962375761988,-0.5374336512949529,-0.9150083145914323
0,1.2132079121409196,-2.4789203742131436,2.0500821150835336,-0.3262483868529847,-0.9100082691565063
0,2.1139105665153983,0.16136121170658413,4.7712031174893985,0.7749367083277027,-0.9050082237215804
0,1.3946136672565035,-2.988356236423262,2.722325385380209,1.6861216353548796,-0.9000081782866545
0,-0.28468278425611016,2.1219272850813016,0.17344892084501531,2.697306395261642,-0.8950081328517285
0,-0.823978786740351,3.1722117799535168,-2.085426274246777,3.088490988918041,-0.8900080874168026
0,4.536725661041839,7.722497251796698,4.265699801897379,-2.1403245830121045,-0.8850080419818767
0,4.88743056021673,3.3527837038562893,5.00682715099104,1.1208596799914117,-0.8800079965469507
0,1.7581359116369804,-0.9369288610703989,4.187955774494251,1.662043778397837,-0.8750079511120248
0,-0.39115828416924486,6.293359559468511,3.0790856734722514,4.163227712603057,-0.8700079056770988
0,-5.640452026840522,-2.076351032310089,-4.439783151358558,-3.165588517154131,-0.8650078602421729
0,-5.359745315903926,-2.846060634348979,-7.008650699375917,-1.9244049107455758,-0.860007814807247
0,-2.489038150536098,0.06423075540635911,-2.8575169697078064,-3.313221467971754,-0.855007769372321
0,1.561669470473107,1.8145231391140035,-2.1163819610543384,8.54796181151733,-0.8500077239373951
0,3.4323775485307944,3.484816518946221,1.9047543282264046,6.769144928009639,-0.8450076785024692
0,5.7030860849617495,3.5151108969184954,6.695891899878755,10.500327881344328,-0.8400076330675432
0,11.623795080732855,3.2054062747693917,10.427030755419857,4.361510670643229,-0.8350075876326173
0,8.684504536173836,12.085702653861397,8.5481708957828,6.48269329428188,-0.8300075421976914
0,7.65521445077178,2.446000035023978,8.929312321082604,5.373875749988964,-0.8250074967627654
0,7.675924823145613,3.906298418462307,8.440455030558518,12.125058034881675,-0.8200074513278395
0,9.786635651105861,6.986597803840725,8.061599022597331,4.846240145371795,-0.8150074058929171
0,8.357346931654321,4.176898190352079,7.68274429476494,5.577422077105596,-0.8100073604579912
0,0.948058660992105,-4.002800423253245,3.563890843864061,5.138603825057426,-0.8050073150230652
0,0.8687708347020535,5.767501961490961,-1.7949613339067945,0.009785383680786491,-0.8000072695881393
0,8.489483447996138,4.097805342887469,6.946187757285959,7.100966747032842,-0.7950072241532133
0,14.870196495683484,11.758109718929028,12.697338112961438,14.11214790875226,-0.7900071787182874
0,1.6409099718639844,2.0484150870438067,-1.151510271895157,-0.8166711381518439,-0.7850071332833615
0,4.1416238698171135,4.738721444016904,4.429642597080426,5.734509598626309,-0.7800070878484355
0,-1.2576618177445538,9.079028786076513,1.1107967138283414,1.7156901108850524,-0.7750070424135096
0,-1.0269470983531535,1.0593371089288124,3.0019520720323625,4.646870390077364,-0.7700069969785837
0,-9.926231979520532,-10.900353592138996,-6.196891334800563,-6.5819495726143,-0.7650069515436577
0,-10.075516468412456,-8.540043321810916,-8.565733513124087,-5.9907697860571965,-0.7600069061087318
0,-9.094800571498727,0.24026791575265039,-3.5445744690152052,-0.02959025885558675,-0.7550068606738058
0,-13.134084294331783,-11.709419882972298,-14.063414207933452,-5.4684109992289525,-0.7500068152388799
0,-8.00336764145731,-4.979106720928748,-10.39225273455679,-7.727232015029555,-0.745006769803954
0,-7.372650616418655,-1.2987926004566268,-7.20109005261411,-5.836053313648884,-0.740006724369028
0,-2.6819332218957506,-0.49847752339566653,-0.7299261649108061,-2.354874901906485,-0.7350066789341021
0,-0.17121545995793058,-5.258161491301452,-3.89876107360904,-5.923696786093841,-0.7300066334991762
0,0.6095026676519659,-3.7478445054985574,2.9924052194710744,-1.8225189720717223,-0.7250065880642502
0,2.4002211592783564,0.4724734329889881,0.31357271263865116,-2.061341465334963,-0.7200065426293243
0,3.76094001318226,4.572792323365747,4.974741404154974,-0.8001642710979758,-0.7150064971943983
0,4.781659227402737,6.253112164792887,4.925911292069593,-7.438987394354653,-0.7100064517594724
0,4.632378799634586,-0.1265670438756209,6.377082374065706,4.422189160145769,-0.7050064063245465
0,3.4130987271581503,-1.756245304114714,2.5582546473526464,13.123365387770189,-0.7000063608896205
0,2.0038190068498647,-0.7459226175275125,-0.14057189130488817,9.664541283531833,-0.6950063154546946
0,4.224539635245138,-3.3355989856494723,4.5806027545546115,6.795716841625146,-0.6900062700197687
0,3.235260608572266,-7.355274409819276,0.301778581183261,5.416892055346763,-0.6850062245848427
0,-0.9240180772376538,5.0150511089236804,-2.3770444153391574,8.518066917245799,-0.6800061791499168
0,-1.7532964264533712,-0.5846224302241287,0.8441337609981594,0.029241419241888333,-0.6750061337149909
0,-2.4625744433567656,-3.564295028014044,-1.1946868937556736,3.810415552746071,-0.6700060882800649
0,1.9081478678852901,-3.963966685142455,-3.163506383477972,-1.4984106911556347,-0.665006042845139
0,-1.3811294967936654,3.5563625978830027,-1.052324711925048,-4.337237321506186,-0.660005997410213
0,-8.270406541375179,-6.983307179254217,-9.061141882632917,-13.376064347199648,-0.6550059519752871
0,-10.599683269556003,-3.9829760166880286,-5.649957898759775,-10.384891776569368,-0.6500059065403612
0,-3.4489596844293797,-7.192643914219004,-9.518772762892409,-7.623719617046117,-0.6450058611054352
0,-9.34823578835102,-10.322310871115707,-8.38758647690128,-8.762547875090089,-0.6400058156705093
0,-6.2975115829758765,-5.911976885957167,-4.246399041886291,-7.191376556291503,-0.6350057702355834
0,-3.2467870692958933,0.5083580433949514,-6.575210458231301,-15.070205665404853,-0.6300057248006574
0,-6.5360622477054875,-4.8013060803930685,-6.50402072570313,-8.789035206241515,-0.6250056793657315
0,-7.775337118063649,-5.570969254315819,-6.742829843474512,-10.297865181557215,-0.6200056339308055
0,-5.674611679649285,-3.600631475011354,-6.101637810093256,-8.286695593074587,-0.6150055884958796
0,-1.7438859311297035,-1.3602927387043984,-3.1404446234947536,0.25447355836595476,-0.6100055430609537
0,-0.41315987069062526,-2.8099530412730456,0.4707497188859072,1.9056422725130662,-0.6050054976260277
0,5.337566503708927,-2.249612378341938,2.2019452198931226,3.7468105493014936,-0.6000054521911018
0,6.558293194032217,3.1407292546575847,7.8831418823661075,6.167978388511703,-0.5950054067561759
0,4.499020201881039,0.061071862376229,7.754339708832103,10.909145789522935,-0.5900053613212499
0,4.499747528353233,5.811415449385058,2.245538701271408,12.650312751043309,-0.585005315886324
0,8.900475174026303,11.051760019981236,7.296738861076578,12.851479270823342,-0.580005270451398
0,4.281203138921089,4.38210557793322,0.3179401891416769,6.512645345495661,-0.5750052250164757
0,4.911931422462174,-2.797547873625765,4.399142685957823,6.673810970649529,-0.5700051795815497
0,6.012660023517459,6.152799668003559,1.8203463516949363,2.95497614106609,-0.5650051341466238
0,2.4733889404553526,0.2831482052970777,0.4115511862632409,3.3561408509531705,-0.5600050887116979
0,-0.9358818287754422,-0.45650225945667955,-0.777242810607887,-4.352694905846582,-0.5550050432767719
0,3.1348477135106845,-1.9261517240895472,-0.2960356392544819,-3.2315311355999783,-0.550004997841846
0,-0.42442243513707323,-1.0258001864078434,0.7051726999976151,-5.750367844401036,-0.54500495240692
0,-2.563692277250149,-5.515447644079617,-0.3936177931649685,-4.099205037974917,-0.5400049069719941
0,-5.832961815317492,-8.505094094499622,-7.272407119015573,-3.6880427216095377,-0.5350048615370682
0,-4.312231051574508,-4.69473953458875,-6.1111952776142076,-8.666880900140457,-0.5300048161021422
0,-8.461499987822311,-8.414383960651126,-6.67998226856047,-5.105719577891928,-0.5250047706672163
0,-5.950768625304287,-5.914027368337727,-4.158768090863218,-5.76455875859717,-0.5200047252322904
0,-4.970036964639126,1.8463302473066656,-11.537552742922694,-5.773398445393877,-0.5150046797973644
0,-6.709305005834038,-4.753311108329154,-5.076336222475481,-6.252238640853444,-0.5100046343624385
0,-4.388572748328184,-5.922951429576827,-2.705118526554666,-1.8410793470014923,-0.5050045889275125
0,-3.657840191028932,-2.2125907104456153,-7.233899651591709,-5.999920565378108,-0.5000045434925866
0,-2.237107332387435,-6.242228944531972,-8.142679593499656,-2.9587622971044967,-0.49500449805766067
0,-6.256374170480752,0.8181338749685874,-6.731458347591255,-3.85760454290466,-0.49000445262273473
0,-1.8156407030247204,-0.9515022448355345,-3.800235908502121,8.40355269680609,-0.4850044071878088
0,1.8650930726023356,0.6188627033190536,0.43098772971028276,4.45470942162966,-0.48000436175288286
0,0.24582715920803488,1.8592287267221255,2.1722125733170805,-3.8741343691114785,-0.4750043163179569
0,5.496561559574465,0.3295958326118341,4.373438628627664,-0.21297867634330406,-0.470004270883031
0,4.427296276279613,0.9299640281354051,2.6446659017621057,6.568176498955102,-0.46500422544810505
0,2.918031311557781,-3.029666679625206,1.8058943985498142,1.2993311557120972,-0.4600041800131791
0,-2.6712333327086384,0.5707037164289611,-3.5528758754184993,-3.2495147073671915,-0.45500413457825317
0,0.11950234517915936,0.6810752234648114,0.4983550853743801,6.041638908258804,-0.45000408914332723
0,-1.6697616530729489,-1.3785521513116628,-2.830412713479542,-0.9072079989630655,-0.4450040437084013
0,1.1409746743171252,-0.5181784006780943,-3.2291792662423453,-2.0260554307008647,-0.44000399827347536
0,0.3017113291765133,-0.14780351736829359,-1.0979445669779122,-3.0849033886488844,-0.4350039528385494
0,-3.257551686657038,-3.457427494043032,-2.9667086095214654,-7.143751874323417,-0.4300039074036235
0,-1.1568143712878933,-5.637050323218167,-2.005471387487799,-7.79260088885178,-0.42500386196869755
0,-6.1060767226505535,0.443328002858034,-0.18423289428697798,-2.961450432804981,-0.4200038165337716
0,-0.15533873841006784,2.083707492204852,0.7270068768231746,1.7296994937847054,-0.4150037710988457
0,-1.464600415947793,-4.385911847040349,-3.0317520673407796,-4.399151108788738,-0.41000372566391974
0,-5.733861752413003,-5.605530006651835,-2.5905097198825326,-2.858002240050264,-0.4050036802289938
0,-8.033122744672067,4.744853021810469,-5.129266073717313,-2.116853899306019,-0.40000363479406786
0,-3.5323833891280145,-9.264762752973592,-2.118021121458502,-1.2957060856015234,-0.3950035893591419
0,3.8783563183203578,0.06562267789097093,3.5132251445796125,3.755441202199897,-0.390003543924216
0,-1.8009036179494335,-3.8839906764218908,-1.3755272677763943,0.2165879652586582,-0.38500349848929005
0,1.4998368064677805,6.856397193509029,-1.2242783507045132,-0.0422657953627605,-0.3800034530543641
0,-1.8194224040551348,3.826786297111326,1.82697190361354,-1.8411200786809867,-0.3750034076194382
0,7.151318754820791,6.987176643520607,2.468223502993352,0.3800251163031981,-0.37000336218451224
0,1.0720602872946547,2.2775682414052865,-1.7805235448272974,-0.05883020935282558,-0.3650033167495863
0,-1.9671978026745178,2.077961098975581,-3.2992692321743835,2.0923139454281667,-0.36000327131466037
0,-4.476455511254728,5.228355224082607,-4.0780135512749,-3.606542418301515,-0.35500322587973443
0,4.794287165467931,1.8987506242646652,4.853243505862782,-1.105399299472376,-0.3500031804448085
0,5.975030231459172,0.8891473067529538,8.664501947299485,8.595743303040905,-0.34500313500988256
0,0.9057736904795985,2.039545278535301,5.215761780795397,-1.6831146097198804,-0.3400030895749566
0,-3.153482454020846,-6.040055453523945,-1.8429769864149468,-8.34197303688648,-0.33500304414003423
0,-0.9227381987175338,-4.629654882492869,0.6282856525129732,-9.880831977468299,-0.3300029987051083
0,-1.9219935401949255,0.780746998834016,1.7095497042855172,3.190308570039822,-0.32500295327018236
0,-2.951248474867691,-2.7188498020365297,1.6108151755477806,6.771448607598275,-0.3200029078352564
0,-0.5005029989639322,-2.678445277394143,3.2120820728195607,4.2425881371518415,-0.3150028624003305
0,-0.7397571085345674,1.6119605806353237,0.6133504024343908,-3.126272839704021,-0.31000281696540455
0,1.2309892004818173,11.662367779975149,3.2146201705243387,-1.315134321628926,-0.3050027715304786
0,-4.09826406780133,-1.0972236717058736,-4.374108616940629,0.6060036927153966,-0.3000027260955527
0,-0.42751690919206725,-10.97681376709433,3.487164045942847,1.9471412047390881,-0.29500268066062674
0,-3.0867693193446524,-1.2064024988558892,-4.20156183490348,-5.461721784133151,-0.2900026352257008
0,-3.4360212937099086,3.264010140709964,-0.7302862534914932,-1.9905852724091742,-0.28500258979077486
0,-4.415272827479566,5.504424159508795,-3.6490092036979176,-2.469449258385024,-0.2800025443558489
0,-0.6245239155309075,3.7548395652662694,-2.4377306791879882,-1.3283137400946923,-0.275002498920923
0,0.14622544753688171,1.2952563653355085,-0.03645067339071828,5.422821284599228,-0.27000245348599705
0,-6.0530247326907665,-15.584325433158142,-4.045169179527239,3.513955817801429,-0.2650024080510711
0,-2.972274450426281,-11.023905822814955,-5.84388619060168,0.525089861376918,-0.2600023626161452
0,-1.5415236995789483,-0.3434847954497185,-0.4426016993096811,-1.743776583063534,-0.25500231718121924
0,1.269227526226864,-1.2830623420868366,-2.641315698007819,2.097356485982771,-0.2500022717462933
0,2.3599792334871132,2.0873615466437796,2.469971821179725,1.958489069984838,-0.24500222631136737
0,0.3007314286475391,-0.8222131198112649,5.171260866179974,-4.100378829648215,-0.24000218087644143
0,5.781484118003773,8.918213667917447,6.1025514447336535,8.350752788429569,-0.2350021354415155
0,5.572237307600657,6.64864191892865,5.893843564164037,11.431883925380689,-0.23000209000658955
0,2.092991003101475,3.8290716418174906,1.7951372312760434,-0.18698541812679853,-0.22500204457166362
0,0.7337452097680914,8.319502844580056,1.8464324524242577,-7.625855241969787,-0.22000199913673768
0,2.5844999325812505,-0.22006446534479912,7.0677292336290085,6.3652744537993,-0.21500195370181174
0,1.915255176335621,-3.889630280926832,3.1790275805721033,8.356403669135688,-0.2100019082668858
0,5.2060109456222525,3.080805404722258,3.5803274985220797,8.377532403694435,-0.20500186283195987
0,1.0267672447619927,0.7112425985082628,-0.2483710076376911,2.2286606564991676,-0.20000181739703393
0,3.46752407777704,-5.298318692664619,1.0029320667248796,5.009788425940467,-0.195001771962108
0,-1.1817185515637358,4.282121538133505,0.8142367261150176,6.900915709908806,-0.19000172652718206
0,-1.4909606396369974,3.7125632978630225,-2.8444570250169336,4.012042505813639,-0.18500168109225612
0,-4.130202182805284,-5.356993406605118,-3.3931491821833615,-3.036831189402415,-0.18000163565733018
0,3.5605568227097883,-7.396548568432159,-2.051839740723572,3.2042946209127128,-0.17500159022240425
0,0.9013163807887804,4.483897819452713,-1.8805286957271827,5.475419933270938,-0.1700015447874783
0,0.46207649526707806,-3.83565423558752,-3.509216042041762,5.136544743951886,-0.16500149935255237
0,-3.6971628301030997,-0.8152047260425535,-5.467901774256805,-9.89233095108893,-0.16000145391762643
0,-4.716401591511471,-3.8647536442827186,-5.476585886608839,-12.671207155918879,-0.1550014084827005
0,-2.8356397848970776,-4.534300982460811,-5.305268372872089,-10.620083874028715,-0.15000136304777456
0,-4.544877405842886,-5.803846732399402,-4.983949226306653,-5.6389611079439375,-0.14500131761284862
0,-4.394114449553399,5.5566091144510645,-3.962628439666707,-5.487838859262774,-0.1400012721779227
0,-3.223350910842772,-6.7929334331078275,-3.3913060052446706,-6.9767171288651975,-0.13500122674299675
0,-0.8225867841531183,-3.6924743661205524,-3.899981914928217,-6.91559591701707,-0.1300011813080708
0,5.688177936311121,5.837986324570821,5.311343839708341,2.7355247765905877,-0.12500113587314488
0,3.3189432563221626,-0.7515513517467898,6.85267126716879,6.506644952616201,-0.12000109043821894
0,10.339709181340249,5.178912614118294,8.724000375658541,10.747764611605454,-0.115001045003293
0,7.0504757162763845,0.39937823113692184,3.4753311727934726,2.7988837535630315,-0.11000099956836706
0,5.6712428653420135,2.5098455080486017,6.756663665545815,4.690002377829047,-0.10500095413344113
0,5.3820106320482015,-1.039685546598144,8.207997860292153,0.561120483222696,-0.10000090869851519
0,9.402779019275723,10.060785075576373,10.879333762758407,10.272238068181812,-0.0950008632635928
0,1.3035480292911164,3.4512573826602204,4.3006713778938455,11.083355130674894,-0.09000081782866687
0,0.8743176638146747,5.501731382266462,1.9620107098926465,-2.0355283320043904,-0.08500077239374093
0,-3.8849120757405666,-5.017792918459989,-4.616648237542702,-4.004412323146992,-0.080000726958815
0,-0.9941411879812795,4.162684487376371,-2.07530546082727,-1.4832968461953715,-0.07500068152388906
0,-3.8233696713545444,0.8531636065927453,-3.0839609562121546,4.437818095545573,-0.07000063608896312
0,-3.5425975240667786,0.21364444592092835,1.2773852802951704,1.7789324988159274,-0.06500059065403718
0,-3.07182474403213,3.2341270119658536,-0.9912667471465552,-2.6399536397727768,-0.060000545219111245
0,-3.6310513288391313,4.7446113111708215,0.7000829656823847,-1.348840323700853,-0.05500049978418531
0,-0.550277275762819,3.2650973497152447,-1.9085655769798697,0.8922724436050321,-0.05000045434925937
0,-5.759502581800896,3.6855851334231615,-5.517212370824305,-8.206615341150806,-0.045000408914333434
0,-5.688727243648734,4.46607466774722,-4.345857411322398,-8.255503680997467,-0.0400003634794075
0,-3.137951257598223,3.2065659577687313,-9.094500693540676,-4.694392578448442,-0.03500031804448156
0,1.4128253804778421,0.48705900821515113,0.766857787975888,-2.463282035391662,-0.030000272609555623
0,-0.026397325039202058,2.477553823538728,3.828218039111927,6.217827946729237,-0.025000227174629686
0,0.7143806302875959,0.318050408006301,2.119580065865888,0.028937366573738778,-0.02000018173970375
0,0.48515925086061507,5.168548765723675,1.82094387407037,-3.0199537773194276,-0.015000136304777811
0,-0.9440614589580022,-1.1309510993972884,2.2323094693247074,0.3411545135223243,-0.010000090869851874
0,4.286718505155902,8.859550816317286,1.8536768570211537,-1.1677377623577903,-0.005000045434925937
0,3.787499147417273,6.460054516199647,5.56504604233415,-1.2566306063197479,0.0
0,7.948280471764049,-2.1994399968893736,1.3664170301611258,3.5244759803386336,0.005000045434925937
0,4.279062481677373,8.13106727947022,1.3777898250958498,7.125581996262332,0.010000090869851874
0,0.5798451801221156,6.37157634733076,-0.33083556849618223,0.7266874398276095,0.015000136304777811
0,-0.799371430319187,-4.187912791667902,-0.129459146358109,1.6477923090442539,0.02000018173970375
0,-3.328587347197897,-8.29740013615078,-4.9280809042297005,-7.941103398291215,0.025000227174629686
0,-1.9178025679835502,-4.88688568456273,-1.486700837717266,1.3000003156822315,0.030000272609555623
0,-5.427017089928735,-3.166369434844099,-5.915318942169722,-4.79889655093173,0.03500031804448156
0,-0.17623090999646013,2.154148615534893,-1.5139352126076013,-4.307793999750092,0.0400003634794075
0,-0.23544402487896743,5.854668469301054,-2.9625496437142584,-3.9466920320691554,0.045000408914333434
0,-0.6246564311087798,-9.394809870875967,1.2688377700997904,-8.985590648768104,0.05000045434925937
0,-4.253868125131216,-4.044286402320199,-3.979772965401553,-4.384489850202129,0.05500049978418531
0,-1.913079103246782,-0.5637611220662015,-0.8083818443175265,1.986610363818639,0.060000545219111245
0,-3.3222893615173255,-9.34323402673711,-1.026988860588924,-9.112290006105821,0.06500059065403718
0,-3.9814988957218493,-7.082705112509106,2.15440599197408,-6.701190959023705,0.07000063608896312
0,1.119292298644255,6.8078256249523195,1.785802719579395,4.93990750646082,0.07500068152388906
0,-1.7399157736929325,-3.5716418096727516,-0.30279867165547114,3.0210053920596076,0.080000726958815
0,7.030876892068623,0.6588925883595204,7.648601824236353,11.822102699377302,0.08500077239374093
0,-1.6583296993698904,1.1394288237777257,0.600004212986266,5.00319942951006,0.09000081782866687
0,-5.017535543457381,-3.7300330986731396,-0.028591499971642953,-2.0457044170906773,0.0950008632635928
0,0.32325936437727915,0.49050682580391214,-1.2771853094011574,-1.7246088404020805,0.10000090869851874
0,0.6040550288747145,8.271048602048015,-0.2557772100935329,-1.0035138404725448,0.10500095413344468
0,-1.5751485451093339,3.071592234744168,-0.024367196789955733,-6.28241941720528,0.11000099956837062
0,0.6956486473156874,5.132137728180002,-2.0129552641781325,-2.151325570246157,0.11500104500329655
0,-5.773553388900475,1.3426850861933264,-3.181541406862495,-6.160232298887039,0.12000109043822249
0,-1.072754648651867,-1.0167656877171503,0.3598743807035014,0.33086039796613964,0.12500113587314843
0,1.0780448733907493,-1.396214590212171,-0.6287078957731593,-0.028047478284966287,0.13000118130807437
0,0.6588451827018863,-1.7656616179345879,-0.5672882304901354,-2.046955926074321,0.1350012267430003
0,3.639646284739539,3.12489323256438,0.2541333824007536,1.2041350562368982,0.14000127217792624
0,6.780448184788258,-1.6045500352281914,4.2455569487494955,0.8352254703266118,0.14500131761285218
0,7.651250887765101,3.3960085821305905,4.6069824742829955,5.616315317824432,0.1500013630477781
0,2.2820543980469097,-0.6534309120019137,5.718409964423335,6.63740460013502,0.15500140848270405
0,3.66285871946552,-0.8928685143509298,3.2398394241603956,5.808493318233612,0.16000145391763
0,-0.6163361445435339,0.8076957783260391,-0.2987291419399463,4.999581472538976,0.16500149935255592
0,-6.595530190725443,-5.98173803068392,-6.227295729552274,-6.049330937022867,0.17000154478748186
0,-1.2047234157379312,-4.801169937922541,-1.2858603342944976,-0.43824391074050567,0.1750015902224078
0,0.9360841840183438,1.8694000603781908,4.695577048433227,5.702842551137317,0.18000163565733374
0,0.01689261232825355,3.1399719682377687,-0.34298357668108465,6.0939284483187475,0.18500168109225967
0,0.047701873011423646,-0.2994542103138275,1.0684577949501448,3.48501378018157,0.1900017265271856
0,-5.381488030097264,-8.198878471320473,-3.1200988321865344,-8.803901454286562,0.19500177196211155
0,-6.450677093000101,-2.238300810689626,-8.48865345353616,-5.292817256161869,0.20000181739703748
0,-5.379865311314617,-8.977721223931965,-5.23720606421514,-6.311733626153543,0.20500186283196342
0,-0.9490526801548586,-3.177139706036854,0.4042433411647603,-0.27065056442903734,0.21000190826688936
0,-1.8782391942141659,-2.6665562514677896,-2.5043052315858088,-4.499568070708424,0.2150019537018153
0,-4.197424847909406,2.3740291457106166,-2.2128517764172813,-2.0484861443943823,0.22000199913674123
0,8.99339036451425,1.9346164915935282,5.448603712854146,2.69259521535358,0.22500204457166717
0,7.68420644875089,4.125205792201481,5.440061242385816,5.493676009462954,0.2300020900065931
0,-1.8949765898959896,0.8857970533369075,4.08152081804786,1.6247562386964682,0.23500213544151904
0,0.8758412534438214,-5.223609719399796,-1.7070175546965298,-2.974164096458476,0.24000218087644498
0,0.7666599834418992,-1.4230145204169353,-6.195553870619612,-6.563084995611456,0.24500222631137092
0,5.707479604683776,-0.5124173439409622,1.6859118755768172,-1.7820064581659427,0.25000227174629686
0,-0.8016998784169865,-3.1818181839926507,0.9773796893869728,-2.5409284831640155,0.2550023171812228
0,-2.1308784616468204,-10.081217034368724,-4.391150423592308,0.8201489306519836,0.26000236261614873
0,-0.44005614085191064,-4.930613888453051,-5.069678457665411,1.1412257846888727,0.26500240805106756
0,-2.399232911790488,1.5099912609302433,-1.5282044068776408,3.002302080350347,0.2700024534859935
0,-1.4284087700807835,0.8505984213600658,-2.7967282649338854,-1.126622181072386,0.27500249892091944
0,-4.00758371117063,-0.8087923994741686,-2.9352500252470315,-4.435546998376081,0.2800025443558454
0,-3.006757730278669,-1.1881811938939597,-1.2837696809804398,-2.804472370271429,0.2850025897907713
0,-1.8359308223433235,1.9124320457961512,4.857712774888858,5.706601704735557,0.29000263522569725
0,2.6648970179417493,8.973047327248322,6.729197349359955,7.877675228169366,0.2950026806606232
0,5.615725795948257,9.693664657801165,4.030684049115232,1.5787482012400695,0.3000027260955491
0,8.716555516823924,6.0842840441531205,4.272172880356611,4.889820624679419,0.30500277153047506
0,8.567386185192978,10.72490549220487,9.103663848785876,7.140892498772805,0.310002816965401
0,5.948217804963597,10.125529007021367,7.835156959540221,5.021963823335783,0.31500286240032693
0,8.999050379284917,9.056154592766873,6.22665221706702,11.693034597601077,0.32000290783525287
0,5.909883910571817,1.7567822527063444,5.338149625095599,3.294104820109572,0.3250029532701788
0,11.230718400501402,13.237411989338716,10.24964918668921,8.665174488676,0.33000299870510474
0,14.891553849915077,11.558043804423754,17.101150904163053,14.91624360037783,0.3350030441400307
0,3.902390258659062,3.288677698838334,7.042654778830686,2.937312151443358,0.3400030895749566
0,2.6432276256149754,-7.470686327330518,3.5041608109060567,-1.4716198627374177,0.34500313500988256
0,-3.38593405095286,-5.410048274263166,1.9156689997699998,-7.360552447217594,0.3500031804448085
0,-4.3150947729535964,-8.339408141834944,-2.3628206556325413,-7.969485606930538,0.35500322587973443
0,-2.494254542140678,-2.3787659293440933,-1.6213081564873901,-5.748419346294224,0.36000327131466037
0,-5.513413359949298,-9.518121635491175,-9.369793503865527,-12.18735366903276,0.3650033167495863
0,-4.392571227436643,-11.047475258354742,-10.288276698442015,-9.606288578066314,0.37000336218451224
0,-13.181728145184362,-9.506826795230086,-10.65675774018036,-14.395224075359556,0.3750034076194382
0,-8.640884113090646,-6.626176242490805,-10.055236628109466,-11.154160161776336,0.3800034530543641
0,-7.00003913017838,-9.025523595619934,-5.023713360285934,-5.783096837039379,0.38500349848929005
0,-4.7191931946081835,-4.504868849312538,-4.092187933929646,-3.662034099892009,0.390003543924216
0,-3.438346303858328,-5.7142119975701355,-1.1206603456607522,-5.000971948387233,0.3950035893591419
0,-2.3774984549132143,1.166446966162367,1.070869408254405,3.0500896198674945,0.40000363479406786
0,-1.2766496444086186,7.2671080487409085,2.662401331678375,5.641150607463291,0.4050036802289938
0,7.574200131203934,5.637771256934063,5.5139354283883835,8.342211016835627,0.41000372566391974
0,10.77505087534839,11.95843659704121,12.015471701837726,13.383270849885673,0.4150037710988457
0,7.145902590911655,9.149104074624823,5.247010154882365,1.9343301077161013,0.4200038165337716
0,1.8567552800251923,10.299773694343497,4.208550789635488,3.145388790636915,0.42500386196869755
0,3.3476089441851014,-0.7395545400502243,2.2600936075761835,1.176446898427133,0.4300039074036235
0,7.028463584455861,8.24111937449219,5.8916386097379725,6.217504430555569,0.4350039528385494
0,7.669319201473067,3.88179544051542,6.49318579675438,7.848561386160724,0.44000399827347536
0,2.55017579532039,11.232473660055572,1.4747351687959558,-0.2703822360833168,0.4450040437084013
0,0.6310333655440366,2.1631540345239397,1.9162867255912504,1.6206735620487593,0.45000408914332723
0,2.1218919113390498,-1.4261634352670607,4.057840466549579,6.3317287784853535,0.45500413457825317
0,5.372751431684338,0.07452125115298917,5.639396390801658,7.582783410854031,0.4600041800131791
0,1.9236119253077861,0.1852080941826425,3.3409544971166643,-2.8861625436537204,0.46500422544810505
0,2.4244733906239895,2.8258970942175643,1.5025147838567812,-3.8651090881938934,0.470004270883031
0,-3.6646641742033563,-5.813411748379926,-2.9759227509183486,-6.204056225908185,0.4750043163179569
0,-5.633800771055006,-0.142718433213241,-5.1743581092156985,-6.363003959582983,0.48000436175288286
0,-6.522936401571687,-6.912022959697813,-6.982791292821942,-2.791952291494848,0.4850044071878088
0,-1.2020710669477197,-6.281325326912929,-2.4412223030865015,-1.3309012234368756,0.49000445262273473
0,6.388795232010653,7.519374466460636,2.570348859084185,3.480149243103676,0.49500449805766067
0,0.6896624945747192,4.810076421928365,-1.7780778069773588,-2.168800893276652,0.5000045434925866
0,2.4705307198193194,2.5607805407833917,0.4234976981101858,-2.8877516339886027,0.5050045889275125
0,1.531399906576374,1.7314868239253751,-1.6049246262551893,-1.7767029803592884,0.5100046343624385
0,-0.7877299465007249,-2.947804728026697,0.74665521937123,6.2043450664268605,0.5150046797973644
0,4.233141159114874,-1.4370941145282325,4.638237234446873,-2.38460749480285,0.5200047252322904
0,4.984013221792662,2.693618665033932,4.9998214182950065,6.196439334633748,0.5250047706672163
0,9.254886239579776,15.93433361122404,12.381407769863928,7.6474855531678125,0.5300048161021422
0,9.245760209961391,11.025050724105744,8.972996287445646,13.148531158758331,0.5350048615370682
0,2.3866351296977273,-7.24422999712057,5.3045869684791,-4.390423851344776,0.5400049069719941
0,8.117510994848082,-3.653508553863049,7.366179809569475,1.4606205195020106,0.54500495240692
0,7.018387800862496,5.497215052424824,8.547774806602872,1.061664267693869,0.550004997841846
0,2.2292655425957975,0.947940820392617,5.62937195477007,7.13270738953024,0.5550050432767719
0,4.820144214350464,1.5886687485894777,-0.6090287513954351,2.123749881076161,0.5600050887116979
0,4.771023809980766,-5.3506011645878875,1.5225726821867684,-6.285208261911794,0.5650051341466238
0,-3.598095677026235,-6.329868920688414,-7.235823750562812,-11.954167043709296,0.5700051795815497
0,0.0027857465987714547,1.8408654790327956,-0.7142180556181699,-8.553126468114105,0.5750052250164757
0,-0.4863319258862156,-4.698397966343748,-0.18261023870385096,-6.0520865381022535,0.5800052704514016
0,0.18455129884625665,-4.337659257477126,-2.7410003053302403,-7.251047255816309,0.5850053158863275
0,-2.004564585829284,0.49308160524146605,-5.679388260838276,-4.450008622693058,0.5900053613212535
0,-1.943679586472396,-1.0561753783230858,-3.587774110299819,-4.108970639571536,0.5950054067561794
0,-10.31279370946099,-19.005430208048217,-14.866157858333558,-13.467933306732826,0.6000054521911053
0,-10.351906960740036,-14.614682883206575,-13.87453950882561,-7.886896623779436,0.6050054976260313
0,-4.241019345540207,-7.683933401951192,-1.1629190646521606,-7.475860589457007,0.6100055430609572
0,-6.430130868308909,-4.303181761218695,-6.2612965277322745,-12.064825201614807,0.6150055884958832
0,-1.4792415328580302,-4.572427957060709,-2.1996718993482696,-5.833790457225418,0.6200056339308091
0,-6.348351342523458,-13.021671984905026,-7.188045180343639,-12.6327563523718,0.625005679365735
0,-6.227460300212381,-10.910913839477264,-9.46641637108929,-12.111722882203132,0.630005724800661
0,-8.306568408322516,-9.280153514567647,-8.18478547132152,-8.750690040843216,0.6350057702355869
0,-3.41567566863758,-3.689391002974405,-7.483152479997505,-1.8696578214061215,0.6400058156705128
0,-4.794782082334918,-6.148626296684549,-12.821517395240864,-7.738626216221489,0.6450058611054388
0,-4.553887650082733,4.792140612862656,-6.789880214291343,-10.417595217011982,0.6500059065403647
0,-2.032992372116908,-1.7470902655071583,-2.2182409335094397,-6.60656481482497,0.6550059519752907
0,-0.5620962483164226,1.273681077063623,-1.5765995485861988,-4.345534999939956,0.6600059974102166
0,-4.741199278303472,-1.1155453506071666,-3.76495605482692,-0.1245057619880367,0.6650060428451425
0,-2.8203014614697826,-3.5147695396862026,-3.483310447271055,-6.853477090172152,0.6700060882800685
0,-3.2894027969190933,-1.693991481223919,0.8383372793110887,-2.8524489733604526,0.6750061337149944
0,-0.8585032834480354,2.1467888339052807,-2.1300128696297267,-0.261421400070415,0.6800061791499203
0,0.20239708038416993,7.147571414885388,-2.3083608884996747,4.86960564142919,0.6850062245848463
0,0.12329829614135276,7.278356270666311,0.20329322842863679,7.050632162828937,0.6900062700197722
0,4.364200365391138,4.329143409691271,5.194949486977109,5.771658175458283,0.6950063154546982
0,0.415103289588462,1.1599328398380104,-0.27339210709545236,-3.237316309848675,0.7000063608896241
0,3.0360070699956916,2.200724568563739,2.468268451780749,9.193708717352909,0.70500640632455
0,2.7769117076623724,1.4615186030710745,5.059931168966816,3.084733267199789,0.710006451759476
0,5.897817203386766,0.6323149503881806,6.951596049543184,8.115757349412272,0.7150064971944019
0,3.738723557622981,6.573113617373778,7.403263098132651,7.486780973150511,0.7200065426293278
0,6.119630770395216,1.8439146106431943,6.194932318747836,13.477804146882681,0.7250065880642538
0,5.720538841246767,7.784717936455075,7.296603714735553,4.168826878233522,0.7300066334991797
0,7.251447769186765,6.185523600609512,9.228277288759836,11.429849173932618,0.7350066789341057
0,13.782357552583415,8.886331608332624,14.469953042709436,17.89087103979615,0.7400067243690316
0,9.213268188971542,19.72714196408727,15.391630977474513,14.721892480513946,0.7450067698039504
0,8.954179674892249,25.947954671175278,12.683311092695467,11.6429134993892,0.7500068152388764
0,16.145092005854107,21.05876973116373,15.304993386639868,16.33393409829905,0.7550068606738023
0,15.46600517624273,13.949587143539604,16.97667785617299,14.274954277743253,0.7600069061087282
0,13.956919179118465,23.42040690578636,19.388364496667013,20.415974036779794,0.7650069515436542
0,18.83783400607435,14.981229013545498,20.750053301825556,8.546993372927465,0.7700069969785801
0,13.428749647178227,15.522053460675817,15.561744263537381,13.018012282224646,0.775007042413506
0,13.979666090963587,18.912880239340463,13.633437371895788,21.409030759366168,0.780007087848432
0,10.670583324524307,24.253709340019896,16.98513261536687,12.260048797642995,0.7850071332833579
0,7.651501333695467,9.04454075138883,6.696829980959015,5.441066388863004,0.7900071787182839
0,9.092420103258448,14.065374460375098,12.068529454396877,9.402083523596175,0.7950072241532098
0,7.9033396171006105,13.556210452445258,9.000231020315143,3.963100191531656,0.8000072695881357
0,9.42425985827604,13.107048711774292,10.441934662358435,11.604116381640731,0.8050073150230617
0,13.785180808968835,10.35788922126214,15.243640363160841,14.635132082116371,0.8100073604579876
0,8.316102450384564,14.79873196257187,9.145348104255469,7.256147280173212,0.8150074058929135
0,6.887024762703272,10.00957691616515,8.177057866037039,8.867161961953778,0.8200074513278395
0,1.4279477252316284,9.090424061331937,4.758769627903304,2.4681761126777904,0.8250074967627654
0,-0.14112868329558825,5.331273376319267,6.70048336848113,-3.550810283063515,0.8300075421976914
0,-0.25020448440913756,-1.0178751614153354,0.4021990658031128,-0.13979724094183144,0.8350075876326173
0,-5.949279699668971,-2.4570215748516886,-2.956083302500368,-7.178784776565725,0.8400076330675432
0,-3.3483543504659163,2.163834112929055,-1.524363758924499,-9.717772905233835,0.8450076785024692
0,-3.507428457863769,-1.895308121113298,-0.43264232586732954,-7.62676164167398,0.8500077239373951
0,-9.246502042515617,-12.144448299911893,-7.180919025547423,-3.0757509998790873,0.855007769372321
0,-3.8655751245802037,0.02641355392723055,-3.409193879916794,-2.0447409931956475,0.860007814807247
0,-1.0046477236723916,10.037277418212875,-4.157466910536997,1.9862683654245203,0.8650078602421729
0,-6.283719858956666,-5.8318567291487415,-4.075738138541497,-3.6827229367999355,0.8700079056770988
0,-3.532791549235647,-2.090988910390079,-5.834007584650379,4.408285087408019,0.8750079511120248
0,0.2881371870496986,6.649880852235351,3.9677247308050774,0.10929242531630712,0.8800079965469507
0,1.759066331728807,5.7707525364342285,-0.2605412122637898,2.0202990640944303,0.8850080419818767
0,-3.070004133279037,-8.678373880330964,0.8511945660774844,-2.5186950092111338,0.8900080874168026
0,-3.1390742260105937,-1.2474984207387774,-6.827067954267396,-3.2576898075756953,0.8950081328517285
0,1.4218560356325833,6.163378892661046,3.0146712067042865,2.4133146561319885,0.9000081782866545
0,2.8227866338760674,10.324258037327628,4.636412029123821,4.884318369122722,0.9050082237215804
0,3.763717550896902,3.905138990302932,2.9281544930427352,6.405321318455967,0.9100082691565063
0,6.744648768620839,5.506021727980723,5.299898578207764,8.956323490763172,0.9150083145914323
0,10.915580268527924,8.35690622613813,5.821644263962915,11.317324872021253,0.9200083600263582
0,8.586512031424913,1.4677924599808234,9.483391529159555,4.198325447393053,0.9250084054612842
0,3.497444037302518,5.078680404184676,5.73514035202364,1.9393252012569124,0.9300084508962101
0,8.078376265396185,10.369570032948099,10.356890710057971,9.630324117401722,0.935008496331136
0,1.919308694329923,2.1004613199320192,0.1786425800361502,-3.458677820838864,0.940008541766062
0,3.760241302225354,1.6713542382247137,3.4503959381307108,5.012319369497673,0.9450085872009879
0,4.811174066795301,4.9622487604832966,3.9921507601121906,4.193315671106465,0.9500086326359138
0,8.912106965347636,6.74314485902771,10.113907021398903,5.254311066391019,0.9550086780708398
0,8.813039974640988,9.11404250572341,8.325664696881223,12.385305537297238,0.9600087235057657
0,9.39397307069612,7.384941671791619,9.077423760703855,8.42629906509358,0.9650087689406917
0,2.9649062287189385,5.545842327712652,5.559184186181873,3.947291630213401,0.9700088143756176
0,3.995839423206923,3.67674444327653,5.350945945866482,2.5182832123371353,0.9750088598105435
0,1.4267726281605495,1.2476479877383269,1.5527090116943119,2.259273790645506,0.9800089052454695
0,0.08770581726969673,-3.271447069971731,1.5244733551687988,3.2102633440049937,0.9850089506803954
0,-1.431361035936423,-3.09054076099379,0.31623894753345017,-0.868748148958467,0.9900089961153213
0,-4.660427957927951,0.6203668836702365,0.10800575989734562,-1.1477607097784275,0.9950090415502473
0,2.0505050249677663,7.5512758331423,2.019773763296507,-2.2067743600074685,1.0000090869851732
0,0.45143788657504347,-8.417813943515771,-0.8284570712981143,-3.175789121081476,1.0050091324200991
0,-1.2476293992378182,4.623097522662562,-1.4266867729650388,2.1551949857420345,1.010009177855025
0,3.0433031413712026,2.384010200636598,3.31508462921219,-2.5238220606551836,1.015009223289951
0,1.7842354821814117,-3.6850759406798916,-1.393142893862231,-1.3328402813097844,1.020009268724877
0,2.365167596830631,0.8158390675632823,5.578630628634562,2.328140302819084,1.025009314159803
0,1.7960994587564512,-1.4032448057466769,-0.4195948326290393,-1.4408803291785053,1.0300093595947288
0,-7.842968958747841,-7.03232759160009,-8.157819307114778,-3.289902198194895,1.0350094050296548
0,-6.032037682295351,-9.071409320707057,-11.496042824127793,-11.198925324969816,1.0400094504645807
0,-4.811106738094675,-5.200490023238899,-7.654265412372421,-8.67794972977657,1.0450094958995066
0,-6.1501761517995215,-11.45956972865949,-5.812487099710072,-4.246975432153198,1.0500095413344326
0,-0.7892459485382892,2.001351534288003,-1.5607079132418735,-4.816002450895161,1.0550095867693585
0,-6.598316153001739,-3.3877262625673747,-4.308927879536007,-4.855030804216714,1.0600096322042845
0,-7.147386789468435,-5.366803147043694,-6.1171470247733195,-6.084060509844436,1.0650096776392104
0,-3.17645788172581,3.024120853298031,-3.53536537473338,-6.203091584998448,1.0700097230741363
0,-5.815529453022231,0.16504571108849442,-4.123582954746672,-5.252124046346227,1.0750097685090623
0,-1.0746015261272173,2.2959713989812194,-4.79179978970974,-0.09115791002249773,1.0800098139439882
0,-2.433674123436391,2.82689788950963,4.089984095846622,2.689806808204204,1.0850098593789141
0,-3.222747267065979,2.7178251550154293,0.9017686775835021,-0.7792299073269109,1.09000990481384
0,-0.1918209789023264,-6.591246832345878,1.373553931124074,-1.108268072314702,1.095009950248766
0,2.699104719340297,-2.8903181004227685,2.445339831939803,-2.67730770245136,1.100009995683692
0,5.210029805950055,11.500611323093976,3.947126355321536,-0.1463488133197921,1.105010041118618
0,-3.4890457409645093,-10.808458589451138,0.2689134763340989,1.8246085796190796,1.1100100865535438
0,0.1118780565344909,-3.5675278657382092,-3.069298830157638,5.495564460903644,1.1150101319884698
0,-2.9271988236158797,-13.666596533144952,-1.0975105893282096,-4.723481185079485,1.1200101774233957
0,-1.646276403348041,1.6443353815972315,-1.8857218262324151,-5.612528374038831,1.1250102228583216
0,-4.235354704403185,-6.434732147592018,-7.963932565717437,-4.031577121494119,1.1300102682932476
0,0.2055662517104585,-4.9837991463115365,-0.9321428323165408,-9.730627442521005,1.1350103137281735
0,-0.2235135563068602,-4.952865639730435,-1.340352650188638,-2.219679351632034,1.1400103591630995
0,4.077405850331655,1.9180683474198355,1.3414379567713124,6.361267137163479,1.1450104045980254
0,-1.4416755496487552,-5.420997209264381,-3.376771035223606,1.0222120100375407,1.1500104500329513
0,1.0592422223610334,0.9599376660202837,3.6950203500887433,-0.15684474698069872,1.1550104954678773
0,-1.4398408550921462,10.290872949172668,0.776812088974614,-2.7959031480201113,1.1600105409028032
0,2.761075196528264,12.961808615847318,6.228604157582527,1.0550367927941966,1.1650105863377291
0,5.271990355695156,12.262744640942222,10.770396531745947,3.775975061388314,1.170010631772655
0,8.96290460062635,5.483680998293431,11.132189186699339,6.826911643585133,1.175010677207581
0,7.283817909025696,2.3746176607627425,3.8339820968329,2.9178465248770293,1.180010722642507
0,4.614730257919284,0.3755546005739838,3.3257752357163723,2.558779690321931,1.1850107680774329
0,0.3156416237022899,7.8464917895991615,0.20756857636051906,1.1397111246128397,1.1900108135123588
0,0.6165519823580365,-4.232570800559999,1.6893620914781469,-0.39935918778888035,1.1950108589472848
0,0.7274613096820577,-3.711633198486293,-1.3188442463629775,-0.8284312625285972,1.2000109043822107
0,-5.231630418574202,-4.21069543268528,-3.357050464629535,-4.417505115233448,1.2050109498171366
0,-2.9907232265573027,-5.719757531334278,-4.685256590672156,-3.2065807613705095,1.2100109952520626
0,-5.179817138139632,-5.438819522168217,-5.393462651550087,-8.775658216091202,1.2150110406869885
0,-3.468912176814262,0.9521185675386845,0.10833132606905593,-4.924737494073617,1.2200110861219073
0,-1.5080083656865666,3.6230567108305722,2.520125315831194,-7.773818609403065,1.2250111315568333
0,-1.1971057275470347,-2.786005119187184,3.4919192914555586,-4.922901575532308,1.2300111769917592
0,2.2437957150005765,6.194933050498492,7.143713226470982,2.058013594650361,1.2350112224266852
0,10.204695939337318,4.535871192729925,8.555507093990654,3.0189268885875253,1.240011267861611
0,11.715594922480621,16.04680927996083,16.42730086645809,18.279838293628757,1.245011313296537
0,10.166492640680852,22.537747283817296,13.75909451532524,10.620747796483462,1.250011358731463
0,9.277389069193948,12.388685174566792,14.59088801076826,4.901655382818892,1.255011404166389
0,9.058284182276234,3.999622920909122,10.962681321586505,7.752561037284075,1.2600114496013148
0,10.309177953242605,2.9905604903294085,7.384474415299347,6.0934647437533345,1.2650114950362408
0,16.20007035443969,10.981497849588035,14.346267258319456,11.664366485414217,1.2700115404711667
0,13.070961357086532,13.572434964813304,11.698059816013359,12.31526624465413,1.2750115859060926
0,7.051850931142746,7.973371801256119,8.929852052637745,9.036164002883915,1.2800116313410186
0,9.602739045402974,9.534308323133768,9.371643931353134,12.287059740448441,1.2850116767759445
0,9.03362566769892,3.825244493719426,10.793435414327702,8.907953436638069,1.2900117222108705
0,13.134510764959703,8.496180275516291,14.18522646274941,7.548845069736549,1.2950117676457964
0,13.615394303105287,12.08711563032667,14.067017036698278,14.529734617075704,1.3000118130807223
0,6.416276246926489,2.798050519179884,5.538807095039968,3.5906220550441525,1.3050118585156483
0,8.807156560132517,7.698984902318551,6.0805965955432475,6.11150735913705,1.3100119039505742
0,5.498035205538141,1.059918739343078,6.102385495160397,1.7723905041589512,1.3150119493855001
0,-2.1110878547234124,0.5908519894014717,-1.1058262497408178,-5.4167285354949,1.320011994820426
0,-4.290212658895732,1.4317846113754107,-5.964038683134098,-4.785849785503512,1.325012040255352
0,-7.149339245184986,-4.7172834359538305,-9.382251848936015,-11.49497327124209,1.330012085690278
0,-6.398467651409431,-7.236352193719206,-7.130465790583619,-5.784099017474603,1.335012131125204
0,-5.827597914817803,-7.965421702695094,-7.608680550799312,-8.373227048203779,1.3400121765601298
0,-6.1767300720449905,-7.2644920030471845,-7.4368961715496535,-7.622357386661815,1.3450122219950558
0,-11.79586415909193,-18.76356313415411,-11.105112694043813,-12.981490055299437,1.3500122674299817
0,-13.995000211180152,-18.142635134323708,-16.563330158619312,-10.760625075668177,1.3550123128649076
0,-14.664138262484581,-9.931708040450781,-16.75154860447525,-15.169762468254337,1.3600123582998336
0,-20.823278345860107,-24.280781887876493,-19.79976806936151,-16.828902252316794,1.3650124037347595
0,-16.962420492602895,-19.919856710310636,-19.097988589346656,-13.22804444572895,1.3700124491696855
0,-18.621564732279815,-25.868932539581163,-19.68621019868228,-21.377189064862122,1.3750124946046114
0,-20.92071109266087,-22.888009405367278,-22.214432929723543,-14.98633612449045,1.3800125400395373
0,-14.909859599695706,-14.607087335124014,-18.092656812869752,-13.565485637735097,1.3850125854744633
0,-17.459010277543644,-16.96616635426012,-17.87088187656369,-13.134637616158377,1.3900126309093892
0,-16.898163148668655,-14.575246486433965,-18.8891081473762,-10.433792069948577,1.3950126763443151
0,-18.65731823388121,-17.394327753728295,-18.717335650075558,-16.512949008037847,1.400012721779241
0,-10.006475552343389,-10.653410176702868,-12.695564407661584,-10.142108438111105,1.405012767214167
0,-8.94563512171979,-14.072493774478735,-12.30379444149754,-9.571270366610705,1.410012812649093
0,-8.224796958484312,-10.17157856487083,-11.152025771544578,-3.430434798888957,1.4150128580840189
0,-5.333961078194062,-1.4306645645582776,-6.510258416580092,-5.359601739484606,1.4200129035189448
0,-5.813127495661711,-9.009751789351432,-7.898492394390566,-5.30877119235367,1.4250129489538708
0,-8.842296225054797,-5.298840254423329,-10.00672772192491,-13.197943160904915,1.4300129943887967
0,-9.241467279877147,-11.46792997432227,-8.124964415323937,-6.12711764784301,1.4350130398237226
0,-4.890640672880664,-7.1870209628518245,-4.103202489908093,-1.1162946550726311,1.4400130852586486
0,-8.679816416056873,-4.716113233009076,-7.79144196026191,-6.665474183853111,1.4450131306935745
0,-6.018994520691889,-10.215206797039988,-7.459682840326087,-1.4646562350023313,1.4500131761285004
0,-5.10817499740163,-1.7143016665142081,-4.347925143399196,-6.053840808957614,1.4550132215634264
0,-10.527357856152703,-5.2533978523958975,-8.916168882132444,-8.503027905734493,1.4600132669983523
0,-9.546543106210873,-2.262495365167419,-10.444414068508394,-4.172217524818604,1.4650133124332783
0,-9.045730756009185,-6.581594214920126,-5.792660713742987,0.8385903348679484,1.4700133578682042
0,-8.464920813072354,-3.990694411339826,-5.05090882825527,-4.180604325195835,1.4750134033031301
0,-6.994113284049612,-0.6097959636838417,-4.309158421794797,-5.909801503270156,1.480013448738056
0,-7.673308174785284,-0.8988988808694707,-6.697409503576264,-1.1490011973067342,1.485013494172982
0,-3.0925054904013916,3.161996828348277,-4.495662082308224,2.8617965950657815,1.490013539607908
0,-3.8117052354195384,-7.757108844743497,-2.453916166194471,-4.917408123609489,1.4950135850428339
0,-3.5409074139040775,-2.3462159087443655,-3.952171763001437,-3.046615350691895,1.5000136304777598
0,-4.450112029545254,-0.9453243719791675,0.14957111983968202,-4.895825083319761,1.5050136759126858
0,-5.799319085648304,-4.0444342424697775,-1.4286875248657667,-3.695037318276124,1.5100137213476117
0,-2.7985285850882162,-3.8935455279769453,-2.0969477041591524,-0.15425205197000746,1.5150137667825376
0,0.6122594696660063,-8.372658235930619,-4.94520942492807,-2.653469280518007,1.5200138122174636
0,-2.4569549235840027,-0.05177237331002679,0.6365273061669349,-6.702688999805734,1.5250138576523895
0,-4.296171766869412,-7.700887946621036,-3.18173751729044,-6.671911205391685,1.5300139030873154
0,-4.615391061996822,0.8199950380425945,-4.930003901499029,-5.561135892327728,1.5350139485222414
0,-6.964612810405081,-6.589123425059267,-5.958271852370522,-9.420363055049975,1.5400139939571673
0,-7.7038370130282665,-11.13824334128056,-7.646541375371252,-11.639592687287584,1.5450140393920933
0,-7.403063670174878,-5.877364715400589,-10.714812475359047,1.0011752180275955,1.5500140848270192
0,-4.882292781464289,0.38351244850442917,-2.3130851564622694,-2.348059331357725,1.5550141302619451
0,-3.321524345876266,-1.68561185311469,-1.2413594221315398,3.512703672642859,1.560014175696871
0,-5.640758361869922,2.3452623764165037,-10.649635275330427,-3.866535761813637,1.565014221131797
0,-4.159994827456351,-3.403864866175862,-5.777912718561057,0.5742223734429512,1.570014266566723
0,-2.229233740214916,-7.18299358408603,-4.616191753723445,0.7849780866342508,1.5750143120016489
0,-8.108475097312114,6.567876219704219,-5.744472382092238,-11.534268613915245,1.5800143574365748
0,-0.6477188954957402,-1.5512554576064315,-1.172754604420886,-4.513517719591976,1.5850144028715007
0,-3.72696513109933,-6.860388618784006,-2.4410384210620144,-5.582769221239673,1.5900144483064267
0,-1.5962138001213826,4.190476733487502,4.230676167876303,4.357976890848536,1.5950144937413526
0,-2.595464898304267,-2.7386594033129543,-2.4676108376493335,1.1387206266501384,1.6000145391762786
0,1.495281578816668,-0.6277970316123911,2.5841005622740987,4.279461996093319,1.6050145846112045
0,-5.123974364142921,-0.2869361537810647,-2.174189632488117,-1.869798991100227,1.6100146300461304
0,1.0267672775697396,-1.0560767721117221,3.537518577900676,4.570937674598201,1.6150146754810564
0,0.2575065088472577,3.9147811111472315,4.0492251931978345,-0.43832799743423634,1.6200147209159823
0,3.308243334633956,-0.024362506298395835,3.6409302129479375,2.722404002026428,1.6250147663509082
0,2.7689777597735925,-1.5935076268480113,6.102633636348927,3.743133682030809,1.6300148117858342
0,2.8797097888916476,5.027345747019094,4.684335462168464,4.823861051392774,1.6350148572207601
0,-0.15956057363896214,6.5181976126965155,-1.7239643112656013,-2.2754138813779248,1.640014902655686
0,-0.5888333236304943,2.269047967260652,2.227734314061113,0.7853088919950271,1.645014948090612
0,1.6418915430279433,1.889896807370257,5.539431335986749,3.5360293796903273,1.650014993525538
0,-2.607385969569159,1.9707441293538521,-5.7588732478183005,-3.533252410180641,1.6550150389604639
0,-3.076665857289371,1.1715899293208958,-9.097179439734102,-1.9725364695429113,1.6600150843953898
0,-4.655948115838627,-11.647565796708664,-8.095487241808012,1.3581772097564055,1.6650151298303157
0,-0.7552327406385104,-3.90672305250965,-4.513796655423929,0.8788886359685046,1.6700151752652417
0,1.9854802731560666,4.264118158597127,-2.312107681289447,4.369597817316487,1.6750152207001676
0,2.1361909304889672,4.354957833579787,3.9695796803373886,2.860304761846194,1.6800152661350936
0,-2.093100763761203,1.3057959693027033,-3.478734570633288,-3.1589905226359285,1.6850153115700195
0,1.7576051952027145,1.9466325623474947,-3.4570504342467934,0.6817119715328572,1.6900153570049454
0,-1.081691187846205,-0.012532390931309745,2.0046320895680148,-3.9075877479581846,1.6950154024398714
0,-0.11098990813379855,-4.681698894279714,-0.3736869989774361,6.883110326667928,1.7000154478747902
0,-2.2602909608601887,-4.770866951355666,-2.7120076996139657,-6.106193796796904,1.7050154933097161
0,-0.7295943411462309,-1.7600365655306864,-2.7803300120035424,1.2944998894198643,1.710015538744642
0,0.851099955991693,-1.7992077398340995,-3.7186539356218256,2.3151913931239454,1.715015584179568
0,-0.21820806439990323,-8.258380476992238,-1.3569794696757784,9.625880722066029,1.720015629614494
0,5.2624816026991965,3.7124452205847893,4.834693386851306,7.786567883635721,1.7250156750494199
0,6.573168962132794,10.573269350688237,6.096364634978333,9.637252884558709,1.7300157204843458
0,6.603854018352218,6.034091910891606,8.148034275405228,4.547935730765202,1.7350157659192718
0,10.944536775214631,8.904912898140878,8.209702308251345,13.178616427394198,1.7400158113541977
0,8.99521723582227,1.1157323086579105,4.811368732931279,11.819294978743624,1.7450158567891236
0,7.695895402410897,14.006550138015523,10.62303354814237,2.9899713881545003,1.7500159022240496
0,3.906571276370027,-1.2826336188411547,1.7546967518872765,-2.4993543418700286,1.7550159476589755
0,2.167244858413812,4.428181032444316,4.0163583415463044,5.311317790724431,1.7600159930939014
0,3.0979161487999476,-1.8010059141695693,4.698018314021254,2.7119877877927587,1.7650160385288274
0,2.9085851474718636,-1.870194464884805,2.429676665830603,4.412655650945732,1.7700160839637533
0,1.959251854100413,5.400615374074968,5.331333393121113,7.043321381430591,1.7750161293986793
0,-1.070083731879678,10.77142359637428,1.032988491675804,-1.5660150199269502,1.7800161748336052
0,5.170578388799875,-0.41776980472290115,7.254641956925868,-5.855353552608741,1.7850162202685311
0,-0.6687617847410132,-2.0169648364437616,0.16629378394244132,4.38530578387819,1.790016265703457
0,0.5918957464555348,-3.9961615062219185,-2.942056032512069,-5.554037009837218,1.795016311138383
0,-3.3974490187411956,5.034640178593906,3.8995925021835998,1.5866180669918077,1.800016356573309
0,0.7132039185795143,-4.334559789243576,1.1412393826080618,1.8472710151936997,1.8050164020082349
0,-2.306145442561083,-3.323761416930191,1.0428846032339703,1.2079218355951369,1.8100164474431608
0,1.8545028969560722,3.7170352884566613,0.3545281583876922,1.4385705289123567,1.8150164928780868
0,2.5351489362772135,-7.0821696800115985,3.926170042273423,3.21921709570814,1.8200165383130127
0,2.535792674455261,4.598623670852565,-0.7721897510408537,2.229861536360344,1.8250165837479386
0,-4.373565889615575,6.459415334273726,-4.830551227597324,0.36050385103001414,1.8300166291828646
0,-1.512926757091003,3.0602053032824457,1.2210856066024531,4.421144039674086,1.8350166746177905
0,0.13771007099174398,4.570993570502046,3.9327207456745987,3.5817821020328795,1.8400167200527164
0,-1.571655406252084,-2.218219871838986,-0.8556458162776094,2.522418037560301,1.8450167654876424
0,-2.121023189597323,6.862564968219209,1.68598591471572,3.6030518453861493,1.8500168109225683
0,-2.5203932796887485,-7.436651917534244,-3.1023840674696683,-9.106316475598204,1.8550168563574942
0,-4.7697656769658465,-5.395870537320779,-6.1807557689095205,-8.565686926442487,1.8600169017924202
0,-2.609140381582577,-2.695090899095954,-7.039129195408753,-8.755059507704985,1.8650169472273461
0,0.4914826066157899,2.12568698957376,-1.4575043523009112,-1.804434219207045,1.870016992662272
0,-0.2878967119988473,-10.693536878589637,-2.5258812444421523,-0.6038110601384552,1.875017038097198
0,4.182721663000942,-4.532762510555319,3.195740123615722,-1.9631900293311701,1.880017083532124
0,-1.366662268036109,-1.1819899128195974,-0.5426402525830067,1.9974288745378694,1.8850171289670499
0,2.313951495109194,7.158780908519464,2.248977622459127,3.6080456528183054,1.8900171744019758
0,4.04456295252465,4.2595499473821965,1.590593744132506,3.1486603067315975,1.8950172198369017
0,2.0151721041106847,7.700317197333215,3.5322081076788794,2.689272837237391,1.9000172652718277
0,6.655778949482318,4.22108265140113,6.563820708104456,7.169883244971243,1.9050173107067536
0,5.186383487874797,-0.18815369791562697,7.745431540026989,9.02049153014243,1.9100173561416796
0,0.5169857180770489,-2.107391858468888,1.5070405975309649,-2.3189023075920554,1.9150174015766055
0,0.7775856384968691,0.24336816179656515,1.7586478741891995,4.201701730935177,1.9200174470115314
0,-4.371816752635981,-8.285873644963687,-0.4197466367494037,-1.2976963553812948,1.9250174924464574
0,-4.201221457032183,-4.635117286320474,-2.5081429421585484,-6.41709656772845,1.9300175378813833
0,-3.270628476142658,-11.484362769352265,-10.566541048823195,-6.456498907138225,1.9350175833163092
0,-5.050037811052835,-9.353610100431284,-8.824940963126116,-10.165903374183207,1.9400176287512352
0,-11.669449462405407,-10.702859285053982,-9.743342690726255,-16.085309968690417,1.9450176741861611
0,-9.278863430213148,-1.8621103277952962,-11.151746236382422,-5.2847186894952625,1.950017719621087
0,-7.008279713650716,-9.781363232436563,-8.430151603895403,-5.574129534396122,1.955017765056013
0,-6.887698311026325,-11.400618002066,-8.148558796112706,-6.213542500371143,1.960017810490939
0,-7.287119219883177,-9.389874638969108,-5.856967815008927,-2.8229575837998135,1.9650178559258649
0,-8.436542437057,-6.859133144495087,-5.965378661808867,-9.74237478053858,1.9700179013607908
0,-5.035967958670499,-4.158393519120465,0.9262086628660151,-11.091794085850804,1.9750179467957167
0,-0.9853957801905499,5.792344237292721,3.4677941587607286,-7.401215494222129,1.9800179922306427
0,4.06517410334936,0.8130801251126016,-0.9206221743114564,5.959361000665309,1.9850180376655686
0,1.1457416970194387,1.3838141446105239,-1.429040336619061,1.7199354055734521,1.9900180831004946
0,3.4563070057471963,1.2745462958708955,5.162539671516305,2.290507727238616,1.9950181285354205
0,0.18687003424016668,1.2952765788335998,0.9241178496951877,1.5710779721688841,2.0000181739703464
0,2.907430787004552,2.736004993305152,-0.03430580265232819,-1.1683538533208093,2.0050182194052724
0,-1.0320107316159346,-5.0432684610306895,0.8872687137484925,1.632212256979584,2.0100182648401983
0,0.5085454826126389,-4.232543784480787,-0.5511586018985497,0.582776309227161,2.0150183102751242
0,-1.4109005661135972,-0.15182097713830905,-0.4895877504104436,-1.4366616904672156,2.02001835571005
0,0.7096511264200138,-0.7011000388276922,-1.0080187325873928,-3.6261017359893577,2.025018401144976
0,-3.159799435524156,1.089619030776397,-2.846451549161816,-0.09554382110799042,2.030018446579902
0,-2.9692522475835936,-3.199663767952723,-1.2748862007369486,-1.08498793941907,2.035018492014828
0,-8.358707305165748,-6.838948434543936,-11.553322687683151,-5.664434084356916,2.040018537449754
0,-8.40816460324204,-9.84823496820505,-11.621761009896636,-11.163882249086026,2.04501858288468
0,-10.677624136117766,-8.2975233675324,-10.760201166454697,-8.653332426212385,2.050018628319606
0,-9.737085897249667,-10.93681363030792,-7.368643155414098,-11.412784607509472,2.0550186737545317
0,-11.646549879140958,-6.726105753421697,-5.587086973871726,-10.402238783787006,2.0600187191894577
0,-5.156016073312918,6.464600267022164,-3.555532618164806,-6.001694944869312,2.0650187646243836
0,-2.2054844704203465,-2.534695564659915,-0.29398008409315535,-1.3811530797154594,2.0700188100593095
0,-0.5849550605293978,-7.6539932440489284,-2.3724293671241865,4.549386823263274,2.0750188554942355
0,-0.25442783341357567,-4.743292766534527,0.25911953746222777,-6.61007522415474,2.0800189009291614
0,1.6960972212561756,2.0574058728986424,-0.38933336550226605,2.830460789856323,2.0850189463640874
0,5.936620113768184,-2.74189732039245,4.562211928845794,1.2909948771846498,2.0900189917990133
0,4.5471408541864715,1.4987976590938086,6.293755425242792,1.4615270497081694,2.0950190372339392
0,3.5176594521862086,-0.5805091830950203,3.22529712809347,1.78205731918223,2.100019082668865
0,3.7781759170130824,-2.2298178413841403,4.526837041357845,-0.22741430278164154,2.105019128103791
0,1.5886902575354882,-5.809128310107752,-0.23162483141177218,3.9931121953006867,2.110019173538717
0,3.8792024823083153,2.0715594166153535,0.6199115130565878,2.6836368247557183,2.115019218973643
0,1.4997125996113319,0.9822453448799084,-0.42855392209900955,1.7941595966824937,2.120019264408569
0,3.740220617461822,2.1029294808233816,3.982978866201127,3.8746805219189575,2.125019309843495
0,3.2207265436071038,2.5736118304652758,-1.0254901190521069,4.595199611025534,2.130019355278421
0,1.1512303855126105,-1.5657076003412795,0.8160391250133832,1.195716874241794,2.1350194007133467
0,-5.828267849566854,-9.515028805798366,-3.3024333987870227,2.0362323214928257,2.1400194461482727
0,-0.46776815437492436,1.555648220095946,1.2690923124056823,-0.5332540375219055,2.1450194915831986
0,-1.1272705214715328,-2.723676516307741,1.750616261515931,1.2172578067710993,2.1500195370181245
0,2.5732250567469563,3.5569969915702915,0.6421384514507169,-2.5922321361057667,2.1550195824530505
0,2.1937185878962286,1.9276687503309544,1.3136588850186552,9.41827614333167,2.1600196278879764
0,-2.9457899205070732,-3.9516612335208077,-2.904822435059763,2.268782654392816,2.1650196733229023
0,-1.0753004610041126,2.5690070464600776,2.026694493920073,3.1792874060240663,2.1700197187578283
0,-3.62481302604923,2.299673596717892,-7.70179032526949,-0.14020959320115955,2.1750197641927542
0,-4.11432760788567,2.6103384236156373,-4.670276889651388,-8.95970833488016,2.180019809627673
0,-3.833844198456823,-3.9489984666456817,-1.3787651958767846,-2.4892088104631624,2.185019855062599
0,-3.903362789343588,-8.83833706788209,-1.6172552402075935,-1.1487110110212289,2.190019900497525
0,2.7671166282134783,-2.177677373614454,1.1442529813376734,5.36178507267969,2.195019945932451
0,1.287594063159516,0.6329806230887078,-0.7742405271615658,7.522279449854587,2.200019991367377
0,2.1980695244125155,7.273636929417934,2.3072642383849002,3.392772129361715,2.2050200368023027
0,-2.461456979238998,-1.0857084475229875,0.8487672820161809,-1.6267368804115518,2.2100200822372287
0,1.0090145609189536,0.024944499128187803,-5.189731392290073,-0.016247571378133263,2.2150201276721546
0,7.179484153560611,3.8455957760683033,2.4817682194725887,3.464240064459482,2.2200201731070806
0,4.889951807165204,1.486245389872806,6.393266121366103,5.464726035000782,2.2250202185420065
0,7.74041752977403,7.366893346901575,7.774762317279942,7.675210347849104,2.2300202639769324
0,2.8808813288625914,1.1675396531798945,6.636256810611477,-1.364306989854589,2.2350203094118584
0,1.8213432113798596,4.388184314349251,4.157749604116343,5.476174028595946,2.2400203548467843
0,2.051803183894209,-1.7011726642765634,2.399240699963656,6.206653409565387,2.2450204002817102
0,0.5422612527371092,1.5694687224146218,-0.6292699000928904,-1.9628688409340316,2.250020445716636
0,-0.1372825759092105,-6.729891520514146,-0.40778219451107967,3.057607282786916,2.255020491151562
0,-2.036828295927762,0.6007466121178178,-0.8262961817944932,2.1480817862174195,2.260020536586488
0,-1.3663759011642127,2.8313831256773043,-2.1648118603977995,2.338554674678313,2.265020582021414
0,-4.195925385331019,-2.5279819743901317,-2.5533292286634537,-4.960974046677151,2.27002062745634
0,-5.065476741907236,6.172651317308084,-5.071848284739168,-7.830504372683672,2.275020672891266
0,-4.745029964020699,-3.2767169939462555,-3.380369026477564,-1.6800362978639343,2.280020718326192
0,-4.254585044362333,0.343913097025327,-3.7788914513652863,-7.729569816259879,2.2850207637611177
0,-5.8541419751615145,-9.325458404565627,-5.807415556499079,-3.1391049214237903,2.2900208091960437
0,-1.4937007481941822,3.7351685067265157,-2.1759413385697726,3.7613583935162422,2.2950208546309696
0,-4.223261354827853,-4.4242061633645235,-1.9644687938785086,-2.7481798643293756,2.3000209000658955
0,-5.022823786073571,-1.9635824088966354,-5.1529979184033,-7.83771968774943,2.3050209455008215
0,-1.6623880325837084,-8.502960223700804,-2.5015287078213477,-1.3272610693061833,2.3100209909357474
0,-2.5119540846594135,-5.942339601207988,2.119938842487487,1.8031959987900987,2.3150210363706734
0,-0.27152193233017424,-11.341720534250033,-5.778595262644281,-4.13634847543371,2.3200210818055993
0,-0.3210915654543064,3.0488969850348946,1.0528689817650358,3.7641055161413766,2.3250211272405252
0,2.909337026181485,6.729512965004193,1.4043315808376056,6.994557981615358,2.330021172675451
0,-0.5702361472435651,3.300127414032344,6.255792539712681,-1.4449910711211325,2.335021218110377
0,3.4901889243458193,2.8707403401448857,3.457251863314357,2.6354583655197534,2.340021263545303
0,-1.7393877490974308,4.561351750966781,-1.301290443778651,3.1059062989023505,2.345021308980229
0,5.3510338422577,7.721961653738621,3.510165622735501,11.366352736142304,2.350021354415155
0,6.521453708054579,7.502570055210715,6.171620066960858,3.596797683887937,2.355021399850081
0,2.4318718575883267,-0.11682303845928738,3.563072892711899,5.597241148159025,2.360021445285007
0,5.952288299701015,7.323782378354633,9.304524103356698,4.617683134383762,2.3650214907199327
0,7.202703042765365,5.974386310838347,2.8959737017172746,2.768123647499656,2.3700215361548587
0,3.1131160946433942,2.6949887637054792,2.727421690064319,0.16856269204919327,2.3750215815897846
0,3.0035274626804815,7.525589741162326,4.308868070221791,0.37900027232051314,2.3800216270247105
0,3.1839371538036763,4.826189246913953,5.240312843650019,9.139436392435469,2.3850216724596365
0,1.5443451746241303,2.906787284153399,-0.768243988555051,2.6698710562421266,2.3900217178945624
0,-0.8152484684883332,6.677383855586239,1.1331975744013818,-4.729695732791835,2.3950217633294884
0,-0.7348437692916985,2.2979789634719174,0.7246375331563228,5.3907360285614665,2.4000218087644143
0,1.6155592784368338,1.0385726096635222,0.16607588827353392,1.851166343439159,2.4050218541993402
0,1.9059606809064884,1.5991647957148756,1.4075126402547682,-0.2884047851626112,2.410021899634266
0,1.7763604442330672,9.249755522949995,2.9289477895190683,-0.09797735441051669,2.415021945069192
0,0.12675857438394622,-7.329655207585438,-1.8696186636343477,-0.39755136153351145,2.420021990504118
0,-2.622844922781944,-3.079067395031693,-3.0981867189841386,-5.357126803719091,2.425022035939044
0,-5.162450041369704,-11.258481038352691,-7.876756376197166,-10.12670367794388,2.43002208137397
0,0.2079432247218299,-2.9278961359857245,-3.885327634583951,-12.486281980656077,2.435022126808896
0,3.088334881821812,-6.097312685728818,0.7360995070096781,7.284138292458966,2.440022172243822
0,3.2387249362983503,4.07326931514357,1.3375250500644338,0.16455714627248907,2.4450222176787477
0,3.1791133943349337,0.30384986961851357,2.1289489961311676,-5.245025414216495,2.4500222631136737
0,5.459500261809755,-3.6955710192843263,0.28037134666406227,9.13539061595571,2.4550223085485996
0,-4.490114455718793,-5.194993348496807,-2.908207896986652,-1.554194758317005,2.4600223539835255
0,-2.849730752861765,-1.0644171147150119,1.4532112665210117,1.5362184676807018,2.4650223994184515
0,0.13065137584999398,-6.06384231429428,-1.5053711614107594,-2.2433697014930383,2.4700224448533774
0,-5.118968063906347,-3.633268943232215,-2.873955179309572,-9.162959261243993,2.4750224902883033
0,-7.418589066191721,-8.202696997109062,0.817459214399276,-5.132550206669128,2.4800225357232293
0,0.941788375309069,2.5878735289658934,-1.9411279785848132,-4.782142532331632,2.485022581158155
0,-2.3478357327025563,2.1684426402321466,-2.519716756450531,-1.1117362322470126,2.490022626593081
0,-1.9474613832789032,2.7290103419870877,1.0516928827368945,0.40866869994925314,2.495022672028007
0,1.342911430675258,-2.0104233606183612,-3.356899058958623,-4.720927729171376,2.500022717462933
0,1.043282716338421,-1.4398584625438244,-3.0654925793379797,-0.9405255128751996,2.505022762897859
0,-6.776347519082276,-5.239294958688191,-4.474087675987832,-2.8101246442195587,2.510022808332785
0,-4.8859792682439025,-0.7487328437332643,0.11731565380072262,-8.829725115992552,2.515022853767711
0,-5.125612523439466,-4.208172112078248,-4.951282586977611,-2.9593269205949637,2.520022899202637
0,-3.9252472764760045,-4.387612757829567,-3.419882395063381,-6.838930049917242,2.5250229446375627
0,-3.8348835186942836,3.6929452251946833,-1.008483766902482,-6.888534495301181,2.5300229900724887
0,-2.2145212410300052,5.493501843320259,-1.4570866986625943,0.14185975245422278,2.5350230355074146
0,-3.464160434077305,3.8940571027130773,2.6543088136581945,2.4822527029672683,2.5400230809423405
0,1.156198911845462,-5.235388990787874,0.9857027740897548,-0.8273556339948133,2.5450231263772665
0,3.9965568065711063,6.365163568446667,2.7970951865655986,4.443034751276223,2.5500231718121924
0,0.5569132598874631,2.6857147859375927,4.068486054834571,8.563423868296955,2.5550232172471183
0,1.3472682814075034,2.686264666995292,0.9098753823985664,2.073811726205744,2.5600232626820443
0,-2.0423781194009685,1.6368132166335372,3.851263172491147,5.784198333639254,2.56502330811697
0,-4.12202593308246,-0.8726395603707323,3.222649428083112,4.874583698752143,2.570023353551896
0,-3.53167515002091,-5.002093659330423,-1.9959658481086648,-5.58503217069954,2.575023398986822
0,-6.311325760284124,-7.281549075416623,-8.154582653486106,-0.9646492671491884,2.580023444421748
0,-3.180977753524633,-8.321005803378458,-3.6432009852593836,-2.484267582941785,2.585023489856674
0,0.43936888102112515,-4.6904638373407455,-3.261820840203231,-3.7938871101970277,2.5900235352916
0,-3.67028584557989,3.500076829176341,0.3695577853286135,0.7264921592015996,2.595023580726526
0,-4.989941922041582,-3.5293837969928363,1.410934895222343,-4.253129766416258,2.6000236261614518
0,-5.4395993367800175,-10.358845708827795,2.5923104934021195,-2.6627528785201737,2.6050236715963777
0,-0.5092580778069811,-5.798308898948336,1.8036845836773177,-3.932377168330176,2.6100237170313036
0,1.4710818672118584,7.082226640566925,7.025057169639314,6.487997373186441,2.6150237624662296
0,-0.17857948924256184,6.4327609179132,0.8764282545654632,6.158370755101239,2.6200238079011555
0,-2.0482421346805766,-3.4867060589040437,-0.09220215860396913,-7.131257013745829,2.6250238533360815
0,-5.01790605655834,2.8238257178161508,-3.850834067117119,-3.9008859246764613,2.6300238987710074
0,-1.2375712421321663,1.4243562556249418,2.890532531793331,-0.5605159688427533,2.6350239442059333
0,-1.7872376783829702,1.2048855619740417,-0.35810235903595444,2.7998528628781716,2.6400239896408593
0,2.1330946479185866,8.845413644132389,-2.456738736755873,-3.969779420275518,2.645024035075785
0,-0.29657424992204856,5.52594050902402,0.16462340150764077,2.4005871909512124,2.650024080510711
0,2.07375564136816,-3.1335338369037102,-0.7740159412897938,3.680952705812773,2.655024125945637
0,2.0640843349688622,-2.3530093875373046,-2.3626567621033168,0.8413171334610032,2.660024171380556
0,3.464411843906971,-2.4824861367649205,0.018700942208569438,-1.0583195171353292,2.665024216815482
0,2.214738180987328,3.728035921691734,3.870057174867499,6.432042762844281,2.670024262250408
0,1.7150633587611441,0.008556794187111638,-1.8185880609265084,-1.2975960179325852,2.6750243076853337
0,-1.504612610431082,-3.1809235129664972,-4.2472347620307165,2.6427641490027756,2.6800243531202597
0,-3.404289714328768,0.6495950065406524,-6.735882925185884,3.8831232719282966,2.6850243985551856
0,3.606032059388922,0.14011235909497144,-1.0445325467865092,1.0334813589168759,2.6900244439901115
0,5.116352723074611,2.1006285511202747,6.136816377121549,0.033838417817982025,2.6950244894250375
0,3.2866722888967472,-2.3788564109977774,2.658163850554837,4.794194456302462,2.7000245348599634
0,-3.283009231290462,-8.058342520850672,-5.870490122656809,-0.1854505181244698,2.7050245802948893
0,1.3873081741721802,1.1621702281941573,4.250854461193356,8.404903501813568,2.7100246257298153
0,4.507624516891427,8.932681843026103,3.7621976057979754,6.335256523039466,2.715024671164741
0,1.4079398083649597,1.393192330476782,1.4835393147205584,1.7856085519792213,2.720024716599667
0,1.9582540598655855,6.943701696996099,5.394879591250438,3.7859595945575535,2.725024762034593
0,0.6385672824452326,2.6042099485735095,-0.5837815616225795,6.906309656294008,2.730024807469519
0,3.898879486983093,5.914717090757082,-1.6024441411408044,4.006658742295393,2.735024852904445
0,4.029190684159161,5.9152231286421255,3.9188918553495338,0.9870068572093482,2.740024898339371
0,1.1495008843785746,3.2757280668381945,4.490226430419335,1.237354005314721,2.745024943774297
0,0.08981009777197291,-2.4237680904860897,-0.28844041356866834,1.3077001906763084,2.750024989209223
0,-6.0398816656594185,-7.423265339357663,-4.597108674466423,-12.411954582690946,2.7550250346441487
0,-4.479574395795634,-3.6527636756276176,-6.845778350094925,-6.261610310515646,2.7600250800790747
0,-5.479268082163014,-8.032263094699076,-8.094449437911564,-9.571266987901568,2.7650251255140006
0,-9.618962713785649,-11.34176359138141,-9.773121934753334,-6.320924609157915,2.7700251709489265
0,-5.198658279075668,-5.561265159746481,-4.881795836699141,-3.760583167839358,2.7750252163838525
0,-3.488354765785455,-0.050767793098199177,-3.3704711390926874,-8.61024265685452,2.7800252618187784
0,-2.548052161109218,-3.090271484192242,-1.3391478367218448,-5.299903068520502,2.7850253072537043
0,0.44224954813065054,2.500223774482146,-3.6078259240184067,-4.10956439455574,2.7900253526886303
0,0.9625503753047424,4.550717990495038,-0.866505395160313,1.0107733738414537,2.795025398123556
0,-1.0171496661661872,-5.818788828674599,-4.775186244090415,-2.438889754205406,2.800025443558482
0,1.4131494371240563,3.8117033243623575,3.406131535471658,0.011446230581949157,2.805025488993408
0,-0.7865523014368869,0.25219445698720266,1.057447949934376,-3.788218662406007,2.810025534428334
0,0.44374513152256156,-4.417315423423256,-0.9112369943168428,-2.957884423615612,2.81502557986326
0,5.614041749329239,-3.8568263094277966,2.000076709020931,-1.9575510432564682,2.820025625298186
0,1.9143375651562433,1.193661806633507,-1.0386109338049652,-1.6272185112801354,2.825025670733112
0,-2.535367408065829,-2.7658510673447747,-4.047299916554564,-1.8568868174206927,2.8300257161680378
0,-2.0250731575414975,1.2746350766687884,-6.6659902328539715,-3.826555951218944,2.8350257616029637
0,2.4652203295706654,-0.7548797532254077,-1.0846818759994008,-0.11622590200196736,2.8400258070378896
0,-0.19448693382249393,-8.284395548844602,-0.22337483891091112,3.3641033410802215,2.8450258524728156
0,0.5758050651615669,1.2460876982014817,-1.5820691142668921,1.8444317888932096,2.8500258979077415
0,-3.8639036606254678,-0.8834300034085953,-5.330764694599598,-2.7552405478223982,2.8550259433426675
0,2.186386901717374,3.3570513551656296,-0.9994615722355384,-1.6949136583970046,2.8600259887775934
0,2.676676765149896,-0.41246821726229654,-2.8681597392248226,0.045412467915111665,2.8650260342125193
0,1.2169659425700643,-1.231988711969929,0.34314081262616036,3.7757378419533723,2.8700260796474453
0,-3.96274555325715,-7.741510120219027,-2.6155599083198444,-0.6039375254746373,2.875026125082371
0,-3.452457709572302,4.888967566922027,0.8457381064218441,-3.593613623653513,2.880026170517297
0,0.03782948656685059,9.669444358522217,-1.7829651345691817,-6.173290441812844,2.885026215952223
0,-1.3418839516750531,-1.9700797365555294,-2.131669622626222,-1.7829679688981839,2.890026261387149
0,0.568401989002554,3.8603952901510907,0.6396246510259058,0.49735380650215166,2.895026306822075
0,-1.2113126780367982,-1.2491305531753296,0.8309176952578692,-1.5423251039654589,2.900026352257001
0,2.968972060593068,-1.2286572584661801,4.05220951893485,10.397995311382143,2.905026397691927
0,7.869256218197086,6.531815182300867,6.803500130748968,6.948315063987814,2.9100264431268528
0,3.899539807782105,6.422286777001822,6.144789539017099,4.87863416475043,2.9150264885617787
0,5.029822841877342,8.082757533106012,2.186077751540914,3.9589526239280977,2.9200265339967046
0,7.760105332489863,6.7032274574589215,5.737364775619114,-1.2207295487207486,2.9250265794316306
0,8.260387291060928,7.863696556203518,8.768650618086369,-4.120412343688649,2.9300266248665565
0,8.540668728349123,5.924164834774384,7.909935285215434,3.9199042485270805,2.9350266703014825
0,-0.969050345610746,0.8046322979573006,-0.6687812173828198,-5.419779762477501,2.9400267157364084
0,-7.418769921275185,-2.8149010499131832,-3.277498884598681,-1.6694643669994012,2.9450267611713343
0,-4.858489989113443,-0.23443520465407702,-6.596217711424057,-13.269149555086754,2.9500268066062603
0,-7.0782105391908114,-2.903970162011777,-6.5749376925623215,-11.138835316227489,2.955026852041186
0,-0.06793156103570025,-1.9935059175776773,0.3063411777662134,-6.838521639038308,2.960026897476112
0,-2.0076530437405635,-0.39304246676326315,2.527618905739164,-3.4482085112083687,2.965026942911038
0,-6.587374976104547,-7.792579804778051,-0.8411045023332113,-5.097895919709783,2.970026988345964
0,-6.027097346611578,-7.722117926514216,0.17017095981903896,1.5624161489601165,2.97502703378089
0,0.3931798566888881,-1.3316568263613817,2.141445298415982,9.04272770852293,2.980027079215816
0,-0.16654335386850178,2.308803501783428,-2.6772814803592784,10.253038772505436,2.985027124650742
0,1.613733034217693,-0.3507369357467819,-1.1160093703288971,4.693349353819036,2.9900271700856678
0,-4.505990966529825,-1.700278132604987,-3.3547383652228144,-2.4163405353287883,2.9950272155205937
0,-4.105715343510873,0.5901799175583291,-0.7434684585918196,-1.1260308831411003,3.0000272609555196
0,-5.045440083868097,2.960637221116893,-5.732199643767689,-4.755721677852865,3.0050273063904456
0,-0.2951651743699267,6.521093784354621,0.47906808617014707,-1.7054129075016264,3.0100273518253715
0,-0.3348906014634832,-7.968450386667069,-0.8096652616165863,1.974895440120577,3.0150273972602974
0,-0.5146163514263805,-14.907995285915796,-4.838399679790357,-2.604796622625889,3.0200274426952234
0,-0.9843424104670964,7.772459093070758,-3.117135160824019,-5.8144890832829565,3.0250274881301493
0,-0.02406876474153752,-2.817087242718297,-2.6358716969049363,-4.724181929165141,3.0300275335650753
0,-3.1237954003353265,-0.6466342860936266,-3.274609279899724,1.1261248527850414,3.035027579000001
0,-2.3735223032157196,-0.24618202984433077,4.706652098577746,2.9664312759099793,3.040027624434927
0,2.8267505408114655,-5.135730466677298,2.427912446986977,0.45673735358582745,3.045027669869853
0,1.4170231460257563,-6.4052795890934835,1.9091717736405955,-3.552956900907411,3.050027715304779
0,2.6672955266293665,1.9951706107475329,0.6804300866172277,-0.7126514742947364,3.055027760739705
0,2.317567696639564,-3.34437985898151,1.201687393814083,1.9276536468049739,3.060027806174631
0,4.837839669838373,8.056069010038922,2.8429437029956772,0.6579584758318053,3.065027851609557
0,4.928111459701957,11.366517225975487,8.554199021733123,1.9282630261664737,3.0700278970444828
0,5.028383079306229,0.5469647964897619,3.685453357229525,3.24856731105655,3.0750279424794087
0,5.168654541261467,8.637411728586452,4.816706716179897,4.648871343543856,3.0800279879143346
0,3.5089258576972795,-0.43214197128336995,1.257959104794047,5.149175136356143,3.0850280333492606
0,-0.6908029596789287,8.62830370289137,4.009210528908969,5.699478701800181,3.0900280787841865
0,2.19946810055892,0.4787487567108516,5.300460994046059,4.069782051698229,3.0950281242191124
0,1.629739049681634,-3.2408068045739493,6.301710505352863,10.570085197347161,3.1000281696540384
0,-0.939990101158698,-11.320362975789187,0.6629590675205135,0.6303881494638872,3.1050282150889643
0,-2.549719340880481,-1.8099197514201235,-3.5057933151383245,-1.5493090817606137,3.1100282605238903
0,-5.589448658324828,-1.4794771254093855,-5.2645466384035196,-2.2190064863892345,3.115028305958816
0,0.4708219579065962,1.240964908690387,0.43669910214416674,6.831295945504236,3.120028351393742
0,-1.058907480520823,2.4714063574482443,0.08794391118643052,0.9715982237890755,3.125028396828668
0,0.8013630382134187,-6.918152772583006,1.2491877935288367,4.381900358097711,3.130028442263594
0,-3.2583664740084326,-7.6277124747471765,-5.889569245999428,-5.117797642201039,3.13502848769852
0,-2.6580960052151505,-9.657272741958582,-3.268327202456272,-9.26749576778261,3.1400285331334388
0,-0.757825543259822,-4.516833566436778,1.7329139293536135,-6.827194008980998,3.1450285785683647
0,-2.3075550757919103,-6.9463949396684095,-5.1158458451303215,-2.1368923555143953,3.1500286240032906
0,4.942715409677787,0.344043147473583,-2.2846065202779613,-0.3465907965406039,3.1550286694382166
0,7.912985925588678,-0.1355192954688325,6.59663190972083,0.21371067909047625,3.1600287148731425
0,2.263256484054017,0.7449177412292634,0.47786945071012854,-1.0059879173638944,3.1650287603080685
0,-2.6964729032469337,2.105354267300613,-4.130893891606654,-6.465686574568992,3.1700288057429944
0,6.863797775083385,4.445790292373632,-1.3296581115816055,5.44461471896784,3.1750288511779203
0,2.1240685302576807,-0.6937741741214647,-2.1284232034223862,-1.0450840251274474,3.1800288966128463
0,0.6143393732344988,-7.793339122908379,-1.2871891611307258,-0.6247827952350836,3.185028942047772
0,1.814610314717847,-5.9029045445808235,1.8040440214472908,-3.0244815797566287,3.190028987482698
0,0.24488136525028326,0.5475295706824237,2.8852763505110186,-4.064180366980219,3.195029032917624
0,-0.7048474647218275,-8.392036766850072,1.6865078321576914,-6.9238791449207815,3.20002907835255
0,-3.4045761647705906,12.508396453389754,-3.282261527678034,-3.1735779011793075,3.205029123787476
0,0.8356952756180445,6.92882924195224,0.07896827687509789,2.0167233770784354,3.210029169222402
0,-3.4840331329007808,4.189261608937677,0.5501972517443229,-6.222975297015198,3.215029214657328
0,-4.413761379503673,-2.750306436145605,-2.35857459707538,-2.812673910113541,3.2200292600922538
0,-2.3734894531174717,-2.869874884102692,-2.7373472635169676,-3.80237244858057,3.2250293055271797
0,1.3167826576215396,4.360556274260949,6.113879258588323,-2.862070898428473,3.2300293509621056
0,4.977054964230245,5.660987048145451,5.405104975381524,5.938230754609667,3.2350293963970316
0,4.897327478111154,2.511417446525158,5.046329892699023,5.698532524835501,3.2400294418319575
0,5.9676002103115104,6.831847477976188,2.6175540159087083,4.288834426261905,3.2450294872668835
0,0.12787317142459897,0.49227715064912136,0.9987773499554733,-1.7108635275278217,3.2500295327018094
0,1.0381463716664192,2.032706472324991,-0.26000010048995614,1.2694386767521657,3.2550295781367353
0,-2.6615801789355067,-9.046864549409197,-5.688778330846833,-4.660258947691524,3.2600296235716613
0,-0.4813064703636033,-11.156435906806104,-2.877557336409108,-2.599956387553806,3.265029669006587
0,-4.531032492489757,-6.516007591529003,-4.326337112166282,-6.719653629275779,3.270029714441513
0,-8.230758234949217,-5.535579594433364,-5.955117652720991,-12.509350658857688,3.275029759876439
0,-2.48048368696836,-2.415151905660344,-4.263898952242166,-0.6790474616541678,3.280029805311365
0,-5.520208837265715,-3.084724514844705,-2.4326810044396807,-4.918744022336792,3.285029850746291
0,-5.969933674070088,-2.114297411270531,-5.691463802602393,-6.228440325049202,3.290029896181217
0,-5.469658185119688,0.4661294160319871,-0.6102473396479067,-3.8881363534872166,3.295029941616143
0,-2.3493823576376243,-4.493444021784327,-2.9190316081680763,3.9221679090756005,3.3000299870510688
0,-1.6691061784007288,0.9969822865899529,-2.0478166004955085,7.342472479548922,3.3050300324859947
0,2.8511703660927243,1.0674083525991673,1.903397691231611,5.692777374618592,3.3100300779209206
0,1.851447289415296,1.9678341877198338,0.41461127497581607,2.8930826104739054,3.3150301233558466
0,0.6817246050411985,3.828259803321311,-2.6541758412961753,2.2733882028094086,3.3200301687907725
0,-1.5679976736895702,1.198685210568495,-1.112963649595264,2.0336941669627384,3.3250302142256984
0,0.4122804665115015,-2.9008895795794913,1.1782478581628457,-0.6059994819623075,3.3300302596606244
0,1.4925590389432077,-1.8704645562304987,3.2994586901164284,6.144307270968024,3.3350303050955503
0,6.722838056846025,7.139960291563183,7.550668854277676,5.514614440463001,3.3400303505304763
0,-0.7268824667538423,5.720384974672201,2.2818783583185516,10.664922040810765,3.345030395965402
0,9.613397480844293,8.440809503578937,9.263087209435742,9.455230085634788,3.350030441400328
0,9.813677911901411,9.421233888131418,9.134295414257405,4.3955385877401705,3.355030486835254
0,8.193958838014938,8.881658137403013,14.065502978663737,8.06584755913712,3.36003053227018
0,3.6542402699724272,11.272082259597742,6.9167099075771405,8.31615701113323,3.365030577705106
0,6.764522217834432,8.212506261989816,5.787916204923739,5.17646695434274,3.370030623140032
0,6.814804691062591,2.292930150954104,2.249121873824207,14.926777398635965,3.375030668574958
0,-2.764912301416792,-15.886646067722184,-2.6196730831050994,-10.542911646856847,3.3800307140098838
0,6.5053712489148205,-0.3062223882155419,-0.9384686634435251,0.4473998265268605,3.3850307594448097
0,2.1056553502982394,0.424201195776977,0.41273513525560435,0.5977118274248674,3.3900308048797356
0,5.185940010679785,4.6046246909039725,-1.546061684477287,7.718024364563256,3.3950308503146616
0,-0.4637747623364753,-6.124951896172032,-0.18485912004928054,-0.8216625534835682,3.4000308957495875
0,-1.343488961406823,1.7454714411732795,-1.6236571688009247,0.8686510815743667,3.4050309411845134
0,-3.7232025792546626,8.345894709580005,-3.102455827972455,1.3189652778361782,3.4100309866194394
0,1.0570843915096009,4.966317915512025,-1.4712550946463698,-1.3907199566812514,3.4150310320543653
0,4.267371958395628,-3.763258934974814,1.1799450342774667,-2.6804046139753295,3.4200310774892912
0,8.537660128817096,2.2471641638579722,3.701144561987102,12.559911313959082,3.425031122924217
0,9.227948909764958,2.927587217642103,3.4723434915709306,5.890227834908694,3.430031168359143
0,5.0482383075522534,1.3380102319090992,1.463541825868902,2.9705449561139203,3.435031213794069
0,2.7685283277814428,-0.04156678798054084,-1.4552604325299736,2.320862684223926,3.440031259228995
0,4.568818975498397,3.348856163180397,3.885936718814553,-2.21881897448365,3.445031304663921
0,1.9091102553461115,0.6592790904647184,2.8071332822273685,3.9014999861063497,3.450031350098847
0,2.3894021716413305,-3.790298001177215,-1.2716707401426648,5.991819571983902,3.455031395533773
0,1.939694728433052,5.080124893160927,-0.5504753463006784,5.15213978885904,3.4600314409686987
0,-1.8400120704274028,0.6705477783597128,2.2707194657022116,-2.397539357969346,3.4650314864036247
0,-6.079718221147616,0.22097065918472703,-0.6080863022027281,2.5927821364823096,3.4700315318385506
0,3.25057628019873,7.781393540223716,3.503107351847464,4.77310427703102,3.4750315772734766
0,1.0408714377073085,6.01181642578297,-0.6056995703956166,-0.3865729316876897,3.4800316227084025
0,-3.2788327444909093,-2.7177606802548033,-1.9445070672807563,6.593750514707989,3.4850316681433284
0,-0.6285362622616244,-3.367337774330607,-4.553315137141157,-5.215925379646855,3.4900317135782544
0,1.4317608886108437,1.3130851470940317,0.7178762218609561,-1.6856006107403971,3.4950317590131803
0,0.3120587124018312,2.0635080876656455,-0.9209329882311659,-4.8752751744576495,3.5000318044481062
0,4.102357213337141,1.693931051020754,-1.6897427652450399,-0.2849490664147658,3.505031849883032
0,0.8426563954950003,-4.335645959305785,0.9614468930709783,-7.544622281924248,3.510031895317958
0,2.3329562627527927,0.3147770602043799,1.3226359890168522,2.0657051840120637,3.515031940752884
0,-2.0567431811890815,-4.2047998868078365,-5.686175475093413,-4.963966663315599,3.52003198618781
0,-2.066441932698188,-6.70437679647458,-1.0649874968622886,-2.1136378183730677,3.525032031622736
0,-6.766139988037246,-2.9939536645741893,-6.813800073655192,-2.6633082753818145,3.530032077057662
0,-2.8858373431755897,2.3664695135189353,-5.192613202470675,-11.04297802824549,3.535032122492588
0,-5.405533993669024,-5.813107257293648,0.8885731201232232,-8.182647070370159,3.5400321679275137
0,-4.3152299346329555,1.4673160280495083,-0.6002411020974536,-5.602315394447353,3.5450322133624397
0,-4.3949251607417645,-2.7122606252363948,-4.489055865179221,-2.8819829924304976,3.5500322587973656
0,1.135380333736979,-0.6118372117928156,-1.967871165015401,3.968350144243984,3.5550323042322916
0,1.755686554795705,-4.251413726121733,-2.496686997262999,-4.371315975638686,3.5600323496672175
0,-3.3840064915030363,-10.450990162478458,-3.5755033573116073,-0.5109813432245749,3.5650323951021434
0,-2.6236987990637664,3.2394334853031452,-4.184320240271811,-2.530645949551134,3.5700324405370694
0,-3.8233903616296185,-2.0301427761882422,-5.013137640918386,2.4496902144918318,3.5750324859719953
0,-0.04308117268291256,-1.9497189401406345,-3.621955553626864,-0.37997284191151,3.5800325314069212
0,-4.712771225452032,-3.5292949996141347,-4.170773972352395,-10.819635109526393,3.585032576841847
0,-5.362460512907269,2.1211290525050845,-5.029592890638071,0.6007034211114002,3.590032622276773
0,2.9978509722898172,2.461553223453031,-0.13841230163258228,2.711042759824271,3.595032667711699
0,-3.411836762263564,1.8219775204149298,-2.1472321981608427,-2.8686170833697764,3.600032713146625
0,-3.8215237088141167,0.5824019504080843,-1.6160525728326964,-0.2282760984295055,3.605032758581551
0,4.6687901405403975,3.632826520274011,1.7751265818829762,4.082065724702324,3.610032804016477
0,0.21910479379155468,-0.12674876331404028,-1.893694726402235,1.4924083960359271,3.615032849451403
0,-0.530579741127887,0.8536761061571034,1.8374835099457782,-2.717248074564072,3.6200328948863216
0,2.389736543614772,-1.0058988649015155,0.7986612985472892,3.8130963226570636,3.6250329403212476
0,-0.6899463442161256,-1.9154736700928496,2.5698386469556755,-4.176558402575197,3.6300329857561735
0,4.390371603058311,2.5149516970282013,3.3710155625788074,2.5437877594687555,3.6350330311910994
0,-0.639309607016169,1.745377242924147,1.0021920526118613,0.004134818532725959,3.6400330766260254
0,5.271010032931869,5.585802973941874,6.543368123995186,-1.285517215646256,3.6450331220609513
0,1.1513305300589045,-0.3637711038189084,4.4045437833486165,-4.075168333311618,3.6500331674958773
0,1.641651891279719,11.966655015415704,4.185719036875308,6.485181475384462,3.655033212930803
0,9.73197412324341,6.517081336955116,9.636893890291466,13.335532220230556,3.660033258365729
0,4.202297232216494,6.507507865448169,6.498068348739052,6.0458839105240045,3.665033303800655
0,5.31262122392799,6.077934604820937,3.619242416698995,8.366236554743699,3.670033349235581
0,-0.4870538964196001,0.8583615583770164,2.870416098049076,6.246590160541624,3.675033394670507
0,1.3432718760240767,8.418788728927666,4.891589396218279,-0.8530552651109853,3.680033440105433
0,-3.8364014540372224,-5.34078388110736,-0.6972376857118512,-12.352699715615923,3.685033485540359
0,-3.8160738818525113,-4.940356269513542,-3.076065144894664,-3.272343184225919,3.6900335309752847
0,-3.395745402446863,-6.179928433933693,-3.2548929784999254,-2.7619856636633258,3.6950335764102107
0,-1.9754160105259453,-2.669500371584477,-0.09372118351799237,-1.4016271461490628,3.7000336218451366
0,-3.9850857004828626,-10.419072079175649,-2.882549756721351,-13.451267623532436,3.7050336672800626
0,-3.324754466415041,-3.4586435528640145,-4.751378694681941,-4.20090708717105,3.7100337127149885
0,-2.63442230210882,-5.108214788207911,-0.8402079937234871,-6.380545527739086,3.7150337581499144
0,0.06591079894373375,-3.33778578022457,-0.6390376499010387,0.3998170647317558,3.7200338035848404
0,-1.633755156539414,1.3826434764758913,-3.6378676590679784,-3.909819299358885,3.7250338490197663
0,-1.5234201617095617,0.5330729875137856,-0.9866980169103643,3.8805453906265797,3.7300338944546922
0,3.4769157903722085,1.1835027585511193,4.634471281035118,5.240911145371093,3.735033939889618
0,4.477252706627971,3.1839327951688894,3.6056402392255023,0.0412779753811916,3.740033985324544
0,-2.482409406194217,0.34436310280382376,-1.6131911380832862,0.7016458908955638,3.74503403075947
0,2.1179294584624584,3.434793686714972,-0.47202284683171436,5.292014901950939,3.750034076194396
0,3.5082693070421684,-6.974775447977127,-0.8208548830008561,3.462385018375605,3.755034121629322
0,2.668610145843494,1.6156557038549013,0.9003127574772964,-2.827243750279918,3.760034167064248
0,-0.701048019060645,-0.39391285252956354,2.2314800786865483,0.35312860534196977,3.765034212499174
0,1.5592948182146715,4.896518888198608,1.9426470846345074,3.1535020945577825,3.7700342579340997
0,1.3696386634473257,-2.003049068720973,3.263813779163162,1.9838767266300668,3.7750343033690257
0,-1.4600164776655413,-0.8926167181736369,-1.3950198340872713,-2.0757474893209213,3.7800343488039516
0,-6.359670599436123,-2.252184055052899,-5.983853751586282,0.2646294557227211,3.7850343942388776
0,-2.709323695994771,-9.50175107408804,-5.1526879696666334,-3.6849924291970693,3.7900344396738035
0,-6.078975761109468,-1.6613177696506085,-6.761522484261746,-2.0146131349072025,3.7950344851087294
0,1.001373211856625,1.089115864329035,-3.9503572907739084,-1.2142326520376603,3.8000345305436554
0,-0.7282767701528785,-3.0804501657814822,-4.729192384071514,1.4961490289639638,3.8050345759785813
0,0.7320742999468474,0.3399841465169846,-5.1580277585360585,-4.703468082241815,3.8100346214135072
0,-3.1775735707186623,-2.2495811921749316,-2.7768634080964074,1.0669160241004618,3.815034666848433
0,-3.487220374940289,-2.3891461751312737,-3.905699326262388,-1.9826986421245265,3.820034712283359
0,-3.436866105300416,-1.2387107954677234,-0.18453550619175102,-0.03231207091752625,3.825034757718285
0,2.2834892458885783,2.941724953852275,2.9566280591859284,-0.6419242521992675,3.830034803153211
0,4.2638456864626635,4.802161079881517,4.317791376961554,1.438464824159259,3.835034848588137
0,4.614203224147464,4.522597589465586,2.8289544540239335,4.788855168259295,3.840034894023063
0,3.3345618663452647,5.033034489069785,5.580117296930405,7.019246790005961,3.845034939457989
0,8.354921620040246,10.463471784673075,7.651279911829349,-0.52036030106962,3.8500349848929147
0,5.575282491718814,0.3439094816743029,0.37244230438154424,4.5700339041669515,3.8550350303278407
0,-1.2243555126751844,0.5243475849284386,-1.1463955201869263,-4.8595705854126585,3.8600350757627666
0,-5.033992387564933,-5.9352139009842295,-4.415233556829081,-4.479173760988502,3.8650351211976925
0,-3.3536281273727697,-2.4747749714149774,-1.8740718003927899,-10.298775613499187,3.8700351666326185
0,-2.3232627262450443,-9.23433562139674,-4.732910245464533,-4.858376133348596,3.8750352120675444
0,-5.362896177986606,-5.133895845474514,-7.941748886284231,-6.14797531027063,3.8800352575024704
0,0.1774715239245112,0.6965443623612114,-1.330587716644888,0.8324268666016303,3.8850353029373963
0,-0.042159613721118594,-3.1230149914505785,1.7505732700989927,-1.3171695914720702,3.8900353483723222
0,-3.2817895839733344,-1.982573900226937,-2.6482659191627764,-5.336764673018092,3.895035393807248
0,-7.181418379728735,-6.762132357067095,-7.937105277410758,-7.936358366319618,3.900035439242174
0,0.15895400641006957,-1.2016903547540645,0.16405520262897533,1.274049340747892,3.9050354846771
0,-1.800672417810157,-1.4412478857185518,0.7752155285653999,0.7444584607010523,3.910035530112026
0,-0.35029764440754574,-6.030804942098761,0.8763757081867027,1.7848690062071921,3.915035575546952
0,-1.199921665278619,2.3096384842229796,2.5875357492599775,5.145280989848401,3.920035620981878
0,3.3704555277442148,8.870082401516784,6.098695659400292,1.3856944239822093,3.925035666416804
0,-0.509166057186877,0.08052681790755356,0.5498554459502656,2.126109320683455,3.9300357118517297
0,3.57121358797904,-1.1790282588181555,2.501015115932777,4.436525691761412,3.9350357572866557
0,2.931594471131908,-1.3185828210700288,-0.45782532387177155,4.316943548748313,3.9400358027215816
0,2.881976599934262,6.801863138720038,1.8733341331748972,2.137362902836009,3.9450358481565075
0,0.6123599817837391,6.592309627990753,-2.3055065063680678,4.387783764858863,3.9500358935914335
0,3.6827446238420922,4.792756653781976,2.845652764024811,8.04820614528527,3.9550359390263594
0,3.973130533046998,4.363204222591827,3.1768119508317394,1.9486300541369093,3.9600359844612854
0,1.7935177160613986,-2.386347659550346,6.237971060356389,4.659055500946201,3.9650360298962113
0,1.583906179256304,4.5041010130993415,5.059130098548406,-5.040517505131647,3.9700360753311372
0,4.414295928752782,0.7945502461219307,3.3002890708915955,2.2999110449012448,3.975036120766063
0,3.044686970419919,1.4450000449373577,1.1514479824263348,-1.3296588399467066,3.980036166200989
0,3.495079309820811,4.405450414779359,2.652606837867065,-1.3992271506157028,3.985036211635915
0,2.005472952192794,-0.3340986393231053,-2.2862343582756735,4.0912061219863975,3.990036257070841
0,-6.47413209746499,-6.573647112493905,-3.38507560156008,-3.768359013055397,3.995036302505767
0,-9.02373583411746,-5.423194999767673,-5.113916887418893,-9.737922546612303,4.000036347940693
0,-4.803338252314605,-5.422742295792511,-4.102758210972155,-9.607484469213269,4.005036393375619
0,-0.9929393460078553,1.8577110052644419,0.9884004330371557,1.4229552292604484,4.010036438810545
0,-0.14253910868918324,3.218164909541377,0.38955905013461056,-3.6866034404735615,4.015036484245471
0,2.907862466343264,3.178619423175982,3.2907176459112155,4.463839532606293,4.020036529680397
0,2.8782653857619547,9.699074552039711,4.061876225839783,6.4542841595319915,4.0250365751153225
0,0.21866965607092653,-3.410469698417193,2.873034795141012,7.584730451050322,4.0300366205502485
0,1.7090752835837033,1.3599866768789735,0.9941933587286975,2.8751784173837565,4.035036665985174
0,1.1294822744691737,-4.189556317136635,-1.6646480787213371,-0.49437193177369804,4.0400367114201
0,-7.020109365173631,-4.02909867542804,-3.903489512599976,-3.5439205870233206,4.045036756855026
0,-8.93969962910441,0.8313596072745606,-5.312330938151602,-0.8934675389728268,4.050036802289952
0,-4.989288510616423,-5.8881814635026,-3.661172350291855,4.236987221890023,4.055036847724878
0,-5.978876002354362,-2.787721881979581,-10.120013743486378,-4.462556294876659,4.060036893159804
0,-4.518462096347046,-10.907261642022863,-5.17885511163595,-8.992098079662764,4.06503693859473
0,-1.1280467841121906,-2.6668007369768523,-4.497696447996691,-4.851638122544271,4.070036984029656
0,1.8523699431897587,2.273660840367279,0.6134622547389874,0.6088235869284926,4.075037029464582
0,6.072788094504145,3.83412309751969,5.4946210041822985,0.7492870596091865,4.080037074899508
0,1.8232076786042257,-5.535413958020871,4.435779807902303,5.15975230645254,4.085037120334434
0,8.203628703909084,2.1250496811869843,5.466938673138488,5.830219338239386,4.09003716576936
0,9.314051178355625,0.9955140226218753,7.868097606649727,5.7106881653634645,4.0950372112042785
0,2.0844751092600173,5.375979073739303,3.259256614642271,5.581158797702267,4.1000372566392045
0,2.2849005033227994,-1.0835551581840552,0.25041570279393216,2.771631244598483,4.10503730207413
0,0.2653273668343447,5.466911333888134,3.8515748764090363,3.072105514930106,4.110037347509056
0,2.9057557058697685,4.127378556736434,2.9127341405439466,2.892581617210857,4.115037392943982
0,3.07618552633682,4.367846516808338,6.293893499979156,2.3330595596561174,4.120037438378908
0,5.576616833907894,2.708315220151202,7.495052959094527,7.063539350184152,4.125037483813834
0,10.197049633872656,10.0687846723917,9.396212521705918,6.694020996325904,4.13003752924876
0,3.207483930956625,-3.8507451212956045,-1.9226278090327222,-1.4154954948743457,4.135037574683686
0,6.2779197292420585,0.9697258438913632,2.208531969501871,4.894989883201629,4.140037620118612
0,2.7283570322422035,6.030197572573274,2.2296918596613744,6.725477136857345,4.145037665553538
0,1.9887958430224109,9.760670069161668,1.1008518636454072,-1.8140337279411949,4.150037710988464
0,6.159236164289684,-0.7788566623853882,-0.127988016495964,-1.3935427055317704,4.15503775642339
0,3.2896779984040445,8.701617381346885,1.4831722211734626,7.23695020961043,4.160037801858316
0,-0.06987865264432847,3.322092203295207,-5.245667421450014,-3.052554977093294,4.165037847293242
0,3.670566212831673,-4.377432194016307,-1.114506942393309,6.0879417395963475,4.170037892728168
0,-2.618987403669052,-4.736955808256594,-3.5433463394783704,-2.5315596352706415,4.1750379381630935
