labels,F4,F3,Fz,Cz,timestamps
0,25.448265919916903,8.757608959180441,13.240896326672331,16.451529338308017,-1.9998762170011126
0,12.477208555193508,12.04651746510383,16.66103317277355,13.711378975514082,-1.9948765264586115
0,28.40614770668343,12.285423972381633,14.20116956505248,7.831229066584344,-1.9898768359161068
0,24.675083380718206,22.214328490564437,24.24130550836941,21.441079612755903,-1.9848771453736056
0,15.134015581440428,27.93323102769663,39.121441005750945,30.700930613837315,-1.979877454831101
0,26.742944310791763,22.57213158982052,22.86157605779817,20.710782067706358,-1.9748777642885997
0,-6.6581304312225,14.461030180705139,12.471710662374555,13.690633969961269,-1.969878073746095
0,11.800791353995807,19.589926802007852,15.341844815011605,12.440486314156617,-1.9648783832035939
0,-3.760290335718906,6.788821453619468,6.24197850957722,-1.1896609076400375,-1.9598786926610892
0,31.82862449693486,1.507714134051194,-5.017888261184368,-5.119807704215346,-1.954879002118588
0,-23.95246415148189,-6.343395158996853,-5.587755505050049,-15.589954084478734,-1.9498793115760868
0,1.7064437150229448,-6.3545064279710415,-8.317623229673314,-12.780100056742079,-1.9448796210335821
0,-24.114651907331044,-12.575619674932767,-14.337491442128341,-21.160245628175563,-1.939879930491081
0,-41.61575102115633,-15.106734901167966,-19.84736014854979,-22.130390804422174,-1.9348802399485763
0,-29.226853626889028,-18.847852106826917,-21.337229353697644,-26.94053558924215,-1.9298805494060751
0,-22.82795972201706,-13.35897129062288,-13.917099060603803,-15.890679984242064,-1.9248808588635704
0,-13.449069301162982,-27.840092449641734,-21.876969270477815,-21.110823988860986,-1.9198811683210693
0,12.15981764310324,-14.241215579165242,-11.996839982774162,-10.59096760058807,-1.9148814777785645
0,13.698701119056883,6.4776593272888805,1.9632888046001296,6.248889184629389,-1.9098817872360634
0,-14.822418865247062,1.8265322773137789,-3.3765829052324414,4.798746371660826,-1.9048820966935587
0,-1.7335423020972676,-8.394596721211304,-9.056455108659808,-6.481396034544146,-1.8998824061510575
0,-35.68466918338923,-6.175727660302811,-8.716327801646571,-7.411538029095401,-1.8948827156085564
0,-24.56579949965875,-8.146860531554184,-12.356200979469419,-11.031679606773311,-1.8898830250660517
0,-41.29693323915619,-25.887995325784097,-27.486074636376497,-20.26182076156715,-1.8848833345235505
0,-32.598070387150685,-25.8491320325247,-24.50594876508015,-17.101961486246143,-1.8798836439810458
0,-22.66921092565555,-22.150270639361793,-23.60582335619223,-18.742101771994356,-1.8748839534385446
0,-39.470354833545635,-16.98141113161392,-14.735698398021693,-18.89224160823925,-1.86988426289604
0,-8.38150208681061,-12.70255349251322,-20.785573876765888,-17.682380982616465,-1.8648845723535388
0,31.977347340761927,-1.1936977036574938,-10.565449776787846,-2.022519881068056,-1.859884881811034
0,-2.4238065239743296,-13.36484374552204,-19.025326080817372,-17.372658288160142,-1.854885191268533
0,-21.264963654700818,-14.195991597713796,-16.48520277003715,-17.39279618731132,-1.8498855007260282
0,-13.496124025138332,6.122858761063354,0.4449201758456376,-6.752933560683528,-1.844885810183527
0,-26.94728760787369,-2.708292647176017,-6.624957221714877,-13.043070389124981,-1.8398861196410259
0,9.371545626131006,-2.089445800135185,-5.24483494057111,-9.713206652329436,-1.8348864290985212
0,2.700375707111591,4.439399324542912,-1.4347129581078086,-8.423342328957844,-1.82988673855602
0,27.64920266546621,-6.371757250749149,-5.194591251292037,-16.043477396654076,-1.8248870480135153
0,10.898026530689986,-16.1229155034602,-19.454469796626512,-25.803611831889935,-1.8198873574710142
0,-17.413152669014295,-15.76407541041328,-10.744348569817145,-16.193745609560523,-1.8148876669285094
0,-2.4143349060922015,-3.9852369473059635,3.3257724545166383,-2.8138787027652428,-1.8098879763860083
0,30.354479847086342,17.3935999111626,23.86589330242748,17.255988916678138,-1.8048882858435036
0,29.033291617681826,10.412435190433545,15.926013999548125,20.195857277062064,-1.7998885953010024
0,23.832100431058116,5.98126891521609,12.23613457016202,13.665726405642078,-1.7948889047584977
0,-11.679093689714794,1.6301011092841193,2.8862550370533997,9.31559632814249,-1.7898892142159966
0,-37.24029072281806,-6.371068204167528,-10.92362457797685,-3.8945329310116503,-1.7848895236734919
0,-12.751490645779446,-14.242239001970397,-18.933504253247854,-13.304661348015259,-1.7798898331309907
0,17.827306565575277,-7.09341126040966,-10.213383966300078,-9.764788898847497,-1.7748901425884895
0,1.7461009364196594,-21.884584954799145,-22.9932636933459,-22.084915558591707,-1.7698904520459848
0,9.9948924917099,-12.295760059199793,-15.523143409042602,-15.6950413009923,-1.7648907615034837
0,8.903681255683374,-8.886936546260428,-13.763023086381345,-3.735166098264079,-1.759891070960979
0,-44.02753274788611,-12.078114387314715,-16.98290269672559,-10.445289921296917,-1.7548913804184778
0,-16.50874949463227,5.010706447325065,-0.7327822100010799,8.084587259878395,-1.749891689875973
0,9.04003104148918,5.119525987925344,8.297338404885068,13.53446547551911,-1.744891999333472
0,33.87880888771669,28.888344264617306,26.30745917918749,31.884344755340592,-1.7398923087909672
0,11.247584070735764,16.657161306492068,14.757580143247937,15.494225127560483,-1.734892618248466
0,48.02635661530743,19.32597714090697,13.59770132580776,13.454106618392986,-1.7298929277059614
0,9.91512654367273,17.604791793298038,11.78782275397505,7.813989252252705,-1.7248932371634602
0,20.493893875472057,16.963605287282146,17.81794445344613,12.833873052222245,-1.719893546620959
0,40.76265862799752,16.74241764474589,20.788066448505578,10.863758040298869,-1.7148938560784543
0,19.081420816150697,9.591228885943764,9.158188761854793,2.623644237457708,-1.7098941655359532
0,7.860180452271573,4.220039029739317,0.2183114147059384,-5.206468336114295,-1.7048944749934485
0,13.2089375466148,5.1988480939999375,4.578434427289288,-1.7865796605322042,-1.6998947844509473
0,-3.8623078918644524,-7.192343903979172,-10.611442180570451,-12.68668971572974,-1.6948950939084426
0,-38.96355585466865,-0.7635369470739638,-8.11131838896825,-6.986798481112834,-1.6898954033659415
0,3.275193667399787,-4.404731018005042,-1.8311941775156906,-9.446905935321318,-1.6848957128234368
0,-44.36605931483457,-15.39592609912001,-16.98106952514963,-25.18701205603647,-1.6798960222809356
0,-8.69731478856064,-9.937122172108062,-11.15094440999718,-14.767116819644075,-1.6748963317384309
0,-2.928572738959594,-2.6783192177259467,4.489181190774522,-8.91722020092304,-1.6698966411959297
0,18.4301668501245,-2.389517215885747,3.66930730069729,-8.187322173175364,-1.6648969506534286
0,-5.8610960049769245,-4.600716145979801,5.219433943393716,-8.237422708614575,-1.6598972601109239
0,-35.97236128811914,-4.691915987046654,0.4295611421805461,3.4424782213314202,-1.6548975695684227
0,-20.553628982373635,1.3668832822232972,5.069688920026221,9.982380645645042,-1.649897879025918
0,-17.66489906885872,-6.244318316557396,-9.38018270033255,6.242284593151602,-1.6448981884834168
0,-19.556171526481624,-13.625520761448941,-8.420053696106311,-3.457809907852159,-1.6398984979409121
0,-20.587446332183138,-10.926724029889561,-13.559924044002244,-0.6079028294737711,-1.634898807398411
0,-19.29872346101448,-4.967928098380243,-5.479793719858016,2.55200585609162,-1.6298991168559063
0,11.259997113709069,-13.149132942451335,-15.629662698525658,-14.668083823255538,-1.6248994263134051
0,-6.201284580238369,1.2096614632096876,-0.9895309538888629,4.821828160656069,-1.6198997357709004
0,-34.302568514538706,-21.431544855315572,-20.089398458897925,-14.948258163551158,-1.6149000452283993
0,3.0461453400122966,-7.3827518710725295,-9.09926518550831,2.2916572332597744,-1.609900354685898
0,-15.535142986024306,-18.22395955598237,-16.839131104498637,-8.458425619259314,-1.6049006641433934
0,-22.23643346081336,-11.735167880666454,-3.28899618538936,-0.8785066909955186,-1.5999009736008922
0,-13.84772605119046,-2.4463768144700024,-5.488860396628342,0.8614140485259938,-1.5949012830583875
0,-19.25902072236501,-9.987586325700228,-1.2387237059371417,-7.768663369971214,-1.5899015925158864
0,-28.800317437760548,-5.758796381900084,-10.278586080561618,-4.268738915505759,-1.5849019019733817
0,10.60838384101226,8.169993049974126,12.381552512627628,9.84118744321526,-1.5799022114308805
0,24.35708315354227,14.578782003146248,17.581692106788697,16.76111573748305,-1.5749025208883758
0,16.285780539156253,13.947570510303585,15.761832734362278,14.451045997884119,-1.5699028303458746
0,-13.515523964105757,3.9363586030729367,2.5319744265081314,5.260978253796451,-1.56490313980337
0,15.353169680779367,-15.804853687832882,-14.137882786668593,-10.539087466463354,-1.5599034492608688
0,9.261861510353544,1.5839336681022145,1.3822611246899243,6.730848864991327,-1.554903758718364
0,-15.539448439303658,-6.717279298206919,-7.127593809190573,-5.44921272391481,-1.549904068175863
0,27.30923986746959,21.111507444492535,14.852552442277915,24.840727794703394,-1.5449043776333617
0,3.8379264658958867,14.49029392715468,21.78269990950098,22.310670448089613,-1.539904687090857
0,12.736611390350877,1.5790801797532046,9.25284862192065,12.17061526205398,-1.5349049965483559
0,18.52529467407709,8.257866231170663,15.692998607544418,13.010562260645079,-1.5299053060058512
0,10.383976349077168,9.496652109492015,12.48314989296213,9.050511466399652,-1.52490561546335
0,4.722656446062324,4.175437842116989,7.90330250348082,6.080462900690214,-1.5199059249208453
0,-12.118665005206397,13.54422345570325,7.923456463271517,9.670416583959895,-1.5149062343783442
0,-3.9999879751850163,-13.526991023772597,-16.91638820427213,-16.859627464001306,-1.5099065438358394
0,-20.311312433845234,-12.398205570583615,-17.196231475798392,-11.249669223482092,-1.5049068532933383
0,8.877361649693968,15.390579841344682,16.703926672739264,13.290291325765546,-1.4999071627508336
0,15.366034306918323,17.419365238304863,16.38408626587208,19.910254204307684,-1.4949074722083324
0,31.784705568939863,9.358150645931328,14.44424732755624,11.55021943204649,-1.4899077816658313
0,39.26337546520354,3.5369360886732037,9.63440988043638,8.220187027569812,-1.4849080911233266
0,-9.787955977331345,-7.644278409920268,-6.925426054063075,-4.999842991691555,-1.4799084005808254
0,23.190711266089615,-1.105492826569289,2.3347395448331243,0.6001293911079031,-1.4749087100383207
0,8.929377218810185,8.383292862117365,14.884906697683343,21.030104192584176,-1.4699090194958195
0,-37.77195809666184,-6.357921320429307,-4.714924575262908,-1.2599185711020426,-1.4649093289533148
0,-1.133294657723016,8.130864649094333,8.745245745745901,11.030061115420995,-1.4599096384108137
0,29.84536755909753,21.41965079369809,29.945417679862935,28.530043266613657,-1.454909947868309
0,3.014028577431867,14.388437135589667,15.24559124512338,19.690027895620958,-1.4499102573258078
0,-2.077311579981083,-1.6527763043057313,-7.1042335420435325,4.710015013776121,-1.444910566783303
0,-4.918652891152192,-7.893989506070786,-7.6840566663284315,-2.869995369165131,-1.439910876240802
0,14.910004665757823,8.414797549931997,8.396121887420335,14.319996755709948,-1.4349111856983008
0,-16.15133888746497,2.593584883360566,9.046302134455281,10.599991396770877,-1.429911495155796
0,6.137316470909968,3.7823725136816613,1.496484089723464,-0.6500114383480571,-1.424911804613295
0,9.435970762662258,3.9511604599943277,5.086667767617099,6.359988257245139,-1.4199121140707902
0,-4.5753759905515725,-4.440051258924529,-2.0031468179108893,0.43999048996371376,-1.414912423528289
0,24.373276232492064,0.7587373755536626,-0.3529596531321905,4.879995265899939,-1.4099127329857843
0,14.431927452235309,1.0675263820753027,2.1772292756151996,6.93000259081732,-1.4049130424432832
0,11.360577687863854,20.86631577919017,16.957419981868938,17.42001246997711,-1.3999133519007785
0,0.039226957192635914,0.09510558490877996,-0.2623875213036828,2.190024907828334,-1.3949136613582773
0,8.967875277067323,2.923895816428866,0.7978067784962479,4.920039907902404,-1.3899139708157726
0,11.556522663677615,16.25268649025968,13.538002893148182,19.870057472942914,-1.3849142802732715
0,-22.14483086732989,11.071477622211118,8.218200834026291,16.000077604773374,-1.3799145897307667
0,-4.686185300382685,2.4802692271430837,-3.751599388184437,5.360100303935439,-1.3749148991882656
0,-10.787540619254083,-15.48093868086868,-20.221397763219223,-15.159874430164797,-1.3699152086457644
0,20.28110319306066,8.16785391211943,11.928805719460023,18.060153401430984,-1.3649155181032597
0,-5.3102538462517845,5.206647020258355,3.889011070858193,14.440183797479397,-1.3599158275607586
0,-39.35161172008552,-28.37455934219157,-28.69078169786091,-23.139783243797154,-1.3549161370182539
0,-31.392970410419853,-24.125765160426976,-25.390572574989132,-17.669747724379526,-1.3499164464757527
0,-8.61432989697336,-14.186970418110878,-12.270361547245248,-1.2397096454279746,-1.344916755933248
0,-11.935690157045018,-0.18817509701847923,-1.38014859943758,7.230330993005253,-1.3399170653907468
0,-32.677051166124926,-4.1093791776176385,-6.629933715060011,11.240374191239358,-1.3349173748482421
0,2.5015871019134095,15.609417360128628,11.98028312298635,28.360419949020958,-1.329917684305741
0,-38.22977532509412,-4.601785463853979,-13.299498068060178,9.950468264766304,-1.3249179937632363
0,-22.921138417464867,8.737012369950076,10.540722729031446,18.790519135181924,-1.3199183032207351
0,6.407497856538171,3.4458108806355154,6.140945531431194,16.210572555293712,-1.314918612678234
0,-9.983866469691073,-1.7053899130781969,4.881170355996997,11.220628518565581,-1.3099189221357292
0,-1.215231361950348,3.2134100072394687,15.221397218974477,14.820687016985698,-1.304919231593228
0,17.033403214236408,1.1222106598591874,24.441626135698375,23.37074804112021,-1.2999195410507234
0,12.44203729310339,5.041012062896817,20.301857120071936,25.600811579897762,-1.2949198505082222
0,-6.519329091911403,10.809814234170592,17.562090184103322,18.720877620225902,-1.2899201599657175
0,-25.9606959079139,-6.581382808955071,-7.777674662008291,-10.809053852971983,-1.2849204694232164
0,15.907936878356987,-1.2525790494728444,-2.737437409142483,-11.078982855890962,-1.2799207788807117
0,-8.713430699142156,6.736225529561135,4.272801951594991,-5.0889094046433145,-1.2749210883382105
0,6.045201393812944,1.3650309450580704,-5.5569565707906365,-14.988833514571178,-1.2699213977957058
0,8.26383319133738,15.283837213627894,10.683287032735194,-1.888755200119773,-1.2649217072532046
0,2.3924647272250934,4.172644351276293,-1.24646722893036,-6.608674474908138,-1.2599220167107035
0,14.811096034724649,8.341452373223984,13.173780652779554,8.251408648019837,-1.2549223261681988
0,24.789727146249408,2.490261293940671,7.204030685885396,6.541494155758157,-1.2499226356256976
0,-21.50164190691168,-17.370928872558434,-7.985717122234313,-9.538417964829511,-1.244922945083193
0,40.06698890553123,-5.642118112120068,0.4945372354136859,4.451672272926986,-1.2399232545406917
0,30.875619612793777,-10.753306409864901,-3.83520623412992,0.28176485572563037,-1.234923563998187
0,24.59425024210057,-17.96449374992868,-9.744947523539231,-7.838140229665548,-1.2299238734556859
0,-26.237119181736045,-21.385680115243257,-13.504686624991317,-16.768042996244247,-1.2249241829131812
0,2.201511364827906,-4.046865487242615,-2.524423529873808,-9.257943456292802,-1.21992449237068
0,23.160141905312553,11.481950153951729,7.115841771198296,11.812158378862366,-1.2149248018281753
0,29.638772462902796,20.22076682859385,17.926109287807744,23.022262498261192,-1.2099251112856741
0,8.12740305927271,10.389584556191213,13.226379028904532,9.76236889021963,-1.204925420743173
0,6.186033714199559,19.338403354887298,12.926651002224277,15.842477541647092,-1.1999257302006683
0,32.57466444595367,26.25722324125247,22.146925214090874,24.512588437928923,-1.1949260396581671
0,22.993295271266017,20.00604423001358,17.677201669277377,17.6327015627888,-1.1899263491156624
0,32.29192620472219,30.874866333729216,28.187480370750105,26.182816898022296,-1.1849266585731613
0,48.12055725815801,23.73368956257341,21.837761319392612,26.252934423289123,-1.1799269680306566
0,41.19918844004712,12.03251392429405,13.778044513878065,16.99305411597119,-1.1749272774881554
0,-8.422180244771493,2.5213394245899523,8.828329950898407,10.263175951270687,-1.1699275869456507
0,-6.153548794090417,2.5701660678778615,1.2586176257158737,5.743299902685089,-1.1649278964031495
0,13.245082793378593,9.808993857922035,13.478907532689803,14.133425942537544,-1.1599282058606448
0,-7.996285481171121,-9.282177201923817,-10.280800334431833,-7.176445957712513,-1.1549285153181437
0,7.442346383320765,10.23665289142147,6.23949401773507,11.59368417277964,-1.149928824775639
0,-39.65902161201844,-7.764515859078529,-21.850209417405125,-12.266183695465042,-1.1449291342331378
0,21.24961053461667,10.114316549459742,6.660089353984611,5.7239504080016586,-1.1399294436906366
0,45.798242825552535,17.933150119655473,17.690390326179884,16.38408645360079,-1.134929753148132
0,14.206875262057427,22.041984853313437,25.020693493123524,25.034224411218784,-1.1299300626056308
0,32.095507842909186,7.3108207508040355,8.260998847424219,10.544364249406218,-1.124930372063126
0,-39.02585943542218,-16.880342188881848,-15.878693619799598,-18.485494064778827,-1.119930681520625
0,-30.557226577126485,6.928496032702962,3.681616081915911,-0.3653505649216138,-1.1149309909781202
0,-5.528593585059446,2.3573354141267706,0.1519279431703402,-10.955205284263945,-1.109931300435619
0,30.550039539743818,23.706175953869728,24.80224195461095,12.02494174454325,-1.1049316098931143
0,15.728672796591653,19.865017649561736,15.77255810618615,4.875090489049503,-1.0999319193506132
0,-5.162693816353755,6.6738604973425915,3.5428763865072206,-2.9247590834668777,-1.0949322288081085
0,7.2659396978652,17.37270449176647,11.963196782844213,5.085392993908048,-1.0899325382656073
0,17.354573335544494,19.02154962597714,9.303519281455552,6.40554668784044,-1.0849328477231062
0,40.21320709207621,27.570395891569163,20.103843867630655,14.00570196461128,-1.0799331571806015
0,-1.678159038895377,3.1092432782878308,-0.34582947448034207,-3.544141210158995,-1.0749334666381003
0,0.53047493437494,-5.221908225741239,-10.235500761691403,-11.963982871387726,-1.0699337760955956
0,9.509109002538302,-8.763058633112687,-14.22517001101315,-16.663823053851488,-1.0649340855530944
0,-28.172256844036518,-1.464207956251685,-3.3248372388301597,-4.873661791452793,-1.0599343950105897
0,-4.223622614620396,-11.805356207047824,-19.3045024605583,-19.223499116936864,-1.0549347044680886
0,-32.52498831738905,-13.176503396723799,-21.334165690481633,-26.74333506176078,-1.0499350139255839
0,-17.44635395883578,8.852350464284234,10.766173058441256,6.366830344152077,-1.0449353233830827
0,-17.967719543459282,-10.638794633832221,-12.70348622566207,-16.673002927699073,-1.039935632840578
0,-14.509085073776374,-10.819938700487619,-11.723143554041515,-17.652834904766927,-1.0349359422980768
0,8.34954944927853,-5.641081744545653,-9.022798937273166,-12.632665613380176,-1.0299362517555757
0,21.358184025509896,29.227776225690462,29.507547614778193,27.40750492128569,-1.024936561213071
0,21.20681865423201,19.106635201623206,26.5178960920603,23.337676674237947,-1.0199368706705698
0,-5.254546666621325,11.145495173257665,16.85824648298628,8.947849619275168,-1.014937180128065
0,14.474088059578763,13.214356128872057,13.69859877384231,6.628023728494919,-1.009937489585564
0,14.432722828565574,-9.896781944567973,-14.821047050769804,-19.311801027111315,-1.0049377990430592
0,-53.018642364486006,-17.587919060618354,-23.55069100681616,-27.191624676518234,-0.9999381085005581
0,17.619992475935412,-4.5790552324079155,-6.840333109542596,-10.161447247487295,-0.9949384179580534
0,39.698627346166674,13.899809527765425,20.06002662698714,9.02873123383603,-0.9899387274155522
0,13.477262242056534,-5.391324792046891,-3.139611810846454,-13.341089257681645,-0.9849390368730475
0,-14.844102842340872,-17.572458203843695,-20.50924843688409,-24.630908746614736,-0.9799393463305464
0,-50.02546791387231,-13.05359071923068,-20.028883264677432,-26.830727256446462,-0.9749396557880416
0,-23.656832978049035,-25.284722348652735,-29.128516306409672,-33.39054480863296,-0.9699399652455405
0,-32.308198037503715,-18.755853100887443,-20.888147572177008,-19.520361422037695,-0.9649402747030393
0,-5.249563091876446,9.09301701703777,8.55222293005674,1.3198228869668989,-0.9599405841605346
0,-15.200928138526777,-12.138112000672141,-2.147404806271804,-6.369991896295962,-0.9549408936180335
0,-0.06229317332131576,-8.149240159188139,-2.8170307872840445,-7.019805785674623,-0.9499412030755288
0,26.486341808594553,-8.400367463095352,-2.446655019019234,-5.509618794493474,-0.9449415125330276
0,-18.73502318805217,-20.611493916111503,-15.746277507260286,-18.069430935429544,-0.9399418219905229
0,47.54361184075879,1.4573804791184022,2.1041017427538726,6.740757779650735,-0.9349421314480217
0,18.842246897815798,0.9162557209151974,1.46448272637462,9.18094733949707,-0.929942440905517
0,-36.19911801577371,-16.994868191819165,-18.54513456064745,-15.808862267040228,-0.9249427503630159
0,-18.8204828996382,7.064008740244482,-0.4247501221159976,-1.8786710511040168,-0.9199430598205112
0,-0.4618477523703319,-0.03711348314664664,-3.0043639611779813,-10.868479023412762,-0.91494336927801
0,7.196787428857967,-7.918234862045974,-10.133976080386134,-16.688286193920334,-0.9099436787355089
0,15.575422647301078,0.06064460361809515,9.336413518128786,0.20190742836276523,-0.9049439881930041
0,-29.485942094123438,10.619524914098152,1.7068048324441063,-3.18789816467254,-0.899944297650503
0,-22.677306792383675,0.018406069579219836,-4.572802139451723,-8.77770298054048,-0.8949446071079983
0,10.041328556697227,-3.352711930075344,-3.9524073996630573,-5.607507026293327,-0.8899449165654971
0,-24.370036041348165,2.2361709148067113,6.077989049832919,5.522689691516752,-0.8849452260229924
0,-6.561400579989037,6.825054603858694,9.808387207097498,11.602887166569342,-0.8799455354804913
0,30.90723494806115,-4.4160608634256775,1.5487870698449286,9.543085392192795,-0.8749458449379865
0,16.525870550007397,4.642824512243731,10.629188635205963,15.213284360865412,-0.8699461543954854
0,11.234506231762756,0.7517107300203353,0.36959189971664247,10.203484063969007,-0.8649464638529807
0,10.493141997586772,19.510597788817066,14.569996859330399,23.8636844916323,-0.8599467733104795
0,23.04177785034203,6.849485686916464,16.570403509262366,22.41388563246478,-0.8549470827679784
0,-48.08958620813454,-10.951625578258366,-17.44918815617445,-8.155912526632022,-0.8499473922254737
0,-29.760950175819623,-16.242736009648564,-21.298778143075697,-18.14570999991034,-0.8449477016829725
0,0.03768595116637263,-13.463845609603357,-14.678366456783504,-10.705506801508257,-0.8399480111404678
0,-27.923677821009772,-5.704954379291256,-8.597953101127727,-10.275302944516051,-0.8349483205979666
0,-11.615041484414732,-10.056062318726223,-12.767538078491079,-16.41509844079007,-0.8299486300554619
0,-31.666405029438618,-11.467169426972447,-10.677121390077888,-8.184893300991785,-0.8249489395129608
0,0.04223155540269319,2.2917242977594108,5.46329696389818,0.595312465328668,-0.8199492489704561
0,7.920868283153762,6.800618857859597,4.293716983818461,7.835518849320388,-0.8149495584279549
0,15.439505167413182,-3.28048574416999,-4.9558613298723575,-3.784274157758732,-0.8099498678854502
0,6.738142221264159,0.35841049401563985,-3.6654379768112215,-11.634066564737072,-0.804950177342949
0,-22.463220542994115,1.8173075746818252,1.6949870434866126,0.2861416197809904,-0.7999504868004479
0,6.335416886775571,-1.0637944999182871,0.27541373169186306,-2.0636496123339274,-0.7949507962579432
0,-3.5259454768595537,2.755104272422324,10.405842088462906,7.866559731088313,-0.789951105715442
0,-7.647307620926187,7.354003893791359,15.986272114077316,7.846769642116191,-0.7849514151729373
0,-8.908669532098141,-22.44709563385193,-16.49329619187198,-25.033019887458458,-0.7799517246304362
0,2.0499688034811494,4.561805691641455,4.247137169743363,-5.4228088656665,-0.7749520340879315
0,50.11860739984636,5.470707872900414,8.617572198046766,-1.732597299721513,-0.7699523435454303
0,5.707246269966028,12.909610912676811,22.25800889196456,6.647614803924947,-0.7649526530029256
0,6.365885424803307,6.8085148131929305,3.63844724954214,-2.4421725609779945,-0.7599529624604244
0,26.54452487356492,11.027419575805258,5.748887267651158,-4.1119594007645475,-0.7549532719179197
0,17.51316462402684,12.766325200927536,13.92932894221224,8.798254278215714,-0.7499535813754186
0,-19.678195317500982,5.06523168798467,3.5997722683501823,-8.131531530381917,-0.7449538908329139
0,-25.92955494539635,-5.885860964462179,-4.049782759544547,-14.771316832821341,-0.7399542002904127
0,-15.910914253177879,-2.226952758258183,-2.2993361474735523,-1.5211016348889668,-0.7349545097479115
0,6.747726767301891,13.701956304736408,12.431112098516625,16.499114058249162,-0.7299548192054068
0,12.056368125284983,-0.0991337774779461,3.331561972216981,5.619330241455216,-0.7249551286629057
0,31.255009829828776,5.1897769926594695,6.722013466923567,21.799546908846843,-0.719955438120401
0,8.66365188866853,3.658688612244306,8.762466575304844,16.589764053311757,-0.7149557475778998
0,37.102294307626565,1.6976010780021762,4.672921289384944,1.4699816662909606,-0.7099560570353951
0,-2.5490629095137605,-8.193485613592115,-4.866622399399912,-4.949800261950467,-0.704956366492894
0,25.709580239178973,23.185428533811937,26.983835499914953,33.830418258175406,-0.6999566759503892
0,-3.6117762458301477,25.654343516079493,26.94429497748445,29.010637215301067,-0.6949569854078881
0,-34.60313236488014,6.13325932775606,-3.0152439780703655,0.040856596227491826,-0.6899572948653834
0,-3.8944881179229376,-0.8378240382090654,-10.254781379604237,-4.458923614070976,-0.6849576043228822
0,-9.405843503562751,-16.858906589733273,-20.00431724031026,-16.24870343132731,-0.6799579137803811
0,-30.947198518979217,-7.3099883345540455,-10.16385157254905,-5.5284828708593965,-0.6749582232378764
0,-20.958553159821445,-18.38106927951976,-18.043384387324824,-14.59826194705904,-0.6699585326953752
0,20.420092580029966,-2.5221494303336813,-3.5029156942599853,-3.3380406733188237,-0.6649588421528705
0,-2.921261292208253,-14.363228791597491,-15.782445501767477,-16.347819062082735,-0.6599591516103693
0,-26.852614769131137,-8.63430736692685,-9.321973817189978,-1.5875971248762575,-0.6549594610678646
0,-8.203967842893618,-4.465385159001636,-11.47150064680145,-8.67737487236567,-0.6499597705253635
0,-49.10532050422457,-22.156462169577445,-19.59102599573089,-15.357152314436494,-0.6449600799828588
0,-22.746672741546046,-17.467538399303542,-29.820549867707285,-19.18692946002837,-0.6399603894403576
0,-28.788024540394865,-30.9286138472445,-37.940072264449796,-28.116706316659847,-0.6349606988978529
0,9.7506241164108,-6.269688510468859,-9.14959318506205,-4.696482890009314,-0.6299610083553517
0,-24.580726752129642,-4.910762384172805,-7.809112626146257,-7.476259184006703,-0.6249613178128506
0,3.107922874044725,-4.521835462316341,-11.36863058260517,-6.006035201391263,-0.6199616272703459
0,22.666573015618148,12.72709226169311,14.481852951586038,14.064189055718662,-0.6149619367278447
0,-8.034776306803419,14.996020794369933,11.412337982691506,19.234413585173456,-0.60996224618534
0,43.363874926564336,18.9949501414231,18.85282451637784,17.5946383839268,-0.6049625556428389
0,-21.77747326569566,-11.74611969265998,-11.93668744277571,-11.095136552436891,-0.5999628651003341
0,-5.018820865965234,-1.1971887042353049,3.173802109028348,3.765088770717061,-0.594963174557833
0,3.7098321432610524,-5.598256889719771,-9.085706824529009,-5.874685652173197,-0.5899634840153283
0,7.908485779800483,-8.519324245128477,-7.7752142394369566,-6.334459826461644,-0.5849637934728271
0,20.08714006127358,0.6296092340321934,1.555279868821881,4.955766242811753,-0.5799641029303224
0,-18.104204995425086,3.2485435526759825,13.195775505133504,8.605992550786167,-0.5749644123878213
0,2.6844506260734056,-6.802521284102768,-16.09372732565282,-10.143780907539027,-0.5699647218453165
0,-8.356893057752167,-5.863585271090541,-5.853228618732196,-1.5735541373040984,-0.5649650313028154
0,8.291763969950498,6.035351597198019,1.927271631088455,9.596672856462128,-0.5599653407603142
0,-10.759578273752258,1.8342893264501987,1.7177734294692908,2.036900068735739,-0.5549656502178095
0,-15.000919771556717,3.0332279222535767,3.0382767821812497,2.157127494180261,-0.5499659596753084
0,19.0877394943316,1.6721673899337404,3.02878169482813,1.577355127098876,-0.5449662691328037
0,-15.423600457903499,-17.02889226531334,-20.260711827101076,-21.67241703829914,-0.5399665785903025
0,-14.704939609880139,-0.04995103802266243,5.329796222148778,-1.3621890073906067,-0.5349668880477978
0,40.66372205708438,4.668991077806529,2.8403058488330557,0.21803921521893174,-0.5299671975052966
0,34.88238456126596,13.09793408838786,9.610817059359889,3.2382676254678158,-0.5249675069627919
0,4.751047919029299,-11.993122000376768,-10.208670140144267,-15.261503780534794,-0.5199678164202908
0,14.989712144357107,6.455822817075532,5.901844256207357,5.198724993544886,-0.5149681258777861
0,-21.211622750274003,2.304768546227143,6.832360254236157,2.7189539443741095,-0.5099684353352849
0,-1.2629567527392065,3.7937151924575017,3.7828778595500205,7.049183068674557,-0.5049687447927838
0,11.745710149426088,-13.077337239034717,-15.67660292257082,-13.430587637056405,-0.49996905425027904
0,-22.215622030992357,-9.418388742909537,-7.8560820867579615,-13.710358176265345,-0.4949693637077779
0,-9.776953280877134,-6.569439313185773,-14.385559626924834,-9.880128551703157,-0.4899696731652732
0,-25.218283586186917,-6.530488943043587,-5.365035535956268,-11.479898765024394,-0.484969982622772
0,34.25038706835247,11.718462374973733,13.645490194122928,3.9203311831476073,-0.4799702920802673
0,-29.58094130134427,-4.522585351479135,-7.623982428404123,-8.229438707111509,-0.47497060153776616
0,30.32773132059527,0.1463678851327888,3.586546604629997,-2.5792084353140146,-0.46997091099526145
0,35.37640494949067,0.6953220922562279,1.2170773012755622,-1.3289780006258665,-0.4649712204527603
0,-0.2549204007960048,-7.255722722601706,-13.242390330393306,-12.36874740183517,-0.4599715299102556
0,17.933755281645375,0.6932334482377681,-5.361856282033046,-3.558516637245039,-0.4549718393677544
0,21.632432007118105,13.602190612600413,6.388679455223206,13.311714295346661,-0.44997214882525327
0,20.641109784410087,12.461148778052326,17.149216890493967,14.011945398171767,-0.44497245828274856
0,9.31978862052322,3.9101079513627086,6.679756032416793,4.372176672769535,-0.4399727677402474
0,-19.521531479037197,-16.410931861485352,-18.039703111172688,-14.027591880155432,-0.4349730771977427
0,-33.302850509063774,-10.91197065457165,-13.019160532620651,-9.117360260083677,-0.42997338665524154
0,11.295831536753639,-0.323008421280097,0.4313837764326657,0.7028715340428061,-0.42497369611273683
0,-8.805485333860222,4.635954845759793,3.851929825187385,4.913103503882527,-0.4199740055702357
0,2.9931988875320057,3.5449191541612586,-1.6075223768293168,0.003335651256753759,-0.41497431502773097
0,30.351884209359746,-9.2961154885874,-12.416972820047684,-5.276432022122736,-0.4099746244852298
0,-49.659429360348426,-10.867149074945324,-14.09642149454614,-13.386199514458271,-0.4049749339427251
0,-30.960741813294252,1.071818403111358,4.834131610378106,3.1540331765175336,-0.39997524340022395
0,14.287946860545274,7.520786954136002,14.654686506049456,12.634266053536095,-0.3949755528577228
0,5.866636672963942,3.3497565867608574,3.2252432036569463,6.034499119226647,-0.3899758623152181
0,11.715327636075886,-4.4312726906709266,3.2958017137247877,-1.3852676243767688,-0.3849761717727169
0,25.534019761180694,1.4376991299704633,8.106362046143154,4.964965824216504,-0.3799764812302122
0,10.87271305823272,1.2166720568072558,2.55692421030013,0.6451994661990234,-0.37497679068771106
0,-1.0385924643269409,2.545646097951433,3.277488215107501,5.515433302529361,-0.36997710014520635
0,10.400103200815712,-2.245378738585867,-2.1119459309026185,-2.7243326660877765,-0.3649774096027052
0,8.038800060289047,16.113597555031937,22.678621780484587,15.935901560774216,-0.3599777190602005
0,2.8474981200886673,13.782574986177588,10.159191356852297,11.006135983048791,-0.35497802851769933
0,-37.52380261417257,5.411553561305516,4.259762804712112,-0.3136294001466115,-0.3499783379751946
0,12.494897863594229,-3.5094667141220652,-2.4696638704223055,-2.713394590443787,-0.34497864743269346
0,21.333599560295227,8.369514164759991,8.980911336426166,14.666840410147907,-0.33997895689018875
0,-11.507697517173119,1.4384962025170576,1.381488429932396,6.75707559926197,-0.3349792663476876
0,-8.728993362434919,0.7974794034209491,-2.5079325855409205,-0.8526890260958215,-0.32997957580518644
0,6.509712030882407,2.226463771475694,9.922648294115678,5.84754653047723,-0.32497988526268173
0,14.308418669375484,7.13544931047298,2.1932310727597812,3.817782264996644,-0.3199801947201806
0,-14.642873440573315,1.8944360239089444,-2.066184246102023,-3.1919818268302924,-0.31498050417767587
0,5.1558357071149565,0.18342391491310406,-3.8155976591956544,-6.861745749453234,-0.3099808136351747
0,-3.1654538814399444,-6.207587013608247,-7.965009163144451,-9.911509507106135,-0.30498112309267
0,5.743257800004806,0.3414032413040396,-2.624418754184221,-5.251273103444847,-0.29998143255016885
0,-15.678029242272428,9.040394682756599,11.586173571837493,7.018963458508697,-0.29498174200766414
0,4.58068499819544,9.949387313712723,14.37676781901753,9.709200175976665,-0.289982051465163
0,-5.320599471750856,-6.4316188633681035,-3.4626360091877086,-8.220562954071282,-0.2849823609226583
0,-21.8518826448287,-17.522623846348726,-21.792037909895505,-15.070325934869514,-0.2799826703801571
0,-48.89316451274702,-20.1836276326048,-21.34143787985746,-19.330088769145068,-0.27498297983765596
0,-44.35444506485447,-18.294630218172994,-23.570835914368526,-17.649851458355748,-0.26998328929515125
0,20.344275712806727,-0.055631597440779806,2.559767993165601,4.730385997564752,-0.2649835987526501
0,8.142997836593773,1.643368236461818,-1.1196261492020216,6.1306235997379055,-0.2599839082101454
0,-11.95827867662714,-8.967630709009889,-6.449018332742833,-6.7491386504493756,-0.25498421766764423
0,14.330446189691521,-11.678628426058737,-12.318408548372641,-8.138900751626526,-0.24998452712513952
0,-4.860827548107972,-9.499624906256964,-7.9077967864129075,-2.8386627021404482,-0.24498483658263837
0,12.147900126079566,-4.350620140284439,-3.857183036354177,-2.7584244998268073,-0.23998514604013366
0,-3.6933707720124747,0.18838588197008577,-1.9165672869550014,0.03181385788876673,-0.2349854554976325
0,-22.194640226838654,-4.242606828899794,1.644050473473413,6.1420523737606,-0.2299857649551278
0,-39.095908222205765,-9.923598261979805,-12.84532974313186,-4.477708949494365,-0.22498607441262664
0,-6.577174740102298,-1.164588405929754,-6.774707924468149,3.9725298907162276,-0.21998638387012548
0,-15.728439760269906,3.6544227510610945,2.215915942358374,9.6827688968432,-0.21498669332762077
0,-8.059703260689446,-3.5765647789537724,-2.093458129248578,0.6130080710248292,-0.20998700278511961
0,-3.7609652181515623,-4.8775509838486,7.147169874284047,2.1532474149474923,-0.2049873122426149
0,21.51777439123229,5.461464148636483,14.797799966328915,15.583486929867995,-0.19998762170011375
0,10.25651559119341,-5.499519369095015,4.808432159646079,3.65372661648888,-0.19498793115760904
0,-49.31474159513204,-12.070501524491391,-1.2109335338167386,0.13396647479808416,-0.18998824061510788
0,-29.665997144102114,0.8585176953858797,1.3197028973300697,7.784206504206253,-0.18498855007260318
0,-18.247251029820596,-1.9724616959926007,-0.7096585357140084,3.074446703726664,-0.17998885953010202
0,14.971496776184136,-1.423439684803113,-6.789017821739335,-3.0753129279927474,-0.1749891689875973
0,2.2102463036947118,2.0955837429248283,-0.9583749493641028,-2.4450723925169795,-0.16998947844509615
0,-0.6010024174778141,15.374608601111156,12.032270093001722,8.775168308585044,-0.16498978790259144
0,29.38775064197804,20.79363490314576,22.552917316721576,20.705409173549498,-0.1599900973600903
0,10.226505510474043,9.652662661248662,11.76356673216354,4.345650199841152,-0.15499040681758913
0,17.55526221499322,13.791691886174723,11.56421834822818,11.20589138379367,-0.14999071627508442
0,6.9840207809627355,7.4707225873446,3.234872172461795,-0.2538672792456971,-0.14499102573258327
0,2.9627812325526763,0.6197547731277677,-3.2444717884939753,-9.273625794508513,-0.13999133519007856
0,23.47154359297303,11.108788451143466,9.126186471554341,-0.3033841672892642,-0.1349916446475774
0,29.700307884296524,25.817823628294743,23.026846958407102,17.3268575972969,-0.1299919541050727
0,14.759074126810207,9.946860310329017,9.61750967697113,5.677099493916084,-0.12499226356257154
0,0.3378423387659011,13.33589850145325,11.248174630807732,8.697341516474523,-0.11999257302006683
0,4.996612536970391,-1.8950617954993205,-0.3011581777621307,-10.29241634189818,-0.11499288247756567
0,14.065384737471652,-1.7560205785244485,-5.6604887471615,-15.312174088289852,-0.10999319193506096
0,1.2041589556864187,6.4330221540693024,-1.109817075988905,-6.921931729244185,-0.10499350139255981
0,-6.127064793597877,-1.8779335961425663,-7.479143162626395,-10.101689270316918,-0.09999381085005865
0,25.061713503986137,8.481112172228567,-0.2884670050901644,-4.511446716103125,-0.09499412030755394
0,2.8504938622866427,9.150159460231901,10.152211398882166,13.218795929463322,-0.08999442976505279
0,-26.55072370552931,-2.3507917315952316,-0.08710794849364611,-0.0009613374205795777,-0.08499473922254808
0,6.528060813635446,-2.1117414031744444,-1.3564250453097875,-7.380718520825065,-0.07999504868004692
0,1.1268474334587701,6.887310445393105,2.1342601101190892,0.5795243750621284,-0.07499535813754221
0,-12.054363831943071,1.416363813908768,-1.0050524805775856,1.9697673462158871,-0.06999566759504106
0,3.204427031780559,-5.194581298014611,-12.754362815712195,-17.439989611171633,-0.06499597705253635
0,22.303220039140168,-0.6555248908403745,-2.553670893278708,-5.9897465004889785,-0.05999628651003519
0,22.662015204134534,-8.096466964853617,-2.8729767107140707,1.1004966756011247,-0.05499659596753048
0,-0.7991874606040078,-1.2074075199925725,2.1477197350124535,9.160739914983939,-0.049996905425029325
0,1.1796120561792944,-3.3683465558026304,-3.751581552853675,0.08098321553303385,-0.04499721488252817
0,14.158413764964921,-4.519284071474245,-0.480880570965753,3.311226574775749,-0.03999752434002346
0,23.647217675583594,14.00977993402862,18.17982268402698,11.271469989856389,-0.034997833797522304
0,-4.993976203220189,11.108845461587963,9.800528215067539,3.4517134574458614,-0.029998143255017595
0,24.76483213605212,11.247912511364936,9.191236024175945,4.751956973608331,-0.02499845271251644
0,-9.276357300126554,-6.603018917431896,-1.7580538876393714,-5.927799466091413,-0.01999876217001173
0,5.252455493983985,-1.1139488261934203,-0.5473415200086976,0.46244413372592663,-0.014999071627510574
0,31.921270523567554,15.625122783521581,13.013373127152168,13.122687768428637,-0.009999381085005865
0,-19.23991220696922,-2.845804090076438,-1.085909946375381,-6.447068566796916,-0.004999690542504709
0,12.068907305938232,4.06327055076474,3.1048092587450626,2.2431751229244377,0.0
0,16.11772906535571,4.432346703400719,14.955530741411362,6.963418832284781,0.004999690542501156
0,3.4965530737684776,12.981424364826879,15.706254499893479,15.403662555706562,0.009999381085002312
0,14.23537933272499,2.3705035314637337,2.0969805314515138,5.363906286935828,0.014999071627507021
0,-16.425792157067733,6.1695841990301,7.447708832292827,6.6941500188006975,0.019998762170008177
0,-6.796961395163539,6.368666362625987,8.148439397842797,3.2243937433336614,0.024998452712512886
0,-34.958128380505826,-21.81224998303296,-22.780827776951586,-30.485362547794647,0.029998143255014043
0,-30.16929311044242,-5.683164843062946,-8.210092697029479,-16.125118862386536,0.03499783379751875
0,-18.860455579928356,-13.164078221757249,-10.579355366478037,-17.784875206749547,0.03999752434001991
0,2.688384218518999,5.655009877576967,3.8513842116545796,-0.04463158544528412,0.04499721488252462
0,-16.462773705946475,-5.195900547721271,-5.537873965013946,-4.584388001779269,0.04999690542502577
0,8.17607065672432,1.7431904999509458,3.6828701014123673,17.29585554148305,0.05499659596753048
0,-3.7450826829441732,7.35228301824226,12.093616408839871,15.366099041337625,0.05999628651003164
0,-2.766233714234145,-8.90862299529556,-11.545635045072236,-5.183657506081896,0.06499597705253635
0,-1.7073824263120763,4.640472456798855,2.57511573710214,0.5065858945269617,0.0699956675950375
0,35.5614711916235,19.079569371893477,20.755868752705894,16.986829238060892,0.07499535813753866
0,-24.569672850190386,-3.03133225308747,-0.6633760013071037,-9.432927480926141,0.07999504868004337
0,-25.500814542002892,-18.032232421791644,-23.442618528573913,-27.662684268082945,0.08499473922254452
0,-34.46195387319208,-24.853131137658774,-27.36185883249155,-25.30244112830304,0.08999442976504923
0,-17.533090830875032,1.8259715970825001,6.718903084915043,9.967801935213126,0.09499412030755039
0,-13.374225399631674,-2.5849242184605434,1.14966722302395,4.178044920651399,0.0999938108500551
0,3.054642437899984,3.3541814155110385,-2.88956641823276,-3.8217121734603294,0.10499350139255625
0,36.43351269991136,8.823288498861434,6.651202161067359,11.678530651187236,0.10999319193506096
0,26.65238540386496,16.442397031069376,14.741972960632292,16.538773392494605,0.11499288247756212
0,9.051260565195783,10.43150701076157,13.012745979550894,18.689016047486852,0.11999257302006683
0,23.950138197092283,14.370618435386886,16.66352121581202,22.389258611732956,0.12499226356256798
0,-2.010981689028669,4.289731301183521,3.1942986661042223,6.099501079062951,0.12999195410506914
0,-25.072099082806716,-1.5011543965852818,-7.694921673930615,-6.090256558179012,0.13499164464757385
0,-19.293213973718096,2.3279613367966103,0.23586019093408989,-8.260014308331643,0.139991335190075
0,-6.514326349910548,15.75707849575475,14.516644255932052,11.550227820335563,0.14499102573257971
0,46.504563801671125,23.66619707411312,25.297430515949543,23.86046981953801,0.14999071627508087
0,0.5934564938065279,0.9753170644895457,3.3482189647471188,2.59071168021204,0.15499040681758558
0,4.2723517378123885,-5.085561541752863,-4.400990405249197,2.2909533921134084,0.15999009736008674
0,24.761249543635675,-7.216438753791096,-0.7701976023272197,-0.6888050557992142,0.16498978790259144
0,-7.899850079785035,-19.757314580488554,-12.959402634753017,-8.01856367479387,0.1699894784450926
0,-29.090947124153374,-9.308189029788679,-5.968605510324915,-2.0283224759772986,0.1749891689875973
0,-5.552041580771732,-0.6090621084769126,-1.207806236169795,6.921918529847176,0.17998885953009847
0,-20.963133439575632,-10.859933822391852,-11.687004818775804,-12.237840667945258,0.18498855007259962
0,-14.16422268894359,-7.730804176692066,-12.86620126399979,-6.217600079797489,0.18998824061510433
0,-33.73530931562641,-8.191673175829118,-7.115395576849505,-7.437359715664683,0.1949879311576055
0,-3.7363933044682494,-18.592540823392106,-18.834587761282172,-15.947119584741774,0.1999876217001102
0,-0.517474638515369,-9.9934071219024,-8.183777820102659,-5.096879695305699,0.20498731224261135
0,5.531446700210194,-18.164272072601698,-11.632965754906065,-9.98664005464742,0.20998700278511606
0,20.020370729744226,-5.945135675385564,-5.662151566168641,-9.806400669134927,0.21498669332761722
0,-10.750702532465743,-24.075997928838177,-17.971335253380623,-27.056161544147407,0.21998638387012193
0,-11.901773069500784,-15.526858830142617,-13.170516814974492,-25.62592268361565,0.22498607441262308
0,3.0471591357009995,0.282281625029582,2.6203037517876293,-6.695684089518475,0.2299857649551278
0,30.026094100518606,-8.948576557756288,-4.088873549442284,-5.2854457619847315,0.23498545549762895
0,-8.17496815810664,-7.739433372155305,-7.1680487145349785,-5.155207699949314,0.23998514604013366
0,-48.186027623838605,-11.670288811148138,-10.057221738959385,-6.89496990166805,0.2449848365826348
0,-19.707084279499046,-6.49114286689326,-2.876392617576589,0.8352676351241426,0.24998452712513597
0,-9.308138105597097,18.68800446916457,16.844438655286822,14.685504912991743,0.2549842176676407
0,6.050810919490455,0.7471532056891215,-4.304727914686529,-6.01425806565217,0.25998390821014183
0,-28.000237181474986,-15.233696649034341,-20.043892322070896,-18.92402129864772,0.26498359875264654
0,-1.9112823849146048,-10.914545086726553,-13.743054561103968,-25.313784783364387,0.2699832892951477
0,12.7776753336519,-5.805392098382006,-6.7722146249132775,-17.773548515696927,0.2749829798376524
0,44.49663599883785,6.263762325872619,10.578627494490215,-2.5133124896710997,0.27998267038015356
0,34.74559963371133,26.502918196167695,23.389471805400117,18.50692330201748,0.2849823609226583
0,3.8145662585462645,3.802075521944081,11.610318315331622,16.147158866802712,0.28998205146515943
0,-27.036464108742273,-2.4487656885208273,-0.7788329695490519,5.607394211184011,0.29498174200766414
0,23.362508549020458,4.290394572261974,2.7620179558685907,3.6676293404772813,0.2999814325501653
0,-1.7885157508652545,-9.520443688429678,-7.467128903723178,-9.812135740741653,0.30498112309266645
0,-37.88953699104376,-12.021280463133287,-13.856273543518588,-11.971901027954726,0.30998081363517116
0,-4.530555153547363,-3.8821157438114935,-9.445415958107052,-5.571666516082796,0.3149805041776723
0,10.70842978092134,-10.06294952162648,-14.454556141088673,-10.421432199193864,0.319980194720177
0,10.417417832435326,-5.663781786968462,-2.553694084967491,-3.861198070523728,0.3249798852626782
0,6.176409020725794,-3.1146125295351457,3.307170218635998,7.209035877331126,0.3299795758051829
0,15.795403364663546,23.984558261380858,16.91803677842102,25.279269651873314,0.33497926634768405
0,-27.265599117643585,9.233730596159525,4.3489056026776725,11.359503259815297,0.33997895689018875
0,-27.686598408046088,-6.317095515770867,-9.100223301037477,-4.63026329345521,0.3449786474326899
0,-58.69759448678917,-28.54792006555747,-40.539349925290196,-43.27003000324805,0.3499783379751946
0,-27.12858733094458,-25.92874304363391,-29.238474261358096,-37.75979686385078,0.3549780285176958
0,-20.66957691381273,-16.599564438561114,-17.337596298024632,-34.069563866800365,0.35997771906019693
0,-19.53056320548273,-20.300384236691592,-17.206716021435668,-26.299331000181844,0.36497740960270164
0,3.998453826179812,-15.011202422380144,-8.795833415673023,-21.89909824888003,0.3699771001452028
0,-3.192525785385989,-13.092018978232836,-14.364948463287066,-24.348865595077648,0.3749767906877075
0,24.736497993641766,1.897166114595073,-1.9340611456211043,-4.458633018689058,0.37997648123020866
0,27.26552519645369,-0.22364712412878884,1.876828556860159,4.6315995020343514,0.38497617177271337
0,-12.855444145194568,4.245541325683577,6.2277206640836,19.281831989499867,0.3899758623152145
0,4.233589999160953,4.904731484028526,5.118615195858247,15.12206446564089,0.39497555285771924
0,7.902627659487029,0.5039233706188735,6.179512171569951,10.592296951168017,0.3999752434002204
0,-49.468331134147476,-10.246882995063785,-12.679588389818358,-8.36747053446479,0.4049749339427251
0,8.640713649164683,3.1123124065291043,3.141313530556842,4.6527620274987065,0.40997462448522626
0,-1.9102379582790443,-13.578490404714739,-15.127782048143551,-13.257005344261902,0.4149743150277274
0,-40.45118592304841,-4.1792914084189405,-13.626875106150933,-15.66677263067942,0.4199740055702321
0,-13.322130210485437,-7.000090583579896,-9.535965622752796,-9.826539811823725,0.4249736961127333
0,-4.663070784108475,5.3291120914079935,-0.625053576154818,-5.51630686662482,0.429973386655238
0,20.755992394035513,13.82831663837698,0.6558610562217946,-0.016073773056825225,0.43497307719773914
0,-23.654940637721925,-9.262476921119957,-14.303221702635524,-14.525840508469306,0.43997276774024385
0,51.32413015865175,30.45673143391801,20.70769817053262,14.284392950249853,0.444972458282745
0,9.56320482026733,5.425941723686064,8.74862069893799,-1.4353733735613992,0.4499721488252497
0,5.122283382546816,8.455153967224716,3.7595459051444093,1.2048605432934254,0.4549718393677509
0,-11.668634120596689,27.994368182314663,14.380473810799833,19.115094723659602,0.4599715299102556
0,-13.119547655618844,-9.686415614513008,-4.398595563247488,-1.6346708101700844,0.46497122045275674
0,4.129542811562772,-14.627197407663086,-5.127662196680757,-1.844436036570358,0.46997091099526145
0,-19.651362684218448,-6.697977181523498,-1.836726069260299,-3.834200934261254,0.4749706015377626
0,34.887735892376924,1.3812450802729057,8.764212839452128,1.7460345181117316,0.47997029208026376
0,27.686838576367155,23.560469394575655,26.24515454974048,18.096270341944024,0.48496998262276847
0,60.185945400908786,20.089695777740285,16.62609908090372,9.16650655817652,0.4899696731652696
0,65.96505639554977,29.69892424459862,35.80704645045773,34.75674318663414,0.49496936370777433
0,52.72417158482591,22.2181548078078,26.197996673585852,34.3769802453009,0.4999690542502755
0,-0.7067090120506927,9.927387477706322,13.388949762880605,14.907217749629252,0.5049687447927802
0,31.812414620056682,11.496622262663342,20.999905728549678,28.277455712378273,0.5099684353352814
0,32.871542493650246,17.165859169579498,28.020864578773914,31.48769414383455,0.5149681258777861
0,-45.119325380759136,-15.88490179576331,-16.548173680100245,-9.742066948029446,0.5199678164202872
0,-6.070188993496348,8.134339371787089,7.942790957012273,9.308172443010855,0.5249675069627919
0,39.80895166567306,8.023582677227726,16.853758494694233,17.508412322262927,0.5299671975052931
0,-16.771903392763182,-1.0171718746477867,7.454728937014437,-0.4013473056838021,0.5349668880477942
0,-1.3027541589325489,7.1320757205401,14.725702287063664,15.848893562866074,0.539966578590299
0,-20.45360062312659,-4.0786745331846,-6.773321453117183,-9.730865069186212,0.5449662691328001
0,-0.28444277492260234,-11.679422631912967,-2.0323422821313684,-2.370623199364425,0.5499659596753048
0,30.094719396805885,2.779831428513664,4.12863980128581,1.2196191748296568,0.554965650217806
0,1.3238859029618708,22.489087652531396,17.44962479834149,20.949862055964413,0.5599653407603107
0,-38.776943246316456,-18.82165395564896,-20.359387290118384,-13.859894553745235,0.5649650313028118
0,-7.077768040683253,-10.162393392114359,-2.378396463462827,-7.079650652484109,0.5699647218453165
0,-12.268588468343884,-11.113130652513465,-7.8274027206619365,-9.789406238216657,0.5749644123878177
0,-50.35940451570369,-37.05386573130666,-37.756406059787906,-32.349161308002984,0.5799641029303224
0,-37.09021616685957,-24.894598621131607,-28.88540647735181,-17.518915857394916,0.5849637934728236
0,-8.301023402773179,-6.5453293122947285,-13.794403967491077,-3.9886698800296503,0.5899634840153247
0,12.72817379837469,-31.98605779286811,-35.85339852176783,-27.81842336779107,0.5949631745578294
0,3.657375459583948,-15.996784048977224,-11.922390129360688,-4.938176311085676,0.5999628651003306
0,40.34658160348248,29.982491934939162,16.018621222565166,16.2220713009207,0.6049625556428353
0,-7.604207748630453,-0.5182298248818225,-4.38036445212558,0.24231947954847077,0.6099622461853365
0,-13.10499257683137,-19.018949312585193,-15.089347139445787,-15.497431764096412,0.6149619367278412
0,10.184227138333087,1.7203334875225385,-0.21832682519797586,-4.557182418877223,0.6199616272703423
0,6.463451416447515,2.86961859160051,6.752696505340122,5.433067526882209,0.624961317812847
0,-4.027319723042877,-7.921093983810536,-11.966277132798334,-13.90668191464688,0.6299610083553482
0,36.59191373877789,13.528195777910211,16.224752275462315,13.633569268969158,0.6349606988978529
0,6.021151819825741,14.247487893175848,10.36578474501468,0.923821090229316,0.639960389440354
0,9.94039453653173,3.476782377712843,7.7868202901077765,-1.7559264385709932,0.6449600799828588
0,18.32964190388639,4.646079246333026,0.5678589240970681,-6.8656733053331225,0.6499597705253599
0,-16.251106064199327,8.875378513124659,8.598900659636982,-2.6654194978161843,0.6549594610678611
0,-8.0318493543185,4.934680191588841,3.8899455088743533,-4.43516500340001,0.6599591516103658
0,29.587412047038523,32.99398429444717,26.94099348332255,7.105090190876099,0.6649588421528669
0,78.20667815276165,61.713290832817,55.332044593147074,33.30534609786592,0.6699585326953716
0,72.84594897260698,51.792599814618285,44.20309884576509,23.47560272933333,0.6749582232378728
0,54.90522451069402,71.31191124298792,59.55415624445402,36.81586009488432,0.6799579137803775
0,37.96450476482773,48.6512251154343,40.695216787667576,25.616118201359612,0.6849576043228787
0,61.41378972726031,42.020541423782966,33.67628046907396,17.336377052752393,0.6899572948653834
0,21.25307938545029,45.64986015472953,38.59734727808076,27.886636650488185,0.6949569854078845
0,49.02237372253876,52.02918129038718,49.668417200269545,31.576896993639984,0.6999566759503892
0,16.811672717867836,37.77850480838494,34.86949021732216,21.087158078786356,0.7049563664928904
0,65.15097634729085,60.90783068179316,56.360566306768675,43.17741989979168,0.7099560570353916
0,80.45028458264765,33.76715887906818,30.001645441865925,24.17768244761298,0.7149557475778963
0,43.95959739046387,26.766489364219748,20.222727591807047,14.48794571024701,0.7199554381203974
0,20.168914731443323,31.965822097464294,28.913812722435814,21.608209673142937,0.7249551286629021
0,14.918236561747026,32.42515703587137,25.364900796924786,22.398474319706768,0.7299548192054033
0,29.207562834697384,34.14449413348835,29.355991775918206,23.128739631368454,0.734954509747908
0,3.546893501580799,12.333833341329756,16.677085617491443,11.039005587495087,0.7399542002904091
0,-14.073771487870701,2.223174607865085,5.858182277411529,0.21927216566260022,0.7449538908329139
0,36.15556781526631,14.422517879942143,17.45928170971747,10.259539342274993,0.749953581375415
0,16.764911359182562,8.9318631034141,11.490383867154625,9.75980709301012,0.7549532719179197
0,36.34425909043967,4.4512102232331,13.631488701224054,8.970075392805892,0.7599529624604209
0,-15.506389046599198,5.540559183518123,10.142596162151925,8.71034421572099,0.764952653002922
0,-5.767033109112791,6.449909927746445,12.833706198955646,9.940613534914041,0.7699523435454267
0,42.322326845180896,12.799262398794523,17.87481875945846,17.620883322598253,0.7749520340879279
0,-21.21830924196958,-13.161383461089747,-10.234066209687995,-12.67884644999496,0.7799517246304326
0,8.071058570339723,-6.3220277099584425,-1.7829487625986502,1.8214241877243147,0.7849514151729338
0,-17.919569777294228,-16.092670405481204,-13.541828953403225,-5.788304793689593,0.7899511057154385
0,-17.32019434376854,-13.333311604381482,-12.040706835621766,-5.6680334233709,0.7949507962579396
0,-8.430815186921052,-11.56395136216565,-18.569582461768384,-7.7677617300259865,0.7999504868004443
0,-5.081432363331526,-9.624589733082612,-13.998455883039437,-7.767489741786033,0.8049501773429455
0,-13.232045928538831,-18.945226770186093,-15.317327149142212,-6.337217486098506,0.8099498678854502
0,-7.522655937215452,-21.495862525223284,-20.67619630824881,-12.24694498967488,0.8149495584279514
0,-45.103262442918805,-36.64649704819841,-36.095063406795376,-16.356672278360115,0.8199492489704525
0,-7.203865497436123,-13.437130386835909,-12.073928489050774,4.343600623021467,0.8249489395129572
0,-24.814465150315684,-20.33776258643187,-21.442791596944396,-3.3061263095063635,0.8299486300554584
0,-29.195061448918118,-26.64839369011063,-26.541652770276478,-13.185853099443703,0.8349483205979595
0,2.6643455614486715,-25.549023738898754,-26.440512046742075,-14.7355797697662,0.8399480111404642
0,-35.14624416266044,-23.399652771507654,-28.109369461657018,-11.66530634248324,0.844947701682969
0,1.2031693369232472,-9.280280824316645,-4.148225047883625,5.024967161527888,0.8499473922254737
0,-20.937413980136988,-12.790907931761657,-7.6370788363048465,1.925240722122115,0.8549470827679713
0,-58.39799415251659,-47.14153412661598,-42.41593085636223,-28.034485680532363,0.859946773310476
0,-60.01857121615446,-31.28215943947861,-26.184781135753873,-11.354212065637032,0.8649464638529807
0,17.19085479700407,-1.65278389808699,-1.8036296997688854,11.286061548761129,0.8699461543954854
0,-34.79971614145211,-7.0134075277265,-3.3024765715963182,3.7263351454035547,0.874945844937983
0,-55.710284057558134,-32.424030352205655,-30.701321773196053,-31.73339129283152,0.8799455354804877
0,-16.870848974670483,-17.104652393952225,-16.860165325353687,-16.71311778253249,0.8849452260229924
0,12.72858908696331,13.974726326302962,21.540992752636992,20.37715566099452,0.88994491656549
0,10.328030108909577,3.504105788924277,17.40215244223669,17.917429023198494,0.8949446071079947
0,-2.512525927217533,-15.036514025614126,-7.956686275660253,-5.9222977110158,0.8999442976504994
0,-21.72307904019477,-6.847133136794316,-7.285523420977869,0.8779754423464237,0.9049439881930041
0,-35.47362924829093,-15.067751563461073,-18.37435901361519,-2.2017515330723683,0.9099436787355017
0,5.6058234318469085,-10.188369323435795,-1.3031930726629763,12.398521346351849,0.9149433692780065
0,20.565278985149206,-11.878986433409965,-9.562025616224016,10.278794063973493,0.9199430598205112
0,-23.735262603017517,-17.769602908897184,-24.020856661482522,-1.3209333974996365,0.9249427503630159
0,-54.865801347046975,-27.270218764038606,-29.57968622436511,-14.770661055902778,0.9299424409055135
0,-20.72633725953847,-28.710834011135848,-28.0885143187891,-22.860388928848117,0.9349421314480182
0,-44.15687034986045,-16.59144866018942,-15.377340956170201,-13.96011703279856,0.9399418219905229
0,-49.58740062376738,-23.552062718830992,-24.20616614550957,-21.19984538254412,0.9449415125330205
0,-24.607928083203475,-11.30267619257905,-18.514989893680088,-4.129573991177086,0.9499412030755252
0,7.451547273453083,-8.873289085183519,-9.673812205615555,6.010697129527242,0.9549408936180299
0,26.43102544985742,2.166098600896405,11.857366915272747,21.27096796827044,0.9599405841605346
0,27.910506449479485,13.335486863809614,12.218547466162399,30.4412385130606,0.9649402747030322
0,37.04999027388758,14.514875701498115,16.959729443745545,26.20150875010673,0.9699399652455369
0,34.25947692183064,6.674265111024195,10.830912843559167,14.601778663224149,0.9749396557880416
0,43.20896638876552,10.803655088353059,15.612097659791564,10.47204823398131,0.9799393463305464
0,-13.791541333142014,-17.976954371381748,-15.646716114536439,-24.23768255751821,0.984939036873044
0,-11.702046253958269,-11.037563273187251,-17.54552848685335,-18.857413731362495,0.9899387274155487
0,-39.78254838397833,-17.928171621339715,-20.60433946390986,-23.44714530649733,0.9949384179580534
0,-25.193047731875723,-13.428779418822085,-10.693149050962948,-11.67687730001006,0.999938108500551
0,12.786455696034215,-2.7793866672398377,4.168042748241356,5.603390272725418,1.0049377990430557
0,12.195961895010807,9.770006632803963,12.65923593077668,18.333657397198593,1.0099374895855604
0,-13.534529139512655,-3.0405995189753754,-5.129569506326632,1.3639240586672505,1.014937180128065
0,-17.155017412272226,1.68879487699344,-1.4383735664028139,6.894190241578469,1.0199368706705627
0,-28.555502927293073,-7.20181017982527,-13.787176252813813,-13.825544070234013,1.0249365612130674
0,13.594014312894803,18.51758531004809,13.794022431430358,2.964721106985106,1.0299362517555721
0,-12.676465692950075,4.156981345857971,-1.2547775164378774,-14.515014242664355,1.0349359422980768
0,27.77305705437438,15.996377926137967,3.47642390066291,-11.754750134470473,1.0399356328405744
0,31.162582553509946,26.62577504831178,28.017626679353338,16.065513417009022,1.0449353233830792
0,-15.417889198355223,5.285172708324051,3.1088308153725084,-10.934223602342856,1.0499350139255839
0,23.74164179446033,0.39457090060066,13.490036303200428,7.856038793362294,1.0549347044680815
0,-31.76882447311126,-2.9960303813626217,0.8412431361675321,-2.923699410081253,1.0599343950105862
0,-6.909288006003713,-18.996631144186463,-28.917548692979707,-23.64343822678061,1.0649340855530909
0,-9.939748808245804,0.23276860603735053,5.08366080879998,-0.36317767028527714,1.0699337760955956
0,18.779793117142585,1.7221688639648918,1.3848716353698514,-1.2429177532399767,1.0749334666380932
0,6.83933776736831,0.8215696246781271,7.286083781028079,9.377341512290409,1.079933157180598
0,12.29888513899365,2.190970883272528,5.297297239865034,10.6176001141464,1.0849328477231026
0,48.718435227339036,11.080372634649324,15.81851200541475,29.94785803941724,1.0899325382656073
0,17.607988025700653,11.379774873260375,21.00972807031898,28.21811527368236,1.094932228808105
0,26.237543524665078,5.949177592780779,14.260945425869664,22.878371800285517,1.0999319193506096
0,7.9971017122278525,7.618580785995805,11.002164061759737,19.788627600067727,1.1049316098931143
0,-1.123337425487747,18.767984444828762,24.963383966133062,27.058882651518125,1.109931300435612
0,8.836226096576286,-3.5126114397248918,3.114605125630039,8.289136930965164,1.1149309909781167
0,-15.324207736956811,-3.143206877472621,1.0658275255412004,-1.1306095870676707,1.1199306815206214
0,-17.3646389413286,-9.603801878461729,-7.97294884960764,-16.860356929008926,1.124930372063126
0,10.454932468929092,-8.954396452365234,-5.2517240153324485,-11.720105121130679,1.1299300626056237
0,32.854506479784476,14.55500939172226,19.989502013103436,16.040145811076407,1.1349297531481284
0,18.00408307642922,-0.46558435506553864,2.2307292203164732,-5.019604157393429,1.139929443690633
0,0.41366224226597437,-0.816177701833898,3.091957590295596,1.2406449483709505,1.1449291342331378
0,-41.49675604058206,-18.9767706578351,-25.436812893426602,-22.80910689674628,1.1499288247756354
0,11.172828210297501,-10.497363231843313,-9.72558224692796,-6.408859717287372,1.1549285153181401
0,-16.437585021458155,4.752044568309969,3.24564951477067,3.3713864631744848,1.1599282058606448
0,-23.62799575106949,-1.338547264463387,6.716882377485009,-3.21836837821475,1.1649278964031495
0,13.99159600731578,7.630861262931405,6.298116327101277,3.9418757359179284,1.1699275869456471
0,10.691190240339132,12.410270143325791,18.29935134897667,12.652118782845921,1.1749272774881518
0,30.79078693435791,15.109679368881114,17.930587427499454,8.74236073939582,1.1799269680306566
0,24.25038607424558,6.349088930721652,7.451824545713196,8.082601581593213,1.1849266585731542
0,5.499987642780577,7.4384988188708805,13.093062685261705,12.602841284539597,1.1899263491156589
0,18.779591620792853,11.717909022424365,5.894301826613911,-3.4969201775359062,1.1949260396581636
0,27.209197987509896,17.577319529567216,16.135541949227584,5.9733171689355595,1.1999257302006683
0,7.838806720481479,0.696730327404177,-1.9232169684003977,-13.216446702771105,1.2049254207431659
0,-16.571582204317142,-24.6838585977993,-31.581974948345646,-42.17621181901232,1.2099251112856706
0,2.2980311884159024,-24.824447259550386,-18.81073201216007,-35.19597820454415,1.2149248018281753
0,-11.842353125753641,-19.985035669852323,-13.319488179753629,-19.735745881319303,1.21992449237068
0,-30.3727351705139,-4.855623838688563,-2.4982434692285325,-4.925514868387125,1.2249241829131776
0,-26.433114968175108,-48.90621177414189,-47.656997897198956,-42.17528518258476,1.2299238734556823
0,-57.31349253867141,-60.71679948191859,-64.29575147819767,-56.28505683850524,1.234923563998187
0,16.46613210113631,25.552613035623814,21.53549577656025,19.525170152290897,1.2399232545406846
0,-18.874241062976836,7.282025778899803,2.206743858846672,7.505395780835129,1.2449229450831893
0,-38.74461204358579,-14.978561250919125,-6.812007238510157,-11.434379961040428,1.249922635625694
0,-25.31498085152918,-25.6391480526597,-23.200757522587757,-20.604157081505804,1.2549223261681988
0,32.45465250454673,-4.20973462428387,-0.19950699983406478,-0.8939355881087447,1.2599220167106964
0,2.674288017173085,-18.170320962284038,-15.488255675597507,-12.363715487314153,1.264921707253201
0,-18.066074321407566,-11.090907061772512,-10.687003554170923,-6.393496784642777,1.2699213977957058
0,-28.126434519075197,-22.33149291653401,-24.885750638723355,-8.23327948481075,1.2749210883382105
0,9.943207417311323,-10.732078518870114,-10.95449693098256,-5.973063591757727,1.279920778880708
0,-6.497148517857808,-0.6526638596214105,-3.7032424311231673,7.367150891210175,1.2849204694232128
0,-9.577502329544753,-11.803248928536433,-15.341987138064455,-15.042636038845062,1.2899201599657175
0,-56.507854021967695,-29.87383371447373,-48.160731049506715,-41.51242438431454,1.2949198505082151
0,-52.59820359720073,-23.124418204911485,-33.14947416105694,-34.37221414596381,1.2999195410507198
0,-30.388551053515293,-10.705002385316561,-22.61821646522204,-11.182005321814838,1.3049192315932245
0,-5.558896385052959,-1.265586239243255,-5.786957951446037,0.858202092736124,1.3099189221357292
0,1.360760416906179,10.383830250857699,5.89430139285813,13.678408103685596,1.3149186126782269
0,-11.799580637615678,2.9132471027122517,-3.6044384188785252,1.658612717137911,1.3199183032207316
0,10.490080461898074,16.152664333594462,9.296822626868561,16.32881593860494,1.3249179937632363
0,-9.730256273800803,2.642081960016664,9.01808454336561,7.399017772757729,1.329917684305741
0,10.31940916610991,-8.818500002243095,-2.360652656613156,-4.160781776609395,1.3349173748482386
0,-19.150923207511084,-9.29908153764341,-7.829388960722497,-3.970582706252769,1.3399170653907433
0,-8.011253383493699,-3.4696626302354745,-3.448124356596419,4.04961498701434,1.344916755933248
0,18.56841864992268,11.90975673647956,15.16314116841237,22.77981130634331,1.3499164464757456
0,43.09809290447867,28.3491765789449,28.294407626740774,47.01000625401829,1.3549161370182503
0,27.83776939033032,24.798596912468607,25.41567502955874,35.15019983005878,1.359915827560755
0,26.677448114815803,5.738017750415048,4.0969433860111035,11.10039203126345,1.3649155181032597
0,-10.302870917494005,-2.882560895641718,-7.271787296522577,-3.449417148385695,1.3699152086457573
0,12.426812296233395,-18.053139014934466,-17.4105170113206,-14.999227716278918,1.374914899188262
0,-21.833502241783325,-2.3437165964266002,1.5807542487640525,6.020960320164046,1.3799145897307667
0,-38.42381452892402,-8.684293628277388,-6.497973508331793,0.20114695393945958,1.3849142802732715
0,-9.474124561018865,-27.024870097727213,-23.916700273957925,-17.618667821687282,1.389913970815769
0,-29.614432331626002,-24.195445990726636,-24.315426038427617,-17.138484012980516,1.3949136613582738
0,-32.494737831971094,-21.276021291294835,-27.174150790275615,-19.238301625067677,1.3999133519007785
0,-22.025041050806678,-26.946595981173747,-26.21287451570404,-27.8581206613843,1.404913042443276
0,-27.00534197421981,-10.817170039852233,-21.6015971984156,-19.427941123342084,1.4099127329857808
0,-15.605640585768338,-10.377743444843077,-15.190318819725915,-19.607763010169208,1.4149124235282855
0,-32.795936866709994,-6.148316172188191,-6.539039358949721,-10.797586319046518,1.4199121140707902
0,-11.486230796071478,-1.4488881969635816,-4.537758793973238,-13.977411045446212,1.4249118046132878
0,-3.7265223508351784,-3.189459493648431,1.2835228981601827,-15.58723718341645,1.4299114951557925
0,10.223188493358649,1.0599699636158926,-4.38519425918022,-14.49706472564381,1.4349111856982972
0,16.76290176113327,8.65940020079843,6.0660897575483546,-4.376893663460182,1.439910876240802
0,7.562617476446436,-1.421168756286254,-1.7526250280920403,-13.566723987014178,1.4449105667832995
0,-7.6976643377213385,-8.091736882062275,-12.681338592541975,-17.866555685406674,1.4499102573258043
0,-47.047943658661794,-11.312304150853441,-12.820050911911965,-26.956388746449836,1.454909947868309
0,7.341779537430035,-4.292870536404392,-9.778761961471709,-18.046223156178677,1.4599096384108066
0,7.021505275996116,-1.0134360117299717,-6.507471715426019,-9.316058898630986,1.4649093289533113
0,-28.498766416593476,1.8459994506494892,-3.156180147055186,-11.345895956123359,1.469909019495816
0,-3.7390355134013853,0.06543587837936338,-0.2848872290060347,-10.95573430968603,1.4749087100383207
0,-11.319301986504332,-1.3951267009048844,-3.6735929335644744,-4.1055739393056,1.4799084005808183
0,-0.4195658069140664,-5.275688259543348,-2.3222972327842877,-5.885414824099937,1.484908091123323
0,-24.089826944806745,-12.646248769631557,-12.011000098429985,-10.725256942492926,1.4899077816658277
0,13.469914630460178,18.583191797154818,22.470298498065407,26.644899727573293,1.4949074722083324
0,49.76965894985687,16.752633469185735,23.87159858509355,20.505055207941727,1.49990716275083
0,43.14940604297616,11.962076274010581,24.182900189804947,18.505209519168105,1.5049068532933347
0,4.70915593633163,-1.7584797620886572,3.424203337392736,1.5353626800145803,1.5099065438358394
0,20.088908653330414,-2.1590346137324077,-2.0344919486211426,2.5855147078537244,1.514906234378337
0,29.65866421518325,14.34041174409544,14.536814354385378,17.16566561925849,1.5199059249208418
0,-4.011577358707385,9.629859336051528,9.068122268470129,12.74581543006136,1.5249056154633465
0,32.59818394935853,-2.0806918138895574,3.559431814946083,11.195964155017505,1.5299053060058512
0,-7.312051844366288,-9.921241682330164,-10.809256985568254,-7.003888192247349,1.5349049965483488
0,-1.232284724717466,-4.401790245849896,0.31205588736831924,5.4162584012057815,1.5399046870908535
0,-2.6625146769861185,-10.632337480502052,-13.736629545474285,-0.22359605190823933,1.5449043776333582
0,-27.232741686209,2.9371166383161484,0.17468673723734263,6.306548460996307,1.549904068175863
0,-14.052965736501239,-3.4934278642866934,-6.5539952425677255,-5.763308047693801,1.5549037587183605
0,16.19681318933191,-0.5039709629354413,-4.512675462446607,-1.7931655656991354,1.5599034492608652
0,-10.66340489065131,10.07548736781648,3.3686461004507677,8.83697591930837,1.56490313980337
0,13.966380041698288,14.164947153170335,9.0899694691615,8.887116419555056,1.5699028303458746
0,21.866168004137638,-1.9555915823409415,-8.898705333418409,-7.522744053147637,1.5749025208883722
0,-3.6740409864359114,-1.3961288148873585,-5.37737828452986,-8.492605487282605,1.579902211430877
0,-25.934246913951355,-0.7866645209356787,-10.876049361133223,-9.73246787106147,1.5849019019733817
0,29.655550237629683,13.072801323000116,3.3352814604129146,-8.262331191969821,1.5899015925158793
0,-6.584649515432363,15.132268740069486,0.8666142042462079,-12.67219543660662,1.594901283058384
0,-42.81484615688571,-4.768262247367007,-13.302051105260174,-23.172060590530183,1.5999009736008887
0,-8.455039669708224,13.211208382220267,6.839285556503012,-9.381926637954544,1.6049006641433934
0,28.144769964700668,12.72068064968815,12.140624214348389,0.37820643833806344,1.609900354685891
0,-34.685417234141205,-11.979845424802374,-20.33803510701396,-24.031661343313562,1.6149000452283957
0,-35.78560124621478,-12.780369821477635,-17.106692382803566,-30.53152996344369,1.6198997357709004
0,14.224217949916568,11.429107479724497,14.66465241249245,14.6486005989935,1.6248994263134051
0,-12.695959622598291,9.21858649921361,12.485999305000904,3.7687303663625915,1.6298991168559027
0,-26.016133939581447,1.2380672571332905,0.37734832054651335,-10.171140638647351,1.6348988073984074
0,22.393695023979358,7.887549773011777,7.7086994841885215,3.6989876065693617,1.6398984979409121
0,17.9235272936133,14.507034065758061,17.280052820286976,12.989115124640103,1.6448981884834097
0,0.3233628943047182,-1.433479846438389,-1.2185916475794065,-14.510758061945959,1.6498978790259144
0,-42.75679814975174,-6.723991946041379,-10.707233896557462,-22.120631930714598,1.6548975695684192
0,27.15304418593042,18.05549778418998,25.324126095889415,15.559493541443532,1.6598972601109239
0,-5.037110073348471,-0.5050106387478258,2.405488351981421,3.769618378318712,1.6648969506534215
0,10.492739097818891,-10.695517198268155,-0.2731471067747556,-2.7602573963155597,1.6698966411959262
0,-37.5774082754049,-9.46602187784595,-6.161780259467168,-8.240133758950101,1.6748963317384309
0,5.022447832601475,1.5634753395571055,7.559588914716546,3.1999893140195335,1.6798960222809356
0,28.512307448311525,20.712974471425294,30.870960436434093,33.71011184626062,1.6848957128234332
0,-14.957829401736328,-8.757524464970588,-12.407665674457244,-5.989766139244904,1.689895403365938
0,13.7120373083414,-14.438021452794896,-9.32628939901539,-7.379644620581446,1.6948950939084426
0,-26.888092395920378,-31.008516474865797,-38.7149107181803,-27.699523576108955,1.6998947844509402
0,-26.23821848848226,-24.039009512485794,-22.793529611355808,-20.28940298317695,1.704894474993445
0,-26.038340941768393,-1.0695005448274966,-1.0621460556667124,6.180717182548544,1.7098941655359496
0,14.611540273872544,9.460010450626232,15.449239973526181,23.090836946570292,1.7148938560784543
0,-19.458574810392786,0.4595234969720401,-4.369371498658695,0.3709563342650568,1.719893546620952
0,13.931313837252743,-7.140961382833797,-3.767980447372757,-6.5189246298316235,1.7248932371634567
0,-17.888793751091132,0.04855583409764119,2.0834131521013957,0.6611940783576877,1.7298929277059614
0,8.521102456934939,17.148075170742153,20.03480932445862,20.181312482860136,1.734892618248466
0,4.031002493891282,-10.572403350108768,-7.443791906006711,-7.4485693926118,1.7398923087909637
0,21.750906392146277,15.117120293917905,16.497609484320737,16.091548475025295,1.7448919993334684
0,6.070814183257433,19.28664612467782,28.24901351825502,23.3416661080968,1.749891689875973
0,-27.239274102146208,-8.553825836789992,-12.589579782546117,-11.708216472097895,1.7548913804184707
0,-14.409358433458808,-9.834295570186553,-9.278170397449117,-14.458099245086261,1.7598910709609754
0,-21.519438778879604,-2.0247630552105598,-4.026758305898438,-12.487982190205663,1.7648907615034801
0,23.680484894926614,25.594771728782998,26.63465651307054,20.0321347140601,1.7698904520459848
0,24.880412621868345,20.0843088020592,18.156074080112948,6.372251489579593,1.7748901425884824
0,-7.189655564960535,14.02384818348248,8.69749441457038,0.642368157722738,1.7798898331309871
0,42.800280366093475,22.673389890093905,13.508917534203531,7.532484739153501,1.7848895236734919
0,-1.6597795548353926,8.692933937171574,-0.3896565444756928,-9.657398745889566,1.7898892142159966
0,-5.079835299082069,13.612480338407222,14.181772194151526,6.5127177226985795,1.7948889047584942
0,35.73011316098804,28.142029106034666,27.103203764826503,16.59283416492819,1.7998885953009989
0,-8.759934147842863,-5.888419749208728,-5.915361818924455,-12.7270493995653,1.8048882858435036
0,2.240022800235909,24.291133781997573,24.676075455085535,18.68306704834352,1.8098879763860012
0,14.259984030374351,28.66068970765496,25.097515597759905,20.483183527221744,1.814887666928506
0,16.869949567187007,6.710248034110916,-0.3110413815303471,2.023300054651607,1.8198873574710106
0,69.07991943393452,28.319808765773885,29.450404524933084,28.42341664686784,1.8248870480135153
0,16.649893651116813,24.509371905122954,19.721853323280744,17.803533318617202,1.829886738556013
0,21.39987223567709,-4.071062547307091,-0.19669498205599117,-3.626349916976013,1.8348864290985176
0,-3.390144798334935,3.1885054074721193,-3.4652403880574125,-2.2862330480414395,1.8398861196410223
0,-27.69015743822678,-13.811924232165197,-18.293782892158134,-3.6061160631041624,1.844885810183527
0,-27.41016567096259,-25.46235146751953,-24.22232249119046,-26.155998950379367,1.8498855007260246
0,0.8998305181189097,-4.982776298789956,-3.250859180621645,-3.1458816972165877,1.8548851912685294
0,-12.850168854568919,0.40680127519085946,5.6706070454754745,12.434235710092997,1.859884881811034
0,38.8198362282679,8.95638125641193,16.262076193612188,20.17435328560636,1.8648845723535317
0,6.139845783554293,3.705963646882782,-4.676451730048519,-2.625528957313532,1.8698842628960364
0,13.419859826873756,10.185548448154242,11.52502327998704,18.454588993627375,1.874883953438541
0,-39.570121627367314,-22.114864338692314,-14.623498771237305,-2.1252928501841315,1.8798836439810458
0,10.489901435261077,-7.615274712507417,-2.302017878715507,2.014825521944618,1.8848833345235434
0,69.06992902959364,32.31431732838429,28.189465962726434,25.954944120144734,1.889883025066048
0,-0.05003883071770408,-34.966088214161346,-29.839047241873516,-24.67493704607039,1.8948827156085528
0,-34.280002134348436,-24.41649133814801,-18.997557487518534,-17.60481796746194,1.8998824061510575
0,-44.37996087061289,13.65310795946793,1.9839352316555594,0.2153013658916343,1.9048820966935551
0,-7.4099150268670275,3.7027096829224635,15.855430922617073,11.745420964922664,1.9098817872360598
0,2.8901354121520915,-11.807686163258337,-6.383070407440892,-6.394459159113584,1.9148814777785645
0,22.3501904630623,16.501920425319696,19.0084312482025,24.155661004720873,1.9198811683210621
0,-27.87974985754951,-2.5684705470774514,-8.640064104306788,-1.7542185332691722,1.9248808588635669
0,33.450314466537755,5.611140923506919,9.851443540691452,9.575902236409027,1.9298805494060716
0,69.06038345076685,64.62075484026288,51.44295418819625,35.18602332231498,1.9348802399485763
0,26.790457108056707,4.990371204533978,-2.305532158297236,-13.343855268221901,1.9398799304910739
0,0.3205354475035771,-14.430009984851406,-6.354015497264998,-17.243733528949704,1.9448796210335786
0,-20.699381524541213,-1.140388730497142,-5.08249582822711,-8.75361145357063,1.9498793115760833
0,14.330706197605473,45.75923496475492,35.74902684917877,34.92651096495334,1.954879002118588
0,39.80079861962077,30.748861097123694,36.22055253457769,20.556633733505873,1.9598786926610856
0,-8.47910425375745,13.218489660442764,15.122081225477944,6.876756857470972,1.9648783832035903
0,38.29099758050566,37.028120645767935,31.313612916664763,21.72688034038391,1.969878073746095
0,3.9211041237416184,0.027754041742990454,0.805147600504989,-8.572995815660665,1.9748777642885997
0,-1.2387846242404468,-35.872610164632285,-16.873314732283774,-13.462871609363816,1.9798774548310973
0,-38.28866866439248,-24.44297198631905,-27.041774091293615,-27.932747039186836,1.984877145373602
0,33.72145200277816,43.846668565133974,40.03976951470529,25.987377897499364,1.9898768359161068
0,-31.30842262246269,-25.20368852096982,-25.85868392248153,-31.532496795716064,1.9948765264586044
0,38.471707460388124,34.69595674428802,39.05286558864188,36.93762888511094,1.999876217001109
0,22.731842251313367,-5.104395650987482,-2.6055819612289315,-5.522245056251455,2.0048759075436138
0,4.781981748865299,22.015254280379793,8.515973417571853,-1.5521186166309295,2.0098755980861185
0,-61.607874049722035,-47.905093475184465,-36.95246828597007,-28.541991793149723,2.014875288628616
0,-21.127725146547746,2.9245610690035275,-15.390907082361146,-18.071864582158664,2.019874979171121
0,18.882428458683822,-19.35578209908102,-10.249342980512411,-12.731736978376977,2.0248746697136255
0,96.51258676746373,101.4538770093165,90.27222401177534,74.93839102469498,2.02987436025613
0,-52.21725022054866,-64.10646161820259,-53.726206114195314,-36.161480566969935,2.034874050798628
0,-34.98708250806747,-24.656797995577158,-14.774633368677868,-9.82135174877435,2.0398737413411325
0,107.68308990183333,67.20286786343327,70.13694223783334,59.68877748332707,2.0448734318836372
0,-15.12673299448961,10.022535945215893,-8.24147930551559,-9.451092867232727,2.049873122426135
0,-64.44655120268166,-93.24779376498212,-77.45989801078076,-64.29096279811952,2.0548728129686396
0,30.093635271140606,-9.118121281440041,18.8116861104361,19.799167693396065,2.0598725035111443
0,32.72382642199547,89.77155338399112,70.99327304824644,68.4392986113611,2.064872194053649
0,-12.765977755255154,-19.758769780062398,-29.285137207540195,-29.09057004076823,2.0698718845961466
0,43.12422273276272,73.35090921257091,53.486455330694135,36.10956173836307,2.0748715751386513
0,-4.955572122110526,-54.549409654800975,-27.38194935134244,-22.270306051358,2.079871265681156
0,-119.58536232864984,-129.20972639949937,-113.7903512682545,-106.73017340988089,2.0848709562236607
0,-27.7351478933399,-9.530041035314255,-6.398750431961212,-15.230040334350859,2.0898706467661583
0,-22.20492881762833,-81.21035356970818,-60.45714684935987,-63.53990681693471,2.094870337308663
0,-23.854705098322743,-61.17066400396563,-50.725540522394965,-40.469772844714555,2.0998700278511677
0,29.365523270388106,29.799027665921116,19.76606855116051,8.760361599501937,2.1048697183936653
0,-24.414243704671513,-35.95127855227624,-21.012319623455486,-19.579503464069468,2.10986940893617
0,-42.32400601618131,-22.011582648880847,-30.28070503942752,-26.31936801352321,2.1148690994786747
0,-3.6337636554460255,38.438115387046004,28.30091231122023,27.870767974266208,2.1198687900211794
0,-43.61351661145476,-23.932184432849596,-15.78746756263284,-15.009095476778851,2.124868480563677
0,-42.41326487056489,-24.84248209683599,-16.00584465179308,-13.428958342546439,2.1298681711061818
0,6.656991583799074,110.7372224068209,55.15578105305853,33.851179401226666,2.1348678616486865
0,20.98725277055524,-86.82307091105646,-28.842590439129427,-20.058682221213346,2.139867552191191
0,6.727518709125588,-25.733362040669192,-10.240959120172585,-9.728543185890244,2.144867242733689
0,-97.34221058130979,-73.823650970516,-70.25932498140158,-55.558403468261794,2.1498669332761935
0,33.3080649197984,7.926062315034049,22.902311988165,22.781736958065437,2.154866623818698
0,63.51834523506752,88.57577783473141,72.63395180149988,67.62187812090737,2.159866314361196
0,18.508630386567873,48.74549560653758,45.19559447046986,61.56202004663785,2.1648660049037005
0,-82.74107960611661,-53.734784355424516,-49.97275999663982,-29.05783724237742,2.1698656954462052
0,-28.530784723639147,-73.42506203926285,-57.01111159353718,-37.14769372687379,2.17486538598871
0,32.54951505603011,44.45466256866904,35.26053968752445,35.742450612251346,2.1798650765312075
0,83.95981975655918,47.21438948434094,54.642193856125736,57.61259579456885,2.1848647670737122
0,-10.169870600354662,-11.94588127686225,-8.14614907902933,-15.35725816188344,2.189864457616217
0,23.2304440034047,10.823850298308411,20.71551088832798,14.782888758466488,2.1948641481587217
0,-4.639236416454453,13.863584221770088,20.007173762591968,23.71303656962825,2.1998638387012193
0,-33.5589118450196,-17.056679495185485,-12.491160453144982,-10.876814715418242,2.204863529243724
0,0.9914177330993594,14.363059158363587,7.440508243282866,8.653334915387214,2.2098632197862287
0,37.941752334234565,20.892800193082216,19.24217985358563,28.203485473452346,2.2148629103287263
0,-1.7479080253854171,-23.417456380924893,-21.466145620953803,-13.416363030615903,2.219862600871231
0,31.152436669114618,-4.02771055396733,15.415531820568226,22.883789412802592,2.2248622914137357
0,62.322786430605575,67.32203768359305,40.74721217870228,33.10394281231775,2.2298619819562404
0,-38.51685873065151,-73.31821165920911,-56.56110454680664,-58.60590282458796,2.234861672498738
0,15.733501193423256,-19.538458573652747,-0.8994183565643081,-4.695747490663541,2.2398613630412427
0,-12.616133789698292,16.26129695042327,12.692270749749598,9.794408822593223,2.2448610535837474
0,-32.63576367205433,-13.098945075047233,-15.526037226598573,-14.225433875070177,2.249860744126252
0,-3.9253884445514404,-31.599184637290534,-26.16434228390207,-31.19527557325694,2.2548604346687497
0,-12.9450080965193,12.730578277360525,8.367355580396268,5.564883739465389,2.2598601252112545
0,-26.274622615796517,-20.35965631623916,-12.060943630020567,-8.964955924125196,2.264859815753759
0,17.785768011076886,-4.819888402324618,-5.299239910717801,-5.094794550358319,2.2698595062962568
0,-8.893836201519681,9.839882035552028,3.452466743243645,-2.204632125044652,2.2748591968387615
0,-25.91343523876292,-29.800344985624793,-24.015823662698768,-32.14446863337472,2.279858887381266
0,-15.43302908505326,-39.890569448020365,-44.884111122172584,-38.35430405926311,2.284858577923771
0,55.34738227630295,29.739208667868784,31.187604372922596,20.935861615440288,2.2898582684662685
0,2.537798861884688,-19.77101061693479,-9.230677167812148,-7.273971589382634,2.294857959008773
0,8.848220686667586,36.40877271891777,24.981044265395806,25.396196346538357,2.299857649551278
0,-23.111352235794644,-37.04144130364508,-21.34723131830723,-14.643634557067859,2.3048573400937826
0,-52.41091989178775,-38.12165266359011,-37.975503909901406,-34.943464280779224,2.3098570306362802
0,-13.950482265623545,-14.311861338281735,-12.383773499139899,-10.563292804299412,2.314856721178785
0,-13.660039338767374,-11.922067302590506,-14.592040073629937,-11.063120105528307,2.3198564117212896
0,30.910408909386987,1.2377294705722304,14.989696380792553,0.07705383922908449,2.3248561022637872
0,76.18086249938685,25.617529009125846,35.03143587877858,28.877229054364292,2.329855792806292
0,-17.22867855068304,4.097331340672486,2.1931784339962745,-6.042594436066867,2.3348554833487967
0,-49.75821422546628,-41.70286350792449,-48.7550759411982,-60.292416608483684,2.3398551738913014
0,-5.3677445097781575,-2.163055509554499,-7.493327234241438,-19.032237438204607,2.344854864433799
0,15.252730613379073,16.19675536411511,18.968424569011937,10.467943102026222,2.3498545549763037
0,-8.866788837802254,-26.713430857745266,-20.099820516184717,-30.661874958404294,2.3548542455188084
0,0.4236971549597426,-7.553614145553898,-9.218062474244917,-14.001691588828374,2.359853936061313
0,-14.495811389989706,-9.003794468895721,-12.246301288967349,-23.151506757115722,2.3648536266038107
0,37.83468554592516,19.62602820357221,26.675463056697684,15.678679570527127,2.3698533171463154
0,27.785187980761627,2.9258539033724253,-0.7927694200519313,-16.51113257101483,2.37485300768882
0,22.925695930731276,22.615682661366336,21.379001297251875,3.679056853599457,2.379852698231325
0,27.016209409472452,15.335514507242028,7.53077522396343,2.93924787996629,2.3848523887738224
0,25.616728428067027,7.175349469253117,0.9525523743244431,-9.680559456159225,2.389852079316327
0,-14.472747004654247,-9.254812425593867,-16.755667238134947,-14.750365118791958,2.394851769858832
0,2.1577831187462078,7.7050288491132655,0.8261164001688908,-2.4301690713143476,2.3998514604013295
0,-35.97168119438794,-42.33512668007397,-49.24209669635681,-45.37997127601524,2.404851150943834
0,-10.3411399356555,-9.155278985616475,-11.290306511665209,1.5902283064180809,2.409850841486339
0,-53.72059309472821,-18.095428038227215,-19.978513027431703,-11.33957028286475,2.4148505320288436
0,25.939959341114736,-0.565573806856258,1.3732837767516246,12.400632998548057,2.419850222571341
0,-8.289482613555341,-11.325716259229718,-10.504916077370623,3.130838193399671,2.424849913113846
0,-11.758918943469048,7.884144637671509,1.7068874326951162,15.251045344077463,2.4298496036563506
0,1.8716503669158526,-8.175991082738047,-12.77130567004799,5.6612544922157015,2.4348492941988553
0,-6.477774666391681,18.613876613032975,12.15050463782476,20.38146567847726,2.439848984741353
0,13.622805972961753,14.733747758108692,10.632318379866037,21.48167894230137,2.4448486752838576
0,43.853392300992304,16.27362238462638,19.18413557910998,34.2418943214203,2.4498483658263623
0,-31.826015667508656,-16.89649947651162,-11.584043742412991,-6.367888148544475,2.45484805636886
0,1.6245820811211185,-5.986617795021818,-10.342219563360258,-10.947668433647719,2.4598477469113647
0,27.525185560348323,15.26326745956348,6.349608137714813,10.842553499524186,2.4648474374538694
0,12.415794783342623,-9.436843682071194,-13.898560617268487,-10.497222315468143,2.469847127996374
0,3.636409762097246,11.723048810607958,10.19327419397667,8.503004155048043,2.4748468185388717
0,1.2470305073762407,27.172944967693667,31.065112593715885,23.683232944581498,2.4798465090813764
0,-40.68234297044129,-21.76715518154226,-21.3330453964857,-17.29653591395278,2.484846199623881
0,35.118289339589346,23.3027483913402,26.608800243998086,28.183697611602806,2.489845890166386
0,38.12892744876048,32.412655714077445,37.22064953487785,43.0939335524598,2.4948455807088834
0,72.02957136669701,47.29256681284266,49.17250249401769,45.70417193775003,2.499845271251388
0,-9.729778900670462,-24.33751828881367,-26.245640863633458,-20.155587206540883,2.504844961793893
0,14.550876648962284,-2.787599569389953,2.396219474632371,13.444656143091862,2.5098446523363904
0,12.311538015840346,25.992322992064867,25.24808352084641,27.904902009016322,2.514844342878895
0,-36.7177948006015,-2.9677505837061027,-1.230048713315342,-0.8648495873522729,2.5198440334214
0,-21.937121800644327,14.052179723292856,7.041822782989874,5.175401374166638,2.5248437239639046
0,29.583557016736407,20.342113932084374,23.53369801970404,23.885654912752816,2.529843414506402
0,-26.51575834637224,-22.0979479392692,-19.22442299406671,-14.434088953246059,2.534843105048907
0,-26.545067887399114,-11.048005873167194,-9.332540249714757,-10.063830206062423,2.5398427955914116
0,-12.564371602668263,-10.638059851449334,-15.260653738226761,-18.253568827658714,2.5448424861339163
0,26.716330513074343,36.6318901448992,37.77123655021815,41.67669520076716,2.549842176676414
0,40.96703846545012,7.951844134744514,15.27313062533057,18.676961897888475,2.5548418672189186
0,-43.342247741161536,-13.728197864169196,-21.204971504373727,-12.232768719018164,2.5598415577614233
0,45.118471896328344,47.66176416482909,46.97693016846608,47.42750336574642,2.564841248303921
0,-24.710802619516436,-22.938269762526325,-23.7511643496143,-24.302221833387584,2.5698409388464256
0,-52.83007128604953,-43.75829963113107,-48.159255052501315,-47.76194430265442,2.5748406293889303
0,13.610665900644792,-3.7983254250309533,-5.8573419330203595,1.7783359726698036,2.579840319931435
0,14.981408946317826,37.261652873460406,38.21457501796543,26.58861900915238,2.5848400104739326
0,61.73215785691991,48.41163528217136,46.59649580991001,40.78890482371085,2.5898397010164373
0,30.48291263615493,20.86162181662191,16.88842045006875,11.929193431472603,2.594839391558942
0,-24.936326715565986,-15.838387510731868,-16.15965105721197,-5.3605151548409005,2.5998390821014468
0,-43.30556019966886,-19.65839268909655,-25.747718709020734,-15.05022092387702,2.6048387726439444
0,15.535212183172716,17.491606292469193,10.844217498011435,23.050076135600428,2.609838463186449
0,-36.23400956586893,-22.538390554404877,-16.47384243168022,1.4103760348652936,2.614838153728954
0,4.976774555869934,-9.488383217546756,-11.43189849285902,2.85067878469576,2.6198378442714514
0,-14.512435447771413,9.131628315908698,8.900049320428154,23.390984395139053,2.624837534813956
0,16.118360427908076,20.241644059269607,16.99200101456921,20.531292875266978,2.629837225356461
0,-24.9308378120025,-3.1483359745951445,1.5139565955814944,1.751604232709367,2.6348369158989655
0,-4.360030162045031,10.811688226290794,7.4359160686330075,12.231918473641887,2.639836606441463
0,-6.229216616011944,4.611716673178108,1.0878794381799413,1.4722356032265076,2.644836296983968
0,-35.04839716666115,-17.278250623130393,-23.620153291615463,-14.927444373933817,2.6498359875264725
0,33.87242819438156,19.101786348059466,16.921817883650665,20.752878546638467,2.6548356780689772
0,67.38325947571364,27.201827597264316,33.10379296856028,29.43320436917175,2.659835368611475
0,40.23409668370127,31.141873133843543,25.925771966681182,19.77353309665287,2.6648350591539796
0,-15.71506017924651,-22.77807703481646,-13.79224512044375,-18.65613526978831,2.6698347496964843
0,-55.89421111331458,-25.94802290253306,-32.36025829259389,-35.4658007299165,2.674834440238982
0,-44.76335611787077,-25.71796446242733,-33.69826754888615,-39.49546328237296,2.6798341307814866
0,55.427504810650696,14.042098294233464,17.683727113636984,8.204877076743582,2.6848338213239913
0,7.948371677508155,12.272165377475607,18.94572569948957,14.815220353463605,2.689833511866496
0,5.1792444871408305,6.172236797260402,12.617728213018685,12.035566554261798,2.6948332024089936
0,-23.259876757364303,-19.307687437117842,-6.90026534261065,1.0059156848133857,2.6998328929514983
0,17.6910079468188,-4.527607316476303,6.591745034863714,15.396267749824299,2.704832583494003
0,47.68189860246943,13.732477168874356,15.65375934727881,20.516622753080856,2.7098322740365077
0,57.66279521074408,35.952566028668585,43.485777595674854,32.74698069701097,2.7148319645790053
0,13.00369776928425,36.97265927126584,21.907799779210457,21.87734158198039,2.71983165512151
0,68.41460627162404,42.26275690224835,47.43982589421057,42.91770540577239,2.7248313456640147
0,18.03552070735064,38.65285892362369,35.98185593367322,28.18807216323024,2.7298310362065124
0,27.406441062279722,19.542965333676282,16.493889887087054,22.768441846074076,2.734830726749017
0,14.42736731906709,17.983076127438807,18.755927740822735,20.568814443135146,2.7398304172915218
0,-37.27170054161275,-23.136808702265288,-24.002030520827756,-13.860810058950795,2.7448301078340265
0,-4.200762539455866,-0.8466891634122957,4.19001508568087,2.14956832529915,2.749829798376524
0,-3.30981869319319,-7.176565263625951,-0.35793545588597286,3.0399495811632584,2.754829488919029
0,-24.098869020354794,-25.126437009717467,-30.185882161254167,-23.41966630587709,2.7598291794615335
0,-41.3979135371816,-10.676304407397248,-21.47382504522525,-13.69927934976591,2.764828870004038
0,-20.00695225779851,-28.45616746084504,-33.90176412078657,-27.028889563181203,2.769828560546536
0,11.644014806205673,-2.676026172485649,-12.449699398501563,-7.718496957043554,2.7748282510890405
0,38.45498764460992,-0.1558805432252428,2.3223691132998496,1.981898459366256,2.7798279416315452
0,-42.09403375317306,-13.915730573025874,-20.735558592231737,-16.96770332215365,2.78482763217405
0,31.616950601535564,13.374423738652013,16.036517478886964,20.092697690765057,2.7898273227165475
0,-3.912059302801792,9.914582392490582,14.538597320936947,12.943101490541954,2.7948270132590523
0,12.778936521931787,-0.7152546112144,1.3906809277411005,13.133508068867954,2.799826703801557
0,-0.28006193682786074,-5.635087272718002,-6.097231707669596,3.1039174162371244,2.8048263943440546
0,-46.979054691916005,-14.834915592344727,-18.945140592502547,-4.595670477822011,2.8098260848865593
0,-18.25804175518886,-25.774739569738188,-22.953045733263703,-9.07525562412536,2.814825775429064
0,-29.647023136233802,-28.114559203059443,-21.31094713493816,-8.544838033204233,2.8198254659715687
0,-24.485998841953492,-3.494374488426246,4.121155199318645,15.485582284949883,2.8248251565140663
0,23.49503112301574,5.125814579841866,13.263261267624916,16.916005320425008,2.829824847056571
0,28.466066755020073,10.766008008204551,20.38537106815757,20.69643106246992,2.8348245375990757
0,-2.2528919503558735,12.346205802853223,19.64748459802457,20.566859498760117,2.8398242281415804
0,-18.24184499882363,1.2464079691739043,5.269601852729431,3.2372906151896528,2.844823918684078
0,-4.120792396379873,-5.313385488189222,-4.878277173617927,-5.58227560375123,2.8498236092265827
0,29.040265851449853,8.546825435073137,14.113847512331127,12.688160825740566,2.8548232997690874
0,35.88132973882376,14.75704074306099,17.695975903403415,13.768599887076203,2.859822990311585
0,21.922399258042645,3.3872604393042054,-1.8218920084234203,-4.590958436987656,2.8648226808540898
0,-2.2465256011056463,7.437484526489842,6.020243767876548,-3.330514164340883,2.8698223713965945
0,21.534555149239573,12.687713006511505,11.602383222661079,-2.240067313023129,2.874822061939099
0,5.24564149571154,22.08794588037531,20.274526345599266,10.660382099065236,2.8798217524815968
0,-2.123266576036126,13.578183147801683,5.126673125274742,-2.3391659460310987,2.8848214430241015
0,18.23783091888811,6.988424806976606,4.7888235490588755,-0.258711466522509,2.889821133566606
0,-20.23106603512566,12.338670854729827,4.83097760342405,-2.318254480759868,2.894820824109111
0,61.240042545785315,35.59892128665311,32.113135274107265,21.032204992835407,2.8998205146516085
0,10.891156644233952,15.12917609667614,12.095296545664626,-2.4473330645498463,2.904820205194113
0,-11.027723759220418,-4.370564723256964,-15.08253859886969,-17.486868672272536,2.909819895736618
0,-4.736598685486362,16.03969881731234,0.859629822647523,-4.166401849648301,2.9148195862791155
0,39.48453184416653,41.36996670777397,42.1118017921424,19.64406738456075,2.9198192768216202
0,27.61566780771453,31.40023893574835,31.253977290587745,3.094539011687656,2.924818967364125
0,-0.4031908187956139,9.650515486156843,-1.5238437032632768,-23.9049869873744,2.9298186579066297
0,13.627955938667762,15.59079634133908,4.398338787181601,-7.50451063166933,2.9348183484491273
0,23.919108052761125,23.921081481740075,15.630524737349386,4.535968060591063,2.939818038991632
0,5.270265494869138,10.831370886160729,4.8827141219436285,-1.993550928065138,2.9448177295341367
0,14.961428234955587,7.951664531777707,9.334906914822888,6.666932385060969,2.9498174200766414
0,9.802596241701046,13.151962394420648,7.957103088984344,6.627417982472299,2.954817110619139
0,4.803769482697918,6.902264448857311,3.9493026166520377,3.2079058462701595,2.9598168011616437
0,19.854947924546433,5.172570668915406,2.511505469391783,-1.6016040419066835,2.9648164917041484
0,28.426131532684895,27.89288102750649,26.343711618151833,18.838888299187055,2.969816182246646
0,13.707320270873753,9.67319549636671,16.52592103290242,8.569382850224839,2.9748158727891507
0,-7.921485898963445,-12.546485954114022,-6.261866317797841,-14.770120408906388,2.9798155633316554
0,-2.7402870160063753,-8.826163354250301,-12.89965046642004,-5.269621498691135,2.98481525387416
0,23.730916880269167,10.23416326584855,11.412568554474788,21.050879560603192,2.9898149444166577
0,12.862125749940901,-0.0955061236061634,-3.0152092874095047,6.141382748659276,2.9948146349591624
0,-8.046660447929359,-17.7651715523754,-15.81298402426583,-7.9381119554922766,2.999814325501667
0,27.37455824471754,7.645166949974246,11.969244311937794,17.512395426560524,3.004814016044172
0,26.295781784951778,9.395509354221545,17.30147568941682,22.07290487268125,3.0098137065866695
0,-15.172989871587713,-12.674144368852334,-16.616289923967507,-8.676583640234812,3.014813397129174
0,-3.4717567704495496,-6.513794248539318,-8.38405256072433,-6.6560701362248915,3.019813087671679
0,-0.5505189573471663,-5.923440313748802,-6.4518122530070015,-6.095554639454463,3.0248127782141765
0,-9.049276477588847,-1.2530825927489366,-2.1995690321932164,-2.1550371736072904,3.029812468756681
0,-24.20802937591892,-10.822721113259327,-11.14732292899772,-9.844517761817487,3.034812159299186
0,-6.986777696083745,-7.982355902458044,-8.395073973524722,-4.923996426680965,3.0398118498416906
0,-18.225521480440595,-3.0619869868476215,-3.5428221951517074,2.2265268097610216,3.044811540384188
0,-12.744260769926383,-2.6716143922775597,-6.020567622541644,-0.7729480741491772,3.049811230926693
0,-10.782995604117529,-4.121238144134815,1.6516897161799953,1.477578900039199,3.0548109214691976
0,-10.521726021313153,-6.890858267443271,4.993949793174982,3.4481077107237716,3.0598106120117023
0,-12.100452058666198,-11.11047478675725,-2.4837874193934724,-8.571361663778005,3.0648103025542
0,-8.359173752260213,-11.710087725920696,-8.551521949436529,-8.650829245045326,3.0698099930967047
0,-23.84789113706556,-14.109697107807857,-13.509253824614705,-12.670295054148076,3.0748096836392094
0,7.773395753144255,-3.8593029541856065,-2.8769830718996454,-1.4797591113359965,3.079809374181707
0,-9.085313114389479,-11.708905285787228,-4.64470971744872,-2.829221436079536,3.0848090647242117
0,10.625982228078728,2.9214958774771547,8.407566213129499,10.611317952571019,3.0898087552667164
0,-9.182718251620896,-4.848099483736692,-0.4801553056533632,0.7118590355177765,3.094808445809221
0,-16.001414585550904,-12.737691388375428,-8.387874299400103,-10.337598206600166,3.0998081363517187
0,-10.860106805186797,2.7827201450848245,3.2144092063132095,-2.12705379314668,3.1048078268942234
0,18.4412050588927,14.083135098580106,18.636695185985204,12.843492256784142,3.109807517436728
0,36.732520976277016,1.8435534539298766,5.288983613717811,1.6940399240997437,3.114807207979233
0,-26.656159084487197,0.6639751924004121,7.531274462731218,-2.1554108106749865,3.1198068985217304
0,27.09516484390554,10.06440029475348,18.093567705284737,17.275140032570803,3.124806589064235
0,-40.8135072716835,-36.40517125842803,-34.744136687108465,-35.68430756629618,3.12980627960674
0,-45.232175463688336,-35.45473948585354,-29.96183874278323,-25.413753626974536,3.1348059701492375
0,4.439160237525208,10.165695595649808,12.220461511362938,10.966801832284915,3.139805660691742
0,31.860499803770093,18.426133971015336,25.262764049812745,22.06735879452219,3.144805351234247
0,22.721843207133087,19.91657562532028,20.1150688468045,17.947917242566362,3.1498050417767516
0,-22.526809581711525,-8.302979457497553,-10.212624124888016,-4.431522842081899,3.154804732319249
0,18.02454140671581,-1.6425312945263033,0.15968510633201216,8.859038520872325,3.159804422861754
0,13.545896141449383,8.127920096842452,9.911996511726517,11.969601311025322,3.1648041134042586
0,11.247254590877168,5.018374699129988,7.4543100623908,12.760165507279439,3.1698038039467633
0,-6.631383277644357,-6.891167505429207,-0.603374271060535,2.5307310875851163,3.174803494489261
0,-20.920017497318316,-16.71070653470289,-14.98105651842329,-13.588701970897604,3.1798031850317656
0,-18.90864810083896,-5.450242406037676,-8.788736709292726,-10.848133691087986,3.1848028755742703
0,-0.8472751195767056,-6.779775135859219,-7.736414872488305,-8.207564095233902,3.189802566116775
0,-4.4458985836144205,-6.349304739741388,0.1359089640489235,-8.006993204623306,3.1948022566592726
0,20.525481477567368,6.901168767337134,7.258234772917426,3.5535789602765724,3.1998019472017774
0,35.696865034068985,15.38164537056561,10.11056252671479,9.424152379412298,3.204801637744282
0,8.048252054436384,-2.3578749452827394,-6.947107802387135,-6.765272967341796,3.2098013282867797
0,3.749642505219689,10.332607803868564,3.155223757387473,6.115302899632972,3.2148010188292844
0,16.791036351487357,10.783093601447899,6.917557177657834,11.195879959734976,3.219800709371789
0,-1.4175664426424737,-0.4764175697893065,-6.380107570093756,-2.323541808012302,3.224800399914294
0,-11.746165913699903,0.43407427228996276,1.4922294854742695,3.4070375749344297,3.2298000904567914
0,-42.71476209804832,-14.57543089041106,-17.64543168417976,-17.162381913085948,3.234799780999296
0,-20.31335503052654,-2.8449330756870057,-7.873091107062303,-1.8918002934407863,3.239799471541801
0,-28.24194474345069,-5.554432300704269,-8.550748810287615,-3.951217586868948,3.2447991620843055
0,9.389468733346419,-2.043928582025951,-6.308404820015911,-8.08063381349817,3.249798852626803
0,19.320885371472965,9.086578064140703,13.943940838272958,16.819951006934218,3.254798543169308
0,26.482305142373338,4.167087621568946,6.706288139205428,6.990536854640326,3.2597982337118125
0,15.213728015991292,-7.162399926273915,-8.911362943004496,-1.1988762907233874,3.26479792425431
0,-0.5848460395902344,-7.601884596061572,-5.169012434441013,-0.2682884500855971,3.269797614796815
0,-23.33341705745099,-17.051366404073327,-24.97666036083269,-11.267699644529108,3.2747973053393196
0,-7.0219850705698725,-6.970845365704471,-6.364306746896014,0.5628901051310565,3.2797969958818243
0,-6.860550110938998,-8.970321495274009,-8.341951616050075,-3.506519221486612,3.284796686424322
0,-18.139112209444736,-10.489794806102717,-12.619594990560394,-10.205927644361555,3.2897963769668266
0,13.12232860395172,7.3307346893007965,9.872763108165472,12.794664816881117,3.2947960675093313
0,26.393772299681867,-8.378733021055801,-10.424877340754469,-6.27474185720274,3.299795758051836
0,10.135218847476429,-8.6481979488652,-5.542516357915755,-1.7241476860911509,3.3047954485943336
0,14.886668215555748,-10.287660105356283,-5.420153963529848,-6.133552689203439,3.3097951391368383
0,17.16812037058035,19.332880498850976,14.012209822635137,19.277043114211732,3.314794829679343
0,-15.21042472206641,-11.176576146629381,-17.505425019027136,-12.602360295183548,3.3197945202218406
0,-9.028967097627254,2.543969947670721,1.7369414919462125,7.068237062992612,3.3247942107643453
0,21.612493208791264,11.50451877108743,8.089309336258207,6.628835168937773,3.32979390130685
0,-1.3960438378406392,17.225070312633367,12.351678494616957,10.539434002555499,3.3347935918493548
0,10.235421726942285,27.49562456032001,12.074048947125327,12.530033543078474,3.3397932823918524
0,-26.813110132900363,-17.16381849933081,-16.623579326965906,-18.149366231044205,3.344792972934357
0,-2.401639453213826,-14.493258880785337,-4.641206348762935,-6.688765341635589,3.3497926634768618
0,-23.06016626890558,1.1273034016893024,3.2711678609579056,2.431836189922488,3.3547923540193665
0,13.17130938627689,21.42786833444753,23.75354328169727,27.39243834263315,3.359792044561864
0,28.462787479155974,16.788435903636483,20.245919892349242,24.223041094868925,3.364791735104369
0,14.954267975865406,6.509006094232442,10.078297670334043,10.173644423330947,3.3697914256468735
0,11.105750840886476,4.539578889883824,7.470676591443517,4.064248302882524,3.374791116189371
0,-22.602763962751993,-3.059845726629942,-6.136943369681576,-11.005147292774698,3.379790806731876
0,-30.931276472224788,-5.699267772846608,-8.724562238838878,-11.954542390141361,3.3847904972743805
0,17.32021327640458,10.03131273373517,11.107819958299299,16.93606298471109,3.3897901878168852
0,-5.428294751703395,-0.398104224370051,3.2302031961935596,9.636668805920156,3.394789878359383
0,-16.5368005908974,-13.307518664766093,-11.577412550860219,-11.872724952800251,3.3997895689018875
0,-6.245304275119429,-2.9169306049094375,-8.045027308570463,-0.3721183181359824,3.4047892594443923
0,25.006194162317552,3.583659938226515,7.857358897779484,8.008488683283446,3.409788949986897
0,-22.122305311708356,-12.025747051912111,-10.08025395666761,-11.470903975052972,3.4147886405293946
0,-17.380802730336452,-7.005151591522456,-13.247865896463868,-11.210296319519228,3.4197883310718993
0,-16.90929812594178,-3.5745536962397013,-1.7354769456018797,0.980311624003118,3.424788021614404
0,1.9322084705215845,0.8660466189095526,1.826912872638251,2.980919830230902,3.4297877121569016
0,-0.18628297077002887,-13.143350660667945,-8.060696464571478,-9.60847172582585,3.4347874026994063
0,-32.504772478991775,-16.692745549045565,-19.358304979689496,-16.407863068887796,3.439787093241911
0,0.3567399175340358,-3.9421380593855844,-3.0659126944222255,-5.557254222970361,3.4447867837844157
0,-6.62174580830377,-9.561528203771186,-7.723519629463594,-8.646645211084872,3.4497864743269133
0,-24.27022968252754,-11.52091599335224,-7.091125804642591,-5.086036055340859,3.454786164869418
0,8.611288269810732,5.889698561512878,10.251268760796297,7.1745732227838745,3.4597858554119227
0,-1.217191975498701,-0.2096845489984036,-5.586335952141838,-5.134817397901887,3.4647855459544274
0,-23.145670442177526,0.8509346654147726,-2.7639399624524117,-12.704207938472788,3.469785236496925
0,-11.544147153330947,-6.638443804992713,-11.771543288996082,-20.123598419527408,3.4747849270394298
0,-12.1626221308866,-14.297819969779347,-18.669145950057057,-27.602988860460915,3.4797846175819345
0,-7.161095395439558,-3.9971938379074645,-6.946747962892135,-8.012379278871881,3.484784308124432
0,-13.46956696646235,-3.1265654175448123,-16.564349343502528,-15.461769690493956,3.489783998666937
0,-23.618036862326516,-22.88593471610878,-27.621950106537337,-30.411160109411274,3.4947836892094415
0,3.7734948998877025,-12.14530174008683,-12.149550265012335,-19.990550547918367,3.499783379751946
0,-2.3949716957424263,5.465333505232199,-1.567149830181703,-1.8799410162751462,3.504783070294444
0,10.516563335373796,10.845971015381084,2.8152511879377786,-5.919331523093965,3.5097827608369485
0,26.43809997754973,17.1566107857584,12.207652779707743,-1.028722076097463,3.514782451379453
0,1.2296382140985584,0.877252810885095,-4.919945064767618,-14.268112682510841,3.519782141921958
0,1.8711780270846448,-12.18210291558955,-7.887542355721816,-23.27750334887951,3.5247818324644555
0,10.702719397708973,-3.111456400216234,-1.045139103324731,-11.16689408052898,3.5297815230069602
0,0.20426230665137213,-9.620807649092631,-15.352735317292694,-14.276284881224354,3.534781213549465
0,-3.7641932658345354,-8.63015666762414,-9.000331006654342,-14.875675753229114,3.5397809040919626
0,-2.0426473396702356,-8.639503460452284,-8.707926179531215,-6.625066697469783,3.5447805946344673
0,-17.40109993455411,-5.388848031406812,-5.6255208430898564,-6.4544577137128964,3.549780285176972
0,-8.679551069543269,-0.2681903836002244,-2.6831150037124236,-1.1238488008702765,3.5547799757194767
0,17.101999237121163,-9.127530519623381,-3.410708667223087,-10.633239957273496,3.5597796662619743
0,-31.626449032273293,-7.42686844160574,-9.18830183901797,-10.572631180692358,3.564779356804479
0,-26.614895894813706,-6.056204151086327,-2.9558945240287806,-8.712022468131003,3.5697790473469837
0,9.496658633794896,9.044462350983382,5.806513273285712,3.0285861842515627,3.5747787378894884
0,38.07821453902242,24.345131063740958,18.09892154856707,20.709194780737747,3.579778428431986
0,10.549771805840052,-6.404198014367274,1.3613302969240901,4.019803325246808,3.5847781189744907
0,10.69133041743904,3.306475114167804,-1.3862604873447175,11.28041182075383,3.5897778095169954
0,17.812890355269218,3.697150446338746,15.726149189472363,21.691020269158233,3.5947775000595
0,5.874451599432808,10.42782797887105,19.758559320490964,24.751628671043886,3.5997771906019977
0,9.186014128857268,3.328507708039785,7.000969897753122,10.992237025233484,3.6047768811445025
0,7.407577921487911,2.4691896295328624,8.413380911984063,7.752845328734169,3.609776571687007
0,10.339142954439689,10.489873738516005,13.195792352790033,14.083453577142167,3.6147762622295048
0,-5.599290795920175,7.210560029620631,-1.4117957911325743,-1.7559382349802188,3.6197759527720095
0,-21.357723353571995,-7.1787515031168265,-9.819383531723384,-7.915330113750187,3.624775643314514
0,11.193845257863478,17.04193913387703,22.693029118858515,15.675277934486504,3.629775333857019
0,15.965415015248997,12.282631933708249,11.895442148141049,12.785885903171057,3.6347750243995165
0,-11.853014104723336,-5.8166731112718155,-2.232144457205212,1.8364937850520968,3.639774714942021
0,-12.961442125720636,-5.575976009356482,1.1902692886107404,7.307101571989207,3.644774405484526
0,2.1601309288698047,1.2747232310985939,6.882683370962241,12.327709255115264,3.6497740960270306
0,-5.598294963694432,-0.26457539802131946,1.3450977749854278,3.258316824853217,3.6547737865695282
0,-1.2267198257018408,3.186128095281184,10.027512485455388,13.928924270821962,3.659773477112033
0,23.344856320677568,15.276833702845103,20.139927486557486,21.559531581707457,3.6647731676545376
0,-42.09356654687126,-18.912458583865142,-16.52765723835503,-18.049861254884195,3.6697728581970352
0,-10.301988450363947,-3.7517487735353097,-3.8452417064899,2.120745747934813,3.67477254873954
0,9.82959058935159,-0.2910368744593529,-6.092825934872571,0.7413525770443243,3.6797722392820447
0,-1.8988294475407526,-2.7803228944019645,-4.660409939931372,-0.13804078046143997,3.6847719298245494
0,10.412751419272881,-4.229606840817279,-8.097993737514729,1.8325656625347972,3.689771620367047
0,-18.255666830142875,-21.77888872079287,-22.675577342793954,-15.136828106828343,3.6947713109095517
0,-15.364084215578707,-24.45816854051242,-29.583160769762298,-15.956222101014225,3.6997710014520564
0,1.1574992439653664,-8.207446304598946,-9.640744030578373,0.5143836684080809,3.704770691994561
0,-17.380916469489694,-4.816722015996769,-9.638327135426858,4.624989190769581,3.7097703825370587
0,-5.069331373025784,-6.685995676463926,-6.235910093008512,1.6355944557403161,3.7147700730795634
0,17.03225451699501,11.25473271286036,6.716507088854456,7.146199452823227,3.719769763622068
0,-14.956158815511605,-9.61453684896715,-11.201075597235858,-8.73319582877587,3.7247694541645657
0,-6.194571386621125,-7.633804362828047,-8.618658158384873,-9.742591399908095,3.7297691447070704
0,-29.832983211913792,-9.49306982924201,-18.71624060109279,-18.70198727093795,3.734768835249575
0,-17.33139430565182,-8.642333248001304,-24.313822930707772,-22.07138345111567,3.73976852579208
0,-22.25980468020705,-9.281594618039241,-21.301405150894716,-21.320779948050177,3.7447682163345775
0,-18.25821434590181,-9.900853937409988,-14.4189872633162,-15.240176767417305,3.749767906877082
0,-14.136623311109966,-14.180111203232725,-15.186569267706618,-15.67957391299688,3.754767597419587
0,2.044968417440254,-12.629366411564119,-15.30415116214356,-14.158971386889622,3.7597672879620916
0,-15.763439165836438,-19.45861955721914,-16.941732943193763,-19.678369189658014,3.764766978504589
0,-2.6018460657450975,-3.1378706336530575,-5.529314605960697,0.28223267960417625,3.769766669047094
0,0.8797477135794782,-2.607119633124162,-9.456896144272097,-4.317165777017647,3.7747663595895986
0,0.45134216844493835,-0.10636654716104525,3.165522448963695,4.733435443192866,3.779766050132096
0,4.162937295249767,7.784388632952683,9.447941181286211,9.374036343050928,3.784765740674601
0,-1.955466909719362,9.905145915770277,-0.3396399398435628,1.204636925065481,3.7897654312171056
0,-20.45387045017205,-3.054094690643538,-2.6572209073064665,-6.9847628086709825,3.7947651217596103
0,-0.5122733293487295,-0.8233331786952629,-1.3448017141455353,-3.634162856176669,3.799764812302108
0,25.18932445013784,8.337430459000432,5.097617646644033,7.846436784740918,3.8047645028446127
0,-13.479077114327263,0.5181962296674033,3.200037182041125,1.5670361163687148,3.8097641933871174
0,-21.86747802568109,-14.04103585966413,-13.487543101110596,-9.072364859145171,3.814763883929622
0,-9.885878286385433,0.3697341981591423,-4.0051231958459255,-4.591766139629075,3.8197635744721197
0,12.695722102235349,9.340506410674221,13.57729690519863,7.838832277397267,3.8247632650146244
0,27.227323139356457,12.731280785438042,14.329717209423546,13.879430394518511,3.829762955557129
0,5.10892482336996,4.79205732940422,6.6321377235244245,6.830028213820605,3.8347626460996267
0,17.380527151194258,8.112836048664715,10.504558453140405,3.2206257365325603,3.8397623366421314
0,-12.057869881529717,-3.426383051406578,0.5669794029786904,1.821222963159932,3.844762027184636
0,-4.866266279762653,-8.225599965792844,-4.530599422872791,-8.768180106152226,3.849761717727141
0,4.055337951615338,0.16518531062024439,2.6218219794513344,0.10241652876864402,3.8547614082696384
0,31.096942807800684,22.995972783137567,29.264243613662615,22.533012868210562,3.859761098812143
0,6.6985482832363274,9.566762456661033,11.116665482703045,3.7136089120893763,3.864760789354648
0,9.12015437094095,15.077554334973641,8.269087588088421,4.624204659430853,3.8697604798971525
0,9.661761062626312,20.898348420453562,19.691509929878613,9.48480010840392,3.87476017043965
0,11.34336834901297,15.189144713953985,17.023932506799056,7.115395256508525,3.879759860982155
0,32.4349762197337,25.11994321461629,20.496355316048078,6.785990100546639,3.8847595515246596
0,20.386584662800317,33.13074391961288,29.97877835299019,14.166584636550095,3.889759242067157
0,36.88819366398577,44.601546823623316,34.81120161076439,22.887178859588253,3.894758932609662
0,26.529803206397666,46.922351918040526,41.123625079714415,20.647772763320603,3.8997586231521666
0,17.311413270351597,32.463159190328525,25.30604874690212,2.328366339667752,3.9047583136946713
0,29.683023833569656,33.29396862395616,27.0284725960755,2.8389595790781175,3.909758004237169
0,39.26463487130809,39.994780198737445,33.140896607984985,8.37955247115296,3.9147576947796736
0,21.356246356070518,29.935593891038703,24.33332076057256,5.250145004971393,3.9197573853221783
0,18.967858257462446,20.67640967390115,18.39574502905135,5.1707371690640125,3.924757075864683
0,19.209470542592413,21.427227517462416,13.178169386247498,4.271328951395755,3.9297567664071806
0,14.621083176561081,27.408047389443286,12.270593803123578,2.3219203394465304,3.9347564569496853
0,15.862696122723314,19.79886925530861,12.613018249189986,0.2025113203235493,3.93975614749219
0,11.254309342860333,27.509693078224235,26.555442692607322,5.693101880874796,3.9447558380346877
0,22.53592279729068,30.410518818980158,22.437867099912992,6.74369200767859,3.9497555285771924
0,18.337536444786082,24.751346435820764,26.00029143558682,6.4742816868820725,3.954755219119697
0,23.269150242336,12.622175884410087,18.54271566182057,4.204870904063842,3.959754909662202
0,14.730764144985958,13.47300711821033,13.355139738615108,-0.7045403557320309,3.9647546002046994
0,-1.7476218939997725,4.513840089079078,11.717563624127395,1.2060478921962505,3.969754290747204
0,-9.886007922470991,-2.3453252521718797,1.689987275121294,-0.5633643675905964,3.974753981289709
0,4.395606011500885,-17.424488955137246,-12.427589352471195,-14.482777150483486,3.9797536718322135
0,-26.2227801397902,-18.75365106897991,-18.97516630272846,-12.982190471445433,3.984753362374711
0,-34.49116642311033,-19.8628116416186,-16.742743618822615,-14.941604344497705,3.989753052917216
0,-30.009552883292184,-25.61197071920874,-30.430321342348133,-22.261018782331394,3.9947527434597205
0,-8.167939562515569,-19.761128345873825,-13.167899512928848,-8.830433796091627,3.9997524340022252
0,-1.7763265006557094,-8.740284563669078,-12.525478168156223,-6.399849395413134,4.004752124544723
0,-7.414713736259552,-17.2294394128658,-13.14305734391372,-3.9492655887960604,4.0097518150872276
0,-15.163101307154609,-24.918592932207165,-18.97063707468441,-21.848682383926004,4.014751505629732
0,-12.041489250362497,-18.82774515875251,-18.998217393509883,-17.23809978749797,4.01975119617223
0,-27.039877601701164,-27.31689612755383,-23.175798331737692,-19.077517804738154,4.024750886714735
0,-27.468266395309254,-36.326045871376444,-36.60337991869208,-25.996936439063866,4.029750577257239
0,-21.926655663149283,-30.335194420309207,-26.790962181218934,-18.226355691898547,4.034750267799744
0,-17.775045434806234,-9.654341801535628,-14.998545143402385,2.3542244372832912,4.039749958342242
0,0.0765642622009226,-21.653488039714297,-19.04612882683524,-6.385196049597237,4.044749648884746
0,-23.44182659815434,-25.552633157507767,-29.31371325104442,-17.924617149837644,4.049749339427251
0,-17.78021804065612,-10.431777175682114,-17.281298433513147,-10.044038859950735,4.054749029969756
0,0.21138991130450802,-6.630920113189552,-13.118884389598877,-6.503461175369484,4.059748720512253
0,-25.247002764292592,-13.380061987604194,-23.646471132734003,-18.84288409041151,4.064748411054758
0,-15.035396088195837,2.1607971844642098,-0.4740586746939861,0.44769240165307417,4.069748101597263
0,-19.52379007964076,-1.3083426129248896,-4.081647025929319,-0.0917316915484605,4.07474779213976
0,-6.542184756187733,5.0325186045762935,-3.509236196096476,-5.831156361868496,4.079747482682265
0,-6.8305801339605186,3.103380821251179,1.6531738055278162,5.329418399056229,4.08474717322477
0,-4.248976228086304,0.9942440211357059,4.405582969830544,0.33999259967059126,4.0897468637672745
0,1.2226269469315005,0.445108188011706,2.8979912876232063,3.9305662483348227,4.094746554309772
0,-5.495770623043874,-5.88402669445718,2.4503987494519417,-0.28886064679125417,4.099746244852277
0,36.72583104785891,2.856839357459681,2.4328053455656415,1.2517119222668351,4.1047459353947815
0,7.357431944771434,12.997706327542057,12.545211065890621,13.762283963282703,4.109745625937286
0,6.589032051389275,9.048574199234432,17.497615899774267,21.83285548349836,4.114745316479784
0,2.3406313501039397,7.629442955206034,11.890019835534755,11.37342648902402,4.1197450070222885
0,-0.5577701773904697,-4.779687422695475,2.4924228602242295,1.3339969845445228,4.124744697564793
0,20.943827450196583,-4.718816953055283,2.6948249598816,2.0345669736687326,4.129744388107291
0,-8.264575786381702,-13.51794565432705,-17.912773879897827,-11.124863540434374,4.1347440786497955
0,4.147020093038309,-4.49707354436662,-11.480373673244177,1.0857054454916901,4.1397437691923
0,25.458615068159588,4.443799359691278,3.9820255665405364,10.886273934959622,4.144743459734805
0,0.040209117987471066,5.474673041092174,1.9744238268864338,4.5268419314087005,4.149743150277303
0,10.271802220482598,0.8255474829727083,-4.903178904553114,-1.0625905621823262,4.154742840819807
0,-24.096605647144518,2.436422668153858,3.9692173598712395,1.2379764567461131,4.159742531362312
0,-13.015014507547845,-15.87270142069648,-22.61838739204199,-16.941457009309723,4.164742221904817
0,-41.15342438218447,-25.051824800513906,-33.4059931717791,-28.06089095731873,4.169741912447314
0,-10.241835290447503,-14.020947487023246,-19.593599989133732,-22.77032538283121,4.174741602989819
