labels,F4,F3,Fz,Cz,timestamps
0,3.5432144463919446,2.7069798302134345,1.4582749240902406,0.10646955605045266,-2.0001758648617134
0,-2.9764899801623494,-3.6825662968427206,-4.811853970300492,-0.12393709962782495,-1.9951754251995588
0,-1.8761945719144024,-1.0621122849871099,-3.491981587341074,0.6056570968976751,-1.9901749855374042
0,6.854100671050842,2.7883418569025085,4.337892068502688,3.4552521366642575,-1.9851745458752497
0,-5.565604251364503,-7.461203879961475,-8.552233007052719,-0.05515198939435495,-1.980174106213095
0,-4.67530933928153,-3.480749504217761,-0.9223568181211061,-3.9255552904593882,-1.9751736665509405
0,3.464985407319694,1.879704975779342,6.207520631396433,-1.2659577756945901,-1.970173226888786
0,-8.794720011307477,-9.349840448021226,-14.952600662245809,-8.606359454056786,-1.9651727872266314
0,-6.364425594635291,-4.519385783353943,-6.782720702540179,-5.466760334117742,-1.9601723475644803
0,4.695868658255335,7.291068962429197,9.19716050753064,3.5528395760313667,-1.9551719079023258
0,0.15616274859436294,-0.3484762178174925,3.93704296531014,0.6324402686259746,-1.9501714682401712
0,7.516456677598462,5.981978668632586,5.026926667935448,8.962041735887313,-1.9451710285780166
0,12.916750446141924,11.002433614156281,12.706811612017733,12.231643969667552,-1.940170588915862
0,4.397044054450333,0.5128886106049715,5.446697793489987,2.4212469611418506,-1.9351701492537075
0,-2.9926624979952905,-8.076656350678977,-5.253414792426227,-1.4891492992334292,-1.9301697095915529
0,-0.3623692121596171,1.1137987215139833,-0.4335261509175584,0.640455178589564,-1.9251692699293983
0,13.247923910844248,11.204253818513324,14.206363712735257,7.670060384517347,-1.9201688302672437
0,-11.971783130286966,-18.77529106835694,-15.303745206890824,-11.770333691660557,-1.9151683906050891
0,-8.351490336971231,-8.564835947650723,-11.443852915252604,-9.360727060097693,-1.9101679509429346
0,1.2988022896859177,-0.40438082730440617,0.876040582681932,-5.991119730443919,-1.90516751128078
0,-2.1509052509236355,-8.873925714489365,-3.5140647173509865,-6.741511711580279,-1.900167071618629
0,-5.230612959094748,-10.903470615756383,-11.614168819118657,-7.921903011656955,-1.8951666319564744
0,1.839679165091205,-4.973015536974235,-0.9342717259235044,-5.642293638147711,-1.8901661922943198
0,7.149971121700696,-4.592560483245938,-0.30437344053865645,-3.622683597876835,-1.8851657526321652
0,-16.099737089203316,-16.8421054589588,-20.324473965267842,-14.003072897055086,-1.8801653129700107
0,-14.259445467352677,-17.091650467630785,-12.60457330173835,-12.403461541158714,-1.875164873307856
0,5.330845988238187,2.7688044883769347,7.835328549437063,-0.7038495347235669,-1.8701644336457015
0,-6.138862720668143,-7.2407405922577475,-6.914768411545678,-4.574236881424363,-1.865163993983547
0,-11.828571591836972,-12.42028571018735,-10.56486418411352,-8.024623584362546,-1.8601635543213924
0,2.0117193774233337,-0.07983086546081886,4.27504123267632,-2.1650096461712125,-1.8551631146592378
0,1.272010190296734,-1.579376057501465,-0.01505215983068299,1.584604930968406,-1.8501626749970832
0,-10.63769914974699,-10.348921285282373,-9.64514436008688,-7.275779854816854,-1.8451622353349286
0,4.3425913609714115,3.6015334525891975,5.044764633620386,-0.6961640051750321,-1.8401617956727776
0,3.8228817263469055,0.26198815783312374,3.6446748231855066,1.0034524784970245,-1.835161356010623
0,-11.036828049658226,-9.687557167647622,-9.01541378948055,-7.1469304049854845,-1.8301609163484684
0,-2.736537962977173,-4.547102521720577,-2.325501202430154,3.642687343369112,-1.8251604766863139
0,4.823751990777744,1.653352098172253,3.3944125865300543,3.4423057226836673,-1.8201600370241593
0,5.0040418161917355,-2.326193305036343,1.7243275797825959,1.4019247320235626,-1.8151595973620047
0,-8.565668482261668,-7.1157387282041915,-7.335756220299925,-7.808455629703371,-1.8101591576998501
0,2.7646210997985934,12.17471583198207,10.314161188639703,5.091164636412658,-1.8051587180376956
0,1.6549105668381374,1.6151703788363496,0.7540798089079853,3.080785529368806,-1.800158278375541
0,-10.23480007657812,-8.914375084569965,-9.116000357360035,-10.569592951852774,-1.7951578387133864
0,1.465489174279135,1.7160794447289378,1.693920691948457,0.39002919179611495,-1.7901573990512318
0,9.87577832436056,6.59653396982943,7.063842959113735,7.229651959590206,-1.7851569593890773
0,-3.713932621415851,-1.9630115061766145,-5.9462335535641735,-2.8207246491302564,-1.7801565197269262
0,-10.013643658314706,-10.102556980316256,-8.58630884383203,-12.011100635092436,-1.7751560800647717
0,2.19664521851634,-2.1921024494568444,1.123617090800832,-3.361475998785933,-1.770155640402617
0,-1.9530659857161579,-7.961647909986909,-8.066455746738098,-5.941850740118907,-1.7651552007404625
0,-0.002777265571884513,3.568806642214873,-1.6265273531105366,8.267775141527327,-1.760154761078308
0,6.577511384428683,4.189261211563543,7.863402275333116,3.1274016469230865,-1.7551543214161534
0,10.137799969577104,6.4097158024097824,11.173333142231703,11.807028776553828,-1.7501538817539988
0,-8.561911505258285,-0.12982958124253907,-5.726734749211184,-3.7833434696389343,-1.7451534420918442
0,5.9383769644333615,8.290625064205182,8.253198603707016,6.656284907780189,-1.7401530024296896
0,14.478665382955498,14.14107974188723,12.043133203303988,8.375913907865092,-1.735152562767535
0,2.7189537541724387,10.521534454189915,2.703069051357785,7.075543529199739,-1.7301521231053805
0,1.9892420812488534,2.4119892025116187,1.703006148963851,-0.7348262302447756,-1.725151683443226
0,12.599530366735921,12.442443987336887,15.522944496639713,10.534804626953468,-1.7201512437810749
0,-5.590181387314688,-6.527101191543319,-4.427115905649672,-3.35556390221621,-1.7151508041189203
0,-3.359893179220146,-1.556646334747494,-6.467175058417035,-4.475931821065508,-1.7101503644567657
0,2.940394992651488,3.553808557043734,5.5927670377215914,-2.4362991329118038,-1.7051499247946111
0,0.9206831300375813,0.6842634831985182,1.5127103822545203,-3.6466658408098596,-1.7001494851324566
0,-7.529028765293413,-6.365281556944862,-8.227345025336914,-3.4170319474864126,-1.695149045470302
0,3.8812593085027527,6.775173435963442,5.62260081444293,5.342602544602284,-1.6901486058081474
0,11.411547353340593,8.295628461252138,9.21254790112623,8.6422376330457,-1.6851481661459928
0,-5.748164629072736,-6.0139164820120605,-8.867503765939306,1.3218733151250535,-1.6801477264838383
0,-2.257876637341006,2.526538604938979,2.2424458123729107,2.461509587649422,-1.6751472868216837
0,9.632411329836302,7.596993720742469,10.742396635134616,7.581146447030489,-1.670146847159529
0,-0.417300726319174,-1.212551136138705,0.6923487012298872,0.8107838893156631,-1.6651464074973745
0,-4.347012804811255,-2.232095967500555,-5.5976979908330815,-3.749578089789468,-1.6601459678352235
0,5.993275095219891,7.46835922471354,7.972256557241081,2.0000605052705875,-1.655145528173069
0,-2.8764370253832983,-1.9111855615454156,-0.22778765632264836,-3.8003003299031883,-1.6501450885109143
0,-4.536149165791883,-2.8407303284735708,-7.14783063340949,-1.6306605995940107,-1.6451446488487598
0,-7.445861325035551,-10.100275078234622,-5.9078723758462495,-5.791020307897196,-1.6401442091866052
0,5.994426498200328,3.4401801873373605,2.1720871148889986,1.8086205413618974,-1.6351437695244506
0,-8.635285694462851,-12.129364533151765,-11.487952162273672,-3.7617380553888613,-1.630143329862296
0,-1.7049979011934748,4.631090759308435,4.122009791958785,2.1379038984418903,-1.6251428902001415
0,5.705289880061654,5.611546064002552,8.531972977129461,4.747546399493162,-1.620142450537987
0,-0.5044223485438697,-0.3779986198142714,-1.8880626072985227,1.4971894442817368,-1.6151420108758323
0,-16.69413458485666,-15.487543293026999,-17.46809696205211,-12.813166970836635,-1.6101415712136777
0,-1.3338468264191194,-2.3070879562805953,-0.12813008759561498,-4.673522849349031,-1.6051411315515232
0,-5.323559070121463,-3.6366326096007855,-3.6681619837362223,-4.503878194198632,-1.6001406918893721
0,-12.533271312189374,-14.176177252374952,-12.488192649673756,-12.244233007670754,-1.5951402522272176
0,0.5870164517816875,3.3042781166182795,4.021777915914688,-6.304587291357806,-1.590139812565063
0,-3.1226957732036884,-3.925266500836086,-1.2382502851918906,-5.704941046078552,-1.5851393729029084
0,4.077592018226852,6.695188897348657,-1.07827725099835,3.434705728022168,-1.5801389332407538
0,3.76787983149909,8.665644313192322,7.651697020493628,1.3843530311438994,-1.5751384935785993
0,7.858167671822958,11.106099748267305,10.951672531074028,0.8140008634993742,-1.5701380539164447
0,4.718455543970321,7.266555203375184,5.081649281989942,6.483649225142552,-1.56513761425429
0,-5.641256547770907,-4.1229893214911355,-8.098372726166122,-5.7467018840798865,-1.5601371745921355
0,-0.04096859936231573,0.847466173167231,1.7516065068862212,-2.5370524644309316,-1.555136734929981
0,8.589319393226994,3.7579216867120073,5.431586981456897,3.692597483912776,-1.5501362952678264
0,-12.010392565998352,-12.56162278148496,-12.098431302100575,-6.217752039084324,-1.5451358556056718
0,1.6198955269707176,1.0088327681150764,4.381551656643686,3.8418989666321393,-1.5401354159435208
0,1.3701836763254027,0.7792883353836816,2.941535858293894,1.5415505011662187,-1.5351349762813662
0,-9.719528113536722,-9.680256079521406,-9.038478696461027,-2.468797435411936,-1.5301345366192116
0,-3.4792398379763627,-2.149800476169782,-2.6384920068360387,-0.21914484308273718,-1.525134096957057
0,5.731048508007598,4.600655146220996,4.76149592822051,2.1605082781948366,-1.5201336572949025
0,-3.508663070346741,-5.748889211333394,-3.308514890036575,-0.07983807153158018,-1.5151332176327479
0,-8.288374567730513,-10.198433547672586,-7.978524460278248,-4.3101838922447175,-1.5101327779705933
0,0.43191402137390356,1.2420221387163524,0.6014672190363736,-1.2605291838630355,-1.5051323383084387
0,8.762202702773498,2.8024778497825795,7.071460149733369,7.609126053825621,-1.5001318986462842
0,-7.117508517687076,-8.52706641230209,-6.258545666302894,-0.4212181789978528,-1.4951314589841296
0,-5.417219634237006,-0.13661064522825592,-0.13855022725913066,-0.3915618823609123,-1.490131019321975
0,10.173069359008009,12.07384515347842,15.481446468639827,11.588094943485732,-1.4851305796598204
0,5.15335846797163,0.8143009861898718,0.7914444229019053,6.897752297945398,-1.4801301399976694
0,2.653647698239254,1.2147568548641778,4.641443636463328,1.8874101798307534,-1.4751297003355148
0,6.233937054890436,3.025212761088916,5.29144410970985,-0.4029314126208202,-1.4701292606733602
0,-3.115773457411847,-8.784331293706382,-9.008554157329577,-4.923272481439639,-1.4651288210112057
0,2.2145161657335906,-3.3838753080023443,0.5714488352784008,2.4163869713759416,-1.460128381349051
0,-1.6051940713704635,-5.963419279921863,-1.658546912364379,-6.1839530560154925,-1.4551279416868965
0,-0.10490416442404633,-5.822963207087457,-4.208541399923986,-4.264292565244692,-1.450127502024742
0,-7.704614109054275,-10.902507086559876,-10.238534626800028,-6.98463155759904,-1.4451270623625874
0,-0.5243239006682832,-5.442050914722543,-5.5985265919181435,-9.99497003384332,-1.4401266227004328
0,3.815966465610713,-0.9715946872442267,-0.2185172935797437,-5.015307994071739,-1.4351261830382782
0,-5.913743005190528,-7.62113839922407,-7.0985067295580455,-8.53564543764327,-1.4301257433761236
0,8.036547691970291,7.099317954615653,5.951505102716801,3.0040176367418385,-1.425125303713969
0,-1.363161437925746,-5.5502256202509495,1.8515182059571553,-8.916318769140783,-1.420124864051818
0,-7.032870389993947,-12.979769118203812,-10.118467417151166,-12.696654653092377,-1.4151244243896635
0,-8.802579159235108,-11.989312533157527,-9.60845176378691,-6.356990012261798,-1.4101239847275089
0,2.067712259793131,-0.4288558581657261,-1.908434830594872,-3.0273248429620256,-1.4051235450653543
0,-4.241996126990385,-9.258399085427339,-8.678416613534441,-9.187659140780696,-1.4001231054031997
0,-14.121704313295725,-13.557942206447352,-16.01839710789093,-13.9779929006539,-1.3951226657410452
0,1.148587707662019,-0.7274852119735598,1.3616236918544111,-1.5483261167198814,-1.3901222260788906
0,-4.1111200567287165,-7.1770280919698655,-2.5483542079895583,-11.208658782258182,-1.385121786416736
0,-6.940827598609209,-10.746570835746162,-10.168330800596674,-6.278990889784243,-1.3801213467545814
0,-8.820534909690089,-7.9961134319399125,-10.028306078674616,-8.82932243107463,-1.3751209070924268
0,3.459758018858799,-1.5056558684130072,5.121719965707225,1.0803466028142967,-1.3701204674302723
0,9.31005119624265,4.414801867580177,9.531747340925845,8.080016221294333,-1.3651200277681177
0,-3.469655368408071,-0.674740211003096,-1.6582239447443174,4.699686433765673,-1.3601195881059667
0,17.630638333643475,25.235717908581385,24.431806116450616,20.889357249119193,-1.355119148443812
0,9.900932310523583,12.876176238311281,10.571837531402624,13.529028675279655,-1.3501187087816575
0,6.801226569459708,5.396634788884935,6.741870305795018,12.808700718837702,-1.345118269119503
0,-1.4984788832472387,-0.9329064302051017,3.7219044441531355,1.4483733850317233,-1.3401178294573484
0,5.631815958109314,2.297552589877893,2.5919399502437876,0.48804667813734215,-1.3351173897951938
0,-6.357888901033719,-2.3319881422469324,-11.818023172522354,-1.772279398018124,-1.3301169501330392
0,-17.237593455190456,-9.901528617937364,-16.16798492057443,-17.752604839587185,-1.3251165104708846
0,-1.9572976983390222,-0.0010688282750666023,0.7820547103931845,-4.282929642219912,-1.32011607080873
0,-11.53700162358957,-15.64060876384211,-13.287904274389343,-13.283253800692574,-1.3151156311465755
0,-12.21670522316681,-14.1301484144981,-11.597861868860694,-7.593577308812142,-1.310115191484421
0,4.433591511549322,0.3703122308705382,10.022181933826868,1.226099840489449,-1.3051147518222663
0,-0.07611141019003226,-2.3392268157202647,2.6822271410029748,-0.41422234512013617,-1.3001143121601153
0,-0.9758139789196482,-4.348765541745024,-2.897726240053154,-3.174543857722815,-1.2951138724979607
0,3.804483814795554,4.021696065565326,5.452321797703776,3.3051353106881933,-1.2901134328358062
0,6.644781980267239,7.102158019052187,5.502371261132131,8.284815168107318,-1.2851129931736516
0,-7.804919473420969,-11.327379668573517,-9.127577843132926,-6.7555042776725465,-1.280112553511497
0,-3.3146205373053985,-3.9469169846322063,-2.377525508535748,1.4741769809332594,-1.2751121138493424
0,1.8656787977476355,1.6635460838584546,1.852528271692226,-5.466141048468355,-1.2701116741871878
0,-2.624021458886991,-6.4759904497440255,-7.337416495405325,-6.37645835803831,-1.2651112345250333
0,-6.023721297674215,-7.305526571775311,-6.7473598025189006,-2.136774939564341,-1.2601107948628787
0,2.8665792911214414,3.494937731805492,4.682698358033843,3.322909215554683,-1.2551103552007241
0,2.516880317422411,2.325402475354976,1.112757994228394,1.0525941160991692,-1.2501099155385695
0,-11.212818208783395,-10.264132326675789,-10.357180885885713,-3.887720229182948,-1.245109475876415
0,3.667483722617118,6.066333340252759,4.402881725852802,3.77196618842161,-1.240109036214264
0,12.047786121905256,13.346799490747344,12.232945837746236,10.75165337756495,-1.2351085965521094
0,1.308088999184881,1.4172661390960852,-0.406988542113946,8.631341346535288,-1.2301081568899548
0,3.578392364045259,3.707733298956505,2.6430785938666013,6.571030102909711,-1.2251077172278002
0,9.118696225569016,10.018200983421746,12.633147252831012,8.580719653452975,-1.2201072775656456
0,-0.5309994076153031,-2.88133079489338,-0.2567825585447313,2.7704100041883097,-1.215106837903491
0,-7.440694527249648,-8.760862023714765,-8.996710834047038,-1.9598988394425805,-1.2101063982413365
0,4.46961087485375,2.8796073092661043,2.9633624324244523,-1.4402068722916697,-1.205105958579182
0,11.719916806931497,9.980077216555499,7.543437247110057,7.429485910730795,-1.2001055189170273
0,3.5602232769347917,0.3605477105407523,0.7335136161741463,7.5091795145714,-1.1951050792548727
0,-3.9794697077401113,-3.2389811967613666,-0.3264084545275646,-7.231126056186507,-1.1901046395927182
0,10.300837859895545,5.871490506435118,9.403671040582829,7.4085692027249825,-1.1851041999305636
0,-6.748854013392862,-3.75803716815495,-5.846247893162301,-6.131734704533297,-1.1801037602684126
0,-1.0385453209696807,-3.1575642088437488,-3.156165250608812,-0.6820377737872536,-1.175103320606258
0,1.4817639438364052,1.7229093961368527,6.363918973422184,0.997659999235309,-1.1701028809441034
0,2.992073787782534,0.6333836586802706,5.3140047841223925,9.987358618850635,-1.1651024412819488
0,-3.987615782410895,-6.766141409257706,-3.3459078135454186,-4.022941910826281,-1.1601020016197943
0,6.852695239893016,4.67433420437002,6.624181185092931,7.586758413986408,-1.1551015619576397
0,18.883006861112886,12.90481051163841,13.694271784420778,13.836459596699182,-1.1501011222954851
0,-7.116680912920182,-7.504712475655489,-8.40563601165351,-6.523838359814669,-1.1451006826333305
0,4.653631922937189,8.285765253873565,7.0744578002988465,4.295864546785188,-1.140100242971176
0,3.063945373454887,5.666243711305762,5.914553223431408,-0.5044316814073171,-1.1350998033090214
0,5.984259443179949,4.8467229073554385,1.9646502606049632,7.145272957588264,-1.1300993636468668
0,8.344574136281109,17.7072028521484,11.06474891422753,7.464978465486442,-1.1250989239847122
0,11.164889456334398,17.74768355490505,11.724849186107779,8.794684843491526,-1.1200984843225577
0,6.74520540613383,13.248165023534252,6.42495107724159,5.954392092113781,-1.1150980446604066
0,2.015521987649084,8.40864726446159,6.985054587716023,4.484100211144632,-1.110097604998252
0,8.995839202176974,14.72913028279431,12.255159716786062,10.503809199725223,-1.1050971653360975
0,-0.5838429495069466,-1.2503859174490206,0.4352664629223387,0.33351905637652435,-1.100096725673943
0,-4.973524467001275,-2.079901333030219,-5.024625176041297,-0.8567702209125172,-1.0950962860117883
0,2.096794649993602,6.170584038937502,2.4354847974799734,-0.607058634423687,-1.0900958463496337
0,0.9971144018612805,-1.0289297987860906,-2.524403618875105,-6.657346186424224,-1.0850954066874792
0,-5.6725652109562255,-6.648442843542678,-7.73429042732825,-2.4076328789635726,-1.0800949670253246
0,-12.022244187863055,-7.787955092565001,-9.224175629793127,-6.467918713729999,-1.07509452736317
0,3.2980774721797697,10.122533457272697,9.68594077231127,1.391796307991049,-1.0700940877010154
0,-6.921600229255589,-8.88697719064344,-11.543941222058908,-3.5084878147630083,-1.0650936480388609
0,-18.521277290109275,-10.496487032786852,-15.1638216136561,-9.688771082688977,-1.0600932083767063
0,-0.2709537076228676,0.32400393474873046,2.846299597361057,-0.7390534961095774,-1.0550927687145553
0,6.979370521751534,2.954495716381208,4.706422411512027,5.000664945070898,-1.0500923290524007
0,-15.590304598010547,-14.865011683154743,-14.723453170373073,-11.849615758817185,-1.045091889390246
0,-1.449979062680353,-2.7245182587974526,2.5366728527301463,-6.229895607222627,-1.0400914497280915
0,2.19034713239376,3.3359759950292167,0.49680048218711814,-1.8101745991159435,-1.035091010065937
0,-0.889326007794468,-5.533528915702027,-11.533070280341613,-6.750452732896777,-1.0300905704037824
0,0.4810015218180064,5.1369670151195885,-0.2229394329031537,1.5892699934799255,-1.0250901307416278
0,11.66132972619924,13.607463793534643,15.057193026762558,8.488993582297427,-1.0200896910794732
0,-4.778341389946682,-5.532038574787343,-3.482672899143815,0.1487180357487028,-1.0150892514173186
0,-10.948011822165292,-6.0815400845937235,-5.84253720877549,-4.0715566442597835,-1.010088811755164
0,0.602318434149046,-1.4410407306351354,2.907600099600602,-3.481830455923062,-1.0050883720930095
0,3.4226493840112693,-2.600540507337564,0.8077390278485274,1.3378966027339048,-1.000087932430855
0,-13.067018967293262,-12.120039408755336,-14.152120422043998,-9.072375466065761,-0.9950874927687039
0,-5.656686614200473,-4.319537428454279,-1.6719782477990712,-2.8926466597996727,-0.9900870531065493
0,5.343646449350158,5.8909654405839325,4.798165553352156,3.35708302442456,-0.9850866134443947
0,-7.316019770163087,-6.148530794259569,-4.651689015509047,0.5068135897329522,-0.9800861737822402
0,-2.125685266048083,1.2419738745021294,0.018458048763251016,-0.31345496075586665,-0.9750857341200856
0,2.1146499685971047,1.552479454423963,1.4186067493692145,0.7362773759972234,-0.970085294457931
0,-5.9950140591167855,-9.107014046853257,-8.551242910390135,-7.313989396963393,-0.9650848547957764
0,-15.334677341821008,-11.686506621445,-13.231090926948957,-4.434255276410556,-0.9600844151336219
0,2.8056601283901386,4.314001739078388,3.979062703834401,3.85547974121854,-0.9550839754714673
0,7.565998360001318,0.024511043680753797,1.1292179866806753,5.975215659692045,-0.9500835358093127
0,-12.493662638303839,-13.494978698409447,-13.580625073405399,-9.935047517295246,-0.9450830961471581
0,-0.8333228577833509,2.5255325223140526,3.3995335288334685,-1.4953097860826248,-0.9400826564850036
0,12.707017710502685,13.946044715677356,11.749693798944618,9.744428857161607,-0.9350822168228525
0,-14.562640924438199,-14.813442108506788,-13.730144257527668,-11.425831583638418,-0.930081777160698
0,2.0277012463758766,5.947072059410492,3.640019364843958,0.5839088954571312,-0.9250813374985434
0,0.9680442320997824,5.84758722908349,-0.17981532840596864,-3.406349701416281,-0.9200808978363888
0,0.8683880420619319,-1.5518965899077763,-4.379648331582061,-6.716607369801724,-0.9150804581742342
0,-8.741267314372639,-7.331379388169097,-7.939479638832553,-5.816864104863522,-0.9100800185120796
0,0.6590781723019847,1.989138843738166,3.2006907560105766,-3.247119901279838,-0.9050795788499251
0,4.0894245118430135,6.079658115437514,6.4808628593956135,5.202625246715354,-0.9000791391877705
0,-5.44022828587525,-2.8398215634634423,-3.7089633222612366,3.662371345040247,-0.8950786995256159
0,14.420119788954095,17.350699816380654,17.621212217172896,12.892118399369801,-0.8900782598634613
0,-1.179531254110897,4.4412222638095695,0.7013894833553702,-4.618133585147576,-0.8850778202013068
0,-1.4891814058938206,3.981745786928495,-0.09843151866520701,7.35161539611246,-0.8800773805391522
0,-1.1688306574496088,6.702270393137786,2.6517492157135565,6.111365347390429,-0.8750769408770012
0,7.831521000142894,5.192796089283305,9.11193169085322,7.541116272497563,-0.8700765012148466
0,1.6818735756898382,-4.096677118259233,-3.8178840891819315,2.2908681746733452,-0.865076061552692
0,-5.317772922259382,-4.146149223366033,-5.127698120600216,-3.179378943348217,-0.8600756218905374
0,10.07258151466762,9.644379780111159,10.282489600353573,3.8803749209161555,-0.8550751822283829
0,0.4429368947004815,-1.465090101686023,-0.7973209225860269,0.5901297698660773,-0.8500747425662283
0,-17.53670677408346,-11.524558862735864,-16.417129685792546,-13.020114394112198,-0.8450743029040737
0,1.2336505165836567,2.01597350309504,5.123063314538926,2.4896424315728116,-0.8400738632419191
0,-0.1659912244909066,-3.063492997691924,-1.5867419173452837,-3.6205997500884144,-0.8350734235797646
0,-1.3256319881088814,1.667041641684405,-3.036545376923951,1.8191590641942572,-0.83007298391761
0,-0.7652717649515753,4.487577428070754,-1.0063470595629336,-0.17108112218141824,-0.8250725442554554
0,9.425089454304953,10.798114368140222,11.073853039447478,4.418679694166149,-0.8200721045933008
0,11.805451678745483,11.288652468047978,10.374054924604598,11.198441516426755,-0.8150716649311498
0,-9.214185083094641,-10.560808266774604,-6.68574140016785,-10.821795652584965,-0.8100712252689952
0,-4.443820823084796,-2.430267831327609,0.3444640685720946,-10.312031810243646,-0.8050707856068406
0,0.7965444670009734,-1.3597262204980685,-1.9853286658054845,-3.9222669535532546,-0.8000703459446861
0,-10.02308920425511,-10.709183428797623,-11.825119599723525,-9.362501078793196,-0.7950699062825315
0,-6.062721827854824,-1.9286394502919013,-1.0349087292054937,-8.912734181500326,-0.7900694666203769
0,3.2176466057024222,3.8919057214151715,2.2153039502148775,-1.7429662564835542,-0.7850690269582223
0,-3.7519838936778984,-4.877547907005289,-6.554481556672215,-4.463197297904727,-0.7800685872960678
0,4.848386684062786,8.192999671156505,5.185734755067609,6.286572700482452,-0.7750681476339132
0,10.368758348897153,12.993548462426897,12.38595289035903,4.04634374500627,-0.7700677079717586
0,0.42913111043764696,-0.7459015271838658,-0.9738271462125131,-0.9338841582081551,-0.765067268309604
0,-0.5804950221839197,-0.12535029229121394,1.7763946494127163,6.865888996671504,-0.7600668286474495
0,18.95987995976489,21.815202172020946,18.776618280839102,16.805663215105362,-0.7550663889852984
0,8.460256064450753,7.6957558700337465,4.43684375107016,5.745438501856583,-0.7500659493231439
0,-0.06936670084564056,2.7663108050353196,-1.0329289377153685,5.2752148607409355,-0.7450655096609893
0,15.481011670296335,15.596866979339556,15.93730021595899,17.044992294681002,-0.7400650699988347
0,13.92139118351632,12.527424394383095,14.457531212909187,13.094770805669631,-0.7350646303366801
0,9.39177184344249,6.43798305057444,4.977764052984487,7.33455039455006,-0.7300641906745255
0,12.902153653511043,16.55854294721002,12.707998734926031,11.644331060990492,-0.725063751012371
0,20.332536615943717,19.199104082430985,18.678235256420372,16.434112803584924,-0.7200633113502164
0,14.53292073159351,14.05966645298742,14.388473613938569,7.583895619797291,-0.7150628716880618
0,9.43330599978835,12.980230054064446,7.768713802531745,3.343679505957947,-0.7100624320259072
0,23.153692418380885,27.850794879279523,23.59895581586024,13.023464457488416,-0.7050619923637527
0,23.164079983696595,25.55136092048281,24.91919964611037,13.583250469003474,-0.7000615527015981
0,20.53446869020786,27.421928167316157,20.75944528359626,17.04303753408003,-0.6950611130394471
0,22.04485853028526,28.54249660688946,24.169692716447024,10.562825644981984,-0.6900606733772925
0,29.985249494124982,31.193066223634133,30.469941930509027,18.002614792573766,-0.6850602337151379
0,20.06564156962414,24.43363699920702,20.77019290921991,16.972404966294476,-0.6800597940529833
0,19.18603474231763,23.574208912525144,20.950445633555947,12.562196154074853,-0.6750593543908288
0,35.53642899545916,37.61478193987655,36.040700082115976,23.531988342273728,-0.6700589147286742
0,15.956824309967981,15.82535605489084,12.410956231089099,6.621781515654745,-0.6650584750665196
0,6.687220664446543,6.5059312286758555,6.531214054369167,7.911575657503352,-0.660058035404365
0,17.077618035665353,18.9465074304279,18.6614735241188,12.321370749945848,-0.6550575957422105
0,15.048016399038277,15.75708462793386,14.451734611198027,14.721166774125338,-0.6500571560800559
0,-7.901584271223001,-7.552337212303854,-8.458002714750098,0.4609637101405749,-0.6450567164179013
0,10.478815998215428,10.048241875263228,10.02226151504068,10.090761537131694,-0.6400562767557467
0,12.199217180176227,9.238821855659584,10.292527268872997,11.910560233470218,-0.6350558370935957
0,-0.1703807530956163,-2.7705973065776144,-1.10720548544238,5.6903597767335405,-0.6300553974314411
0,-7.349977829959315,-6.5800156473397955,-3.986936780611985,-2.299839856309131,-0.6250549577692865
0,-1.1495740789427988,0.33056679745491824,4.323333350457126,0.439961310605392,-0.620054518107132
0,-7.189169528303436,-11.368850007798997,-9.606395125078913,-6.500236746357927,-0.6150540784449774
0,-10.918764205835288,-6.838266098223487,-12.636122239807168,-4.850434050840993,-0.6100536387828228
0,-5.048358138700374,-6.357681508287709,-2.8858480257195858,-6.6806306260862,-0.6050531991206682
0,-9.707951353297668,-14.16709627169556,-8.495572514016938,-7.390826494795451,-0.6000527594585137
0,-12.9275438752174,-14.866510421247082,-14.695295735131849,-8.431021679037617,-0.5950523197963591
0,-7.807135729142699,-6.72592398862583,-5.045017718650952,-3.5112162001926714,-0.5900518801342045
0,-10.936726938761325,-11.415337004354479,-9.784738493217313,-8.82141007897276,-0.5850514404720499
0,-16.586317526734,-15.044749497893218,-16.814458086539346,-13.19160333541631,-0.5800510008098954
0,-14.695907514560256,-9.124161497608238,-10.394176525282838,-10.881795988715192,-0.5750505611477443
0,-2.935496922443778,-4.583573030747265,-2.993893834959338,-7.321988057033636,-0.5700501214855898
0,-12.945085769430973,-18.22298412356651,-19.253610040041213,-15.222179557492442,-0.5650496818234352
0,-15.53467407359186,-13.662394801313773,-16.16332516396897,-13.51237050614667,-0.5600492421612806
0,-0.19426185198371837,-2.031805088059232,-0.3230392289478574,-3.5625609179000364,-0.555048802499126
0,-4.553849120730295,-9.061215006797529,-8.852752256043907,-6.892750806618688,-0.5500483628369714
0,-7.303435895335941,-5.290624579752254,-4.9324642655549304,-2.1429401854359886,-0.5450479231748169
0,-3.123022190842716,2.439966171430026,3.5078247227497563,-0.813129067007373,-0.5400474835126623
0,3.0373919781440972,-4.619442774501692,-0.7218853105825165,2.3666825362849497,-0.5350470438505077
0,4.097806597239794,0.9611485614026638,0.8184056150539993,10.086494612063568,-0.5300466041883531
0,-8.401778347979407,-8.088259841739188,-8.111302519734336,-2.313692852334076,-0.5250461645261986
0,-4.081362871912677,-3.4676680045289867,-0.42100973417502496,0.4861201300617358,-0.520045724864044
0,-14.170946988584431,-15.24707594709107,-12.710716047127077,-8.374066453915685,-0.515045285201893
0,-18.91053071123026,-21.046483688732394,-17.550421476825093,-11.564252617181499,-0.5100448455397384
0,-3.970114051933278,-5.845891247521653,-2.5101260405369996,-7.784438372013723,-0.5050444058775838
0,-6.289697021580481,-9.10529864016782,-6.709829754475765,-4.254623729851504,-0.5000439662154292
0,-11.049279630146692,-14.60470588225081,-12.509532634018221,-7.494808701367803,-0.49504352655327466
0,-6.438861886857061,-5.714112988356739,-6.359234693784718,-8.274993296587292,-0.4900430868911201
0,-2.3684438001844903,-8.17351997209237,-4.028935947580742,-7.675177524861626,-0.4850426472289655
0,-13.528025377919215,-14.62292684615601,-18.918636408420525,-12.475361394768905,-0.48004220756681093
0,-11.46760662714162,-9.172333622307987,-10.01833608841852,-5.705544914021183,-0.47504176790465635
0,3.5528124459164916,2.1582596886700616,6.4019650013439175,-2.4057280894839312,-0.4700413282425018
0,-6.006768164263656,-9.34114692325858,-12.457733149443676,-6.385910927366215,-0.4650408885803472
0,-14.08634846273744,-13.540553467586706,-16.52743055056248,-10.796093433353079,-0.4600404489181926
0,-5.0359284539835265,-3.0899599531148207,-2.127127211017953,-9.166275612484261,-0.4550400092560416
0,-3.9755081416942453,-10.999366387791529,-5.216823138863857,-10.446457468948172,-0.450039569593887
0,-22.955087528762235,-25.29877277864457,-27.896518341301125,-22.016639005908157,-0.44503912993173245
0,-20.514666617042455,-21.418179131395277,-19.746212824388294,-29.406820225141843,-0.44003869026957787
0,-9.904245406864234,-13.227585449952532,-11.195906592475435,-13.947001126511358,-0.4350382506074233
0,-4.753823896953385,-9.166991736381464,-6.295599648169651,-2.157181707852132,-0.4300378109452687
0,-12.77340208484208,-16.9063979912624,-16.61529199276362,-11.867361965515194,-0.42503737128311414
0,5.567020032754708,0.8441957860180549,4.645016373448931,3.482458105013727,-0.42003693162095956
0,-7.942557540321971,-13.9552104029407,-18.114674549000107,-4.377721491238347,-0.415036491958805
0,-16.942134799798634,-14.174616555676426,-13.204364758783926,-8.98790074890812,-0.4100360522966504
0,1.758288259232946,-0.39402266878716596,2.505945746380223,-0.7480796622615131,-0.40503561263449583
0,-5.6712883575490745,-11.703428737938072,-6.6337430303503675,-4.1182582251074535,-0.40003517297234126
0,-11.580864643861187,-12.542834757987691,-13.533431085234014,-7.9584364308332525,-0.39503473331019023
0,-1.3604405928623162,4.237759277008108,1.3868815860535817,-1.1186142724022385,-0.39003429364803566
0,4.229983802846841,1.8483533736244353,3.58719498842194,-1.828791742343825,-0.3850338539858811
0,4.830408550898837,4.888947538583688,5.997509126975723,7.591031167070658,-0.3800334143237265
0,-4.269166341215515,0.09954177839448514,0.7878240065866982,-0.8591455364672844,-0.3750329746615719
0,7.131259133783027,7.760136099266015,10.49813963172828,5.990678154492395,-0.37003253499941735
0,-3.6083150169646716,-6.529269492875432,-7.6515439935314955,0.36050224710929457,-0.3650320953372628
0,-2.1778887864029537,-3.558674992239038,-2.031226865365392,5.230326748258282,-0.3600316556751082
0,0.772537832556838,1.4819196070932816,5.309091020090242,-2.1098483354541386,-0.3550312160129536
0,7.712964847060821,4.962514311214361,5.609409666732219,4.4399770023665965,-0.35003077635079904
0,-9.1166077358297,-10.40689087376762,-8.620270921724805,-7.120197232002252,-0.34503033668864447
0,2.0338200908682826,3.8637040582896125,4.630049258293862,2.6896289677309912,-0.3400298970264899
0,1.9342483342173256,-3.275700886295846,0.5203702103928918,-6.280544392004493,-0.3350294573643353
0,-12.4153229985907,-14.245105700957138,-14.679308061739572,-11.60071730450781,-0.3300290177021843
0,-10.98489390005962,-12.224510378616987,-11.968985554064542,-10.260889762525824,-0.3250285780400297
0,2.395535637953765,-2.603914911308205,1.061337738237465,-5.851061757959582,-0.32002813837787514
0,-9.144034375718256,-13.033319290107508,-11.448338179178734,-11.63123328180128,-0.31502769871572056
0,-8.303603931714223,-11.682723505223118,-8.498013299985713,-8.621404324173128,-0.310027259053566
0,0.8568269798664128,-0.4521275459625323,2.032312382803809,-3.6715748743352137,-0.3050268193914114
0,3.3972583693945606,-5.701531400827336,-0.9473611232839907,-4.581744920796522,-0.30002637972925683
0,-5.2723097525837055,-5.60093505776581,-4.677033810468787,-3.3819144515189925,-0.29502594006710225
0,5.9081226244767135,6.169661495663162,1.4932943291711518,3.067916545908389,-0.2900255004049477
0,2.648555511064752,-5.589741727869837,-1.3463766962888157,-3.22225191590101,-0.2850250607427931
0,4.128988917471952,-2.1191447155988046,-0.4760468786727752,7.50758017569715,-0.2800246210806385
0,-1.0605771463128895,-5.348547454586318,0.36428379024616353,1.067412833221437,-0.27502418141848395
0,6.879857329431883,7.992050068363499,6.604615318686511,2.3972460689354063,-0.2700237417563329
0,-1.3597076458096744,-6.327352133429217,-1.5850522852777575,0.5370798948387518,-0.26502330209417835
0,-15.46927206267658,-17.656754046531248,-15.49471901368686,-11.1830856771731,-0.26002286243202377
0,3.2711640884377045,0.06384434298933483,0.43561514168848653,-1.5432506350074715,-0.2550224227698692
0,0.3116008176143177,-1.7255569501764578,-0.03404981036864341,2.2765850338328413,-0.2500219831077146
0,-4.217961864781995,-5.904957910793353,-7.233713860658963,1.7664213421042976,-0.24502154344556004
0,0.012476051719079895,-2.5043585232977947,-2.413376999707581,-4.313741697430895,-0.24002110378340547
0,-0.3070854222837285,1.5162412281824031,0.016960782281661146,-0.5939040720124237,-0.2350206641212509
0,-10.33664627602106,-13.573158640188884,-14.372700504543635,-10.5340657687007,-0.2300202244590963
0,-7.1462064983919165,-5.752558111840412,-3.712360849560891,-7.1842267741398596,-0.22501978479694174
0,2.8342339222469404,2.368042830398537,6.927979758439767,-0.3243870743716025,-0.22001934513478716
0,-4.175325001990506,-2.821355795810301,-6.7716786689736095,-2.914546654889409,-0.21501890547263258
0,-4.904883258725331,-5.580753972566226,-2.851336120125983,-0.1547055008639035,-0.21001846581048156
0,8.745559164614553,10.799848318182173,12.74900741675096,5.135136402664898,-0.20501802614832698
0,5.856002280616272,4.480451094453674,2.829351953324571,4.834979070581082,-0.2000175864861724
0,-4.213553898424468,-4.5889456260547625,-0.7103024991573978,-0.5251774825118709,-0.19501714682401783
0,4.556890639465547,5.291658174039881,3.2400440701539184,8.034666757652676,-0.19001670716186325
0,5.477335906073465,3.5022625119636874,7.7303916718609,3.994511804991536,-0.18501626749970868
0,-9.692218086987042,-13.047132595172096,-10.14925968367886,-3.155642326966672,-0.1800158278375541
0,-3.5217713281310785,-6.306527130128988,-10.348909986154734,-6.3657956249161005,-0.17501538817539952
0,0.918676194500275,1.8740789248329217,2.7514407751424392,-5.595948075392737,-0.17001494851324495
0,-1.8308755069146847,-8.545314412013555,-7.088207388524474,-7.876099664463281,-0.16501450885109037
0,-1.980426420029669,-2.304707122008705,-5.217854465474748,0.11374962237532205,-0.1600140691889358
0,7.450023467570699,7.525900813822599,9.252499556298183,3.363599800065606,-0.15501362952678122
0,2.070474168218958,-0.7034905854433467,3.4928546889006515,3.683450883667489,-0.1500131898646302
0,-13.039074305936271,-4.7128813008504675,-7.5067890557681505,-4.476697111899256,-0.14501275020247562
0,-0.8586219426683894,2.4277286865134764,1.4935683340434378,-6.516844171783295,-0.14001231054032104
0,1.801831270639417,0.9583393956390762,-0.25607312981466224,2.1430097190656947,-0.13501187087816646
0,-7.947714653054947,-6.961049154433438,-7.325713435334854,-1.4771354240205223,-0.13001143121601189
0,3.732740299411298,4.679563055411778,3.6746474296651312,3.0427204144149553,-0.1250109915538573
0,10.883196141296093,11.110176044324774,11.785009477471162,8.592577249744053,-0.12001055189170273
0,3.5736528856158456,-0.5092101688185451,-2.9346272798542032,2.5024350970259968,-0.11501011222954816
0,-8.785889455085657,-5.358595565574924,-7.62426283060622,-5.0177060290893625,-0.11000967256739358
0,3.6945691315082865,5.742019872313678,3.7361028368808604,1.1321538858439526,-0.105009232905239
0,5.235028657759773,11.76263616303477,9.11646973440445,4.662014856285988,-0.10000879324308443
0,-2.65451086402283,6.353253324374357,-1.093162126386345,0.07187689664843289,-0.09500835358092985
0,7.73595057825872,22.69387137328894,16.987207265703372,14.451740021085925,-0.09000791391877883
0,7.276412996416709,14.664490325539441,14.477577921161473,10.261604243215631,-0.08500747425662425
0,4.596876401808412,5.225110195442174,3.0379498494557367,3.9514695758227454,-0.08000703459446967
0,2.9273408052238272,5.595730996025827,2.968323059025985,3.681336030846612,-0.0750065949323151
0,6.547806216948868,7.886352739448414,10.86869755760651,0.491203619651709,-0.07000615527016052
0,3.468272646826283,6.076975437217518,5.489073352362921,1.041072353291047,-0.06500571560800594
0,2.708740104258976,3.787599100214436,0.4394504498368086,7.260942242616426,-0.060005275945851366
0,10.77920859821473,14.778223738689222,14.569828855987112,13.190813298150104,-0.05500483628369679
0,2.0296781371629278,2.3288493621841164,2.4702085761868644,2.150685529786452,-0.05000439662154221
0,-6.549851270917598,-1.5805240204750175,-4.049410384802517,-0.8794410532921654,-0.045003956959387637
0,4.500620381731418,5.260103599076125,6.060971977394221,2.6004335576581887,-0.04000351729723306
0,4.241093102856752,1.37073222897634,0.591355667000125,1.48030937120856,-0.03500307763507848
0,-9.218433099859102,-8.828638122782584,-10.888259311847523,-9.959813604132087,-0.03000263797292746
0,-3.3479582187138615,1.531992551827917,-1.397872954882357,-1.6099353597144739,-0.025002198310772883
0,11.012517754215763,10.022624260994991,11.572514742471983,9.219944113405674,-0.020001758648618306
0,-2.4870051730790355,-3.386742987166683,-6.977096215134926,-1.4001751757510386,-0.01500131898646373
0,-9.066526992756113,-5.556109184775599,-8.826705823152144,-3.500293218345525,-0.010000879324309153
0,14.383952303003152,13.054525675975523,16.563685923066785,8.739589994329748,-0.005000439662154577
0,-0.18556727800722905,0.07516160280017586,-0.025920971812921953,-5.290525529092503,0.0
0,-12.965085728199185,-8.244201396861058,-12.995526503393732,-7.5506397800302025,0.005000439662154577
0,-2.504603039942232,0.04643668434654896,-0.055130667310274904,0.9192472502787263,0.010000879324309153
0,6.4558807948068,4.587075853968191,5.0852665411477656,7.169135570881764,0.01500131898646373
0,-2.2636342156443847,-7.012283880321149,-7.764334873067174,3.9490251908102696,0.020001758648618306
0,-2.4531480630137406,0.23835748920422034,-2.683934904902392,2.318916118747037,0.025002198310772883
0,10.73733926091559,11.668999970337355,14.806466450829832,8.108808362944579,0.030002637972923907
0,8.2978277641547,6.1296435706836245,7.116869199169719,10.418701931169995,0.03500307763507848
0,-7.61168254576099,-4.82971170266013,-6.602726655403948,-5.071403169409208,0.04000351729723306
0,5.97880833830451,4.4309341569834775,9.237678891088082,6.178493067868254,0.045003956959387637
0,7.969300423302734,1.4215811561315554,2.438085842362824,2.4183906493805867,0.05000439662154221
0,-8.280206284041668,-5.307770698782759,-5.26150579811006,-2.03171041870611,0.05500483628369679
0,-3.409711777171743,3.5128785986513313,-1.3010960269983225,-1.0118101303780402,0.060005275945851366
0,9.830783950564339,8.363529054840335,10.239315159075737,6.718091520340045,0.06500571560800594
0,0.16128090585569488,-3.005819324002367,-1.540272236588992,4.40799453930465,0.07000615527016052
0,4.6017790951337005,10.354833467988119,8.090141788984223,8.987898932001858,0.0750065949323151
0,6.55227852445391,8.975487436254408,8.000557238341237,3.8978047033566448,0.08000703459446967
0,-7.087220800477319,-7.533857414289319,-6.649025886446924,-3.4122881422566835,0.08500747425662425
0,-4.166718874107562,-3.6132010790850595,-3.7286075836043207,-1.8623796007574975,0.09000791391877527
0,1.9637843092765541,4.66745644647801,3.2018121487150233,-0.10246966804418067,0.09500835358092985
0,1.2242887556178075,-3.8818848328184923,-2.997766687453347,-5.442558339852098,0.10000879324308443
0,-2.565205529082396,-5.101224912103814,-4.757344089957425,-2.402645611699559,0.105009232905239
0,2.055301461160329,8.019436213618473,8.753079943471535,3.2472685211464927,0.11000967256739358
0,25.075809732179348,25.9200985492441,25.793505414959355,21.32718406343114,0.11501011222954816
0,-5.4136807107896034,-6.189237901070473,-5.646067674147542,-0.16289898064591876,0.12001055189170273
0,0.25683013666923005,8.091426865822575,2.8643606764909886,1.1170193922687275,0.1250109915538573
0,12.287342278465104,18.13209285230914,16.03479046657252,9.706939184908972,0.13001143121601189
0,3.5778557181555932,-0.6972399399644745,-0.7047783047158657,5.20686039957394,0.13501187087816646
0,-5.211629541178819,-4.286571510131063,-4.094345638765905,-0.7132169619404701,0.14001231054032104
0,15.438886503143692,12.85409814223743,14.366088462660558,9.156707101689872,0.14501275020247562
0,3.609403853435382,3.3047690172996416,-1.3134760024709144,-2.4633674085787534,0.15001318986462664
0,-14.200077488451656,-13.104558885148245,-18.213039036472818,-13.78344049199496,0.15501362952678122
0,-2.529557520780311,4.16611443457683,1.8973993584975057,-0.5335121475971107,0.1600140691889358
0,7.790963758537571,4.046788976351227,6.527839180806533,4.086417626072256,0.16501450885109037
0,-8.128513648134078,-5.432535259867096,-5.071719570925182,-3.163651169239496,0.17001494851324495
0,-4.267989738343608,-0.4018582741547643,0.028723101872741297,-2.873718531742822,0.17501538817539952
0,4.542535490559462,1.1888199334884548,7.3191671977397545,2.9062155404233994,0.1800158278375541
0,-8.876937958525069,-8.000500636795165,-11.960387284807162,-3.9338489507694,0.18501626749970868
0,-3.196410082473444,0.8601800153258664,-4.609940347168753,-1.3439120032627108,0.19001670716186325
0,-2.785880877828034,3.210861890408107,-0.7094919903709842,-6.403973614835902,0.19501714682401783
0,-7.3853503407129395,-9.22845501085754,-10.349042214944332,-10.984033782918317,0.2000175864861724
0,-6.1648184668011075,-10.10777068758355,-9.038591020901174,-3.8840925043575565,0.20501802614832698
0,-2.1342852512458474,-1.3270851383744435,0.19186159238838402,-4.234149775315505,0.210018465810478
0,6.596249311234071,3.6836016387493777,3.90231562611243,0.5257944085942335,0.21501890547263258
0,1.0267852260255625,-4.335710353944667,-7.467228918314664,-3.2642599479187666,0.22001934513478716
0,-10.362677501597581,-7.795021114076798,-12.67677203931135,-7.0343128399150485,0.22501978479694174
0,17.097861133601384,17.425669360892776,12.143686265114939,10.985635737781482,0.2300202244590963
0,1.7684011367455676,-1.5936389265429245,-4.015854002693149,-2.6644142095711696,0.2350206641212509
0,-0.6710574874591778,1.467054025719605,1.834607159604176,4.505537323112382,0.24002110378340547
0,10.539485265226677,11.5177482193585,14.175069754143845,11.91549034060786,0.24502154344556004
0,14.240029398577136,12.338443655575595,11.695533782603203,11.695444847163035,0.2500219831077146
0,0.7405749156355653,1.6491403348154796,4.41599924580997,10.28540084614951,0.2550224227698692
0,1.731121818643809,-3.080161743238743,-0.12353385629858094,1.2753583399358206,0.26002286243202377
0,-5.388329890603795,-6.439462579220306,-1.233065524306865,-7.034682669830791,0.26502330209417835
0,-16.427780210249093,-18.058762173499055,-20.29259575882038,-12.294722181625179,0.27002374175632937
0,-12.387229137808948,-11.44806052563476,-12.802124559850999,-5.484760193426109,0.27502418141848395
0,1.0133233302165947,1.6826423659166803,3.5983480736511466,0.8652032975285944,0.2800246210806385
0,-12.706122801734672,-14.096653496359147,-11.211177856314023,-7.694831705430527,0.2850250607427931
0,-9.185567528495291,-10.6859481092404,-10.850702347103779,-6.054865198571857,0.2900255004049477
0,2.8949891558234,0.24475853129659048,3.069774604570118,-0.48489717771998714,0.29502594006710225
0,-3.6744527422988242,-8.4445335699552,-8.21974699738134,-7.664927638237745,0.30002637972925683
0,-10.363893216035125,-12.603824407583838,-13.079267148547075,-8.234956575039133,0.3050268193914114
0,0.5566677418105699,-0.26311397550084137,-2.8187858438888007,-4.934983982478924,0.310027259053566
0,-1.8627698611179713,-2.852402266929463,-0.9083030776346424,-8.735009854248112,0.31502769871572056
0,-9.2022060168205,-6.54168927461583,-8.747818843466124,-6.5850341833574015,0.32002813837787514
0,0.9783592830382097,3.4390250090197063,5.082666865299159,0.06494303783185223,0.3250285780400297
0,3.588926047126367,4.459740591755645,4.743154055549316,-3.3750781825394354,0.33002901770218074
0,-1.0205057157696042,2.1804574812999356,-1.9063572658980463,2.154902163949898,0.3350294573643353
0,-5.619935996902874,-0.7988243148942391,-6.1658670923855015,-0.5751159141661729,0.3400298970264899
0,11.030635212486931,11.681895210364523,14.014624582732464,9.584867591605063,0.34503033668864447
0,8.171207921049984,2.6726160639168124,6.665117765962491,6.55485268947207,0.35003077635079904
0,0.6417821369739372,4.833338252087756,2.585612463282784,9.714839387075314,0.3550312160129536
0,3.4023578678768223,7.914061780658962,12.336108679986227,9.53482769129127,0.3600316556751082
0,13.872935120920129,15.634786654812043,14.316606420636118,12.93481760811264,0.3650320953372628
0,2.6935139027213744,4.075512878899524,5.397105688860217,9.324809142535564,0.37003253499941735
0,0.2040942192376673,4.0362404563568175,-2.062393512671904,7.734802298518187,0.3750329746615719
0,12.444676075888335,15.276969389850752,16.64810881803749,16.184797079018104,0.3800334143237265
0,2.9452594776144836,3.397699681313308,5.068612682406305,9.114793485954891,0.3850338539858811
0,6.055844428772581,1.7284313319016014,6.299118081100232,13.004791520110672,0.3900342936480321
0,6.816430933118026,6.269164342172393,10.099625013991819,3.674791181154297,0.3950347333101867
0,6.09701899383465,3.4798987122693137,5.120133480221706,10.124792467807953,0.40003517297234126
0,-4.372391386430277,-4.199365558014843,-5.779356521712171,2.1147953780279645,0.40503561263449583
0,7.248199794607713,7.901371530876834,5.961155006321334,5.694799909145975,0.4100360522966504
0,3.2587925390061008,2.7921099783218404,5.481668062299565,0.6448060580048328,0.415036491958805
0,-2.230613151438545,-5.787150216542286,-2.587817356025817,3.104813821091627,0.42003693162095956
0,1.069982724849123,2.8335909452766197,1.642698748839401,5.684823194608106,0.42503737128311414
0,1.5505801693666685,1.294333462789304,5.3932163742415815,-0.7451658255416691,0.4300378109452687
0,-2.858820816412794,-3.3749226649838326,-2.7462644826180496,-1.9651532437107146,0.4350382506074233
0,-7.328220230971556,-10.854177438955944,-8.405743824641325,-4.955139064304148,0.44003869026957787
0,-1.4376180725440266,0.6865691402951392,-1.7652216545558477,-2.7151232915345638,0.44503912993173245
0,2.4829856609827257,-2.8826829273367878,-1.0846979746984364,-1.4951059293059423,0.450039569593887
0,-9.506409028032278,-8.901933641573908,-11.324172787024557,-5.545086981220285,0.45504000925603805
0,-2.935802136991808,-0.8711830017619077,-7.443646093035023,-3.345066450573277,0.4600404489181926
0,4.874806337038454,1.5995689931567414,3.256882106381882,2.6949556596599242,0.4650408885803472
0,-5.144583602770475,-6.089677655496779,-6.192588189149754,3.6049793466829216,0.4700413282425018
0,-2.1539719531583157,-2.448922946220535,-1.762056979712869,1.4950046076192052,0.47504176790465635
0,7.226641289231205,5.551833122701699,4.968475734814375,5.305031439346615,0.48004220756681093
0,-5.492743872214455,-4.227409446894923,-6.890990045329807,0.5350598384517269,0.4850426472289655
0,0.14787256584537795,-2.406650653164331,-0.8004543198353766,-1.7049101987336672,0.4900430868911201
0,7.76849060673793,5.624109505798495,5.950082911732326,1.6951213239955936,0.49504352655327466
0,4.659110253657194,-1.915128968069818,2.640621649813843,2.595154402804526,0.5000439662154292
0,-3.4902684905486407,-3.9643660728829877,-7.598838105324193,-3.3648109662082155,0.5050444058775838
0,0.91035437668729,0.9163981932841759,5.281703646501139,0.8652252130070025,0.5100448455397384
0,6.400978857837875,1.2871638324833756,4.442246905494333,2.0352629365157346,0.515045285201893
0,-5.13839504472507,-10.092069153128438,-7.307208328228008,-2.7646977996146553,0.5200457248640475
0,-3.2677673287200153,-6.871300761151936,-5.586662054581639,1.6453430006655796,0.5250461645262021
0,7.922862008192278,4.409469011283929,9.283885726723435,3.9953853333879485,0.5300466041883567
0,-4.616507031607603,-8.829759832513695,-8.095564983844314,-5.634570805484196,0.5350470438505113
0,-3.9558744457819177,-8.388987288904463,-4.74501418574905,-7.544525419973532,0.5400474835126658
0,0.044759768099212255,-0.5482133537833423,4.985538121733729,-4.494478513793143,0.5450479231748133
0,3.635395612651132,-4.907438022507041,-0.403908060476316,-3.4044300901374593,0.5500483628369679
0,-4.02396690945236,-3.746661290012568,-9.243352731410571,-0.9043801517302843,0.5550488024991225
0,5.376672204418204,4.364116849072271,5.077204110015725,1.8056712989953423,0.560049242161277
0,10.997312956752586,15.174896400180067,12.237762465006607,9.085724259650412,0.5650496818234316
0,2.877955349634809,1.6856773683256332,2.048322334497378,6.755778727560308,0.5700501214855862
0,-4.071400615405102,-1.35354024214705,-1.3311162811325117,-6.854165300442735,0.5750505611477408
0,5.919245062821096,10.477243572617638,5.4394466180917265,0.5158921721582863,0.5800510008098954
0,3.169892385349145,2.248028816122356,1.2500110319291518,3.0159511418799596,0.5850514404720499
0,-11.989458646923387,-6.551184508505026,-9.7394230400111,-7.803988394680118,0.5900518801342045
0,8.191191966907713,15.199603601601522,10.481144401883428,7.986073559136107,0.5950523197963591
0,5.471844227838758,6.150393149020905,6.89171335722018,4.296136999974483,0.6000527594585137
0,0.7924981367009427,3.741184135750352,2.8922838252679846,8.086201924207014,0.6050531991206682
0,2.7931536939635215,4.6119765631127665,5.092855804746494,5.316268327672507,0.6100536387828228
0,8.273810899764669,8.722770431886786,10.933429293847501,8.066336205582576,0.6150540784449774
0,-3.5255302460916953,-4.666434257630078,-4.5459957097744,-0.5635944474614387,0.620054518107132
0,1.545130255899379,1.9643624945077398,-0.17541920889358048,0.10647636268154448,0.6250549577692865
0,16.65579240501453,9.805160688068344,13.615158793505653,9.586548629883431,0.6300553974314411
0,-0.40354379989400835,0.30596032256746103,1.0157382941517286,2.2666223477295935,0.6350558370935957
0,-14.842878360498371,-7.553238602817586,-10.673680710651933,-7.213302490555215,0.6400562767557503
0,-1.7522112784985933,-2.6924360889713803,2.8769017752727697,-6.663225891846904,0.6450567164179049
0,3.158457444878919,0.7283678634913284,0.9974857483102514,-2.8131478626920763,0.6500571560800594
0,-12.01087219116755,-14.180826745694949,-14.3019287949439,-8.793068409110036,0.655057595742214
0,-1.610200187120472,-0.09001991636499587,-4.321341857560719,0.4370124634003368,0.6600580354043686
0,-1.6395265430400034,-3.189211647815466,-3.81075344200244,-3.002905250221943,0.665058475066516
0,-13.888851258530082,-17.07840193881689,-16.480163550037922,-8.632821554696866,0.6700589147286706
0,-7.638174332637527,-3.2675907874991443,-3.1395721826841814,0.7872635456135966,0.6750593543908252
0,10.062504236272375,11.363221808720551,13.68102065975622,9.307350046657437,0.6800597940529798
0,-7.436815549737788,-9.83596414723802,-7.918385022765419,-5.742562055609301,0.6850602337151344
0,-7.816133688474048,-3.90514865242217,-6.647789230387029,0.08752723460217948,0.6900606733772889
0,10.344549822458417,8.285668296267483,12.572808036813907,7.577617913010696,0.6950611130394435
0,4.885234985577264,3.386486702020425,6.353406778767153,3.9377099752065443,0.7000615527015981
0,-7.834078196812152,-11.25269343213468,-10.16599300493923,-6.16219658352232,0.7050619923637527
0,6.396610277363572,9.808127896742878,9.334608684975576,7.967898231884729,0.7100624320259072
0,10.937300410060054,3.8589506916096665,6.385211847666514,2.9079944163596045,0.7150628716880618
0,7.537992202848117,4.479774955196512,3.46581648197964,7.768091964551183,0.7200633113502164
0,6.468685656568111,8.020600689764677,8.92642258622359,6.888190870614469,0.725063751012371
0,8.90938077126779,12.231427896988125,11.16703015808284,4.82829112810425,0.7300641906745255
0,9.950077546230725,5.542256577784123,7.757639194473204,7.80839272995171,0.7350646303366801
0,-5.909224019994177,-0.9469132677288776,-6.241750308486701,-4.971504331463274,0.7400650699988347
0,5.101476070634831,8.793918359987865,8.128861644814524,4.278599935889471,0.7450655096609893
0,0.6421778159501857,0.6147514600805002,0.41947504975896055,-1.5012944760929088,0.7500659493231439
0,-10.46711878626986,-12.114413968577976,-14.019910098388433,-7.381187575514511,0.7550663889852984
0,-6.366413738065581,-4.083577927025836,-6.169293804158995,-7.571079370272681,0.760066828647453
0,-4.235707040960727,-7.392740415782417,-5.498676071447869,-9.340969867743395,0.7650672683096076
0,-5.424998695859197,-6.031901434709874,-5.06805690342133,-1.0608590746032287,0.7700677079717622
0,3.125711296821614,5.50893901688587,6.832563697272844,4.309253003041344,0.7750681476339167
0,0.3964229369256105,-3.1802190599905145,0.44318572817420243,-1.9406336406969533,0.7800685872960713
0,-2.7728637756518677,-7.919375664218038,-4.816190813251975,-1.200519011725524,0.7850690269582188
0,-6.042148840969146,-5.718530794429298,-8.33556592952382,-1.3904031159416739,0.7900694666203734
0,-3.3014322588442826,-0.5976844487808738,1.1650603771597723,-2.430285959129179,0.7950699062825279
0,5.859285971234749,1.2831633749987792,1.4256881049820513,0.5798324530756864,0.8000703459446825
0,-9.809994150018222,-13.095987320561434,-17.033682747615142,-8.010047884798775,0.8050707856068371
0,1.030727378246465,0.8048634673844287,2.1669478181821282,0.14007302201643917,0.8100712252689917
0,-0.528549442907616,1.1657157421058246,1.1075798017085183,-2.5198048314045,0.8150716649311462
0,-1.6378246122283584,-1.6734304928639265,-2.941786797383283,3.1003185502415156,0.8200721045933008
0,-0.1470981283693284,5.887424766031049,3.0488480206229114,3.800443162296333,0.8250725442554554
0,8.39363001003515,7.168281522186951,8.049484255387327,3.93056899993259,0.83007298391761
0,2.4743598041793415,3.4091397786236817,0.1101219063270961,2.4706960580131763,0.8350734235797646
0,5.425091254871757,10.15999953782115,5.23076097247431,9.600824331027374,0.8400738632419191
0,-3.3341756374852376,-3.8791391982996086,-2.928598547466979,-5.319046186946093,0.8450743029040737
0,-3.693440872694808,-10.078276428159064,-4.077956654939422,-6.8889155020917885,0.8500747425662283
0,-11.522704450425682,-21.957412149925755,-17.617313351200092,-11.428783620411508,0.8550751822283829
0,-2.1619663698697122,-5.246546360800275,-2.606668636872734,-5.488650547272582,0.8600756218905374
0,-2.281226629620967,-1.4256790567759188,-3.0160225117387816,-5.01851628726052,0.865076061552692
0,-5.790485227800515,-8.004810232974776,-10.98537497488993,-3.6183808442958285,0.8700765012148466
0,-1.3597421621741248,-3.923939883986275,-5.344726024837194,2.0617557781631115,0.8750769408770012
0,-0.5989974301908362,-2.653068003929704,1.0659243405226937,-0.9181064230989059,0.8800773805391557
0,0.8717489709144423,-1.6621945865021777,-1.8634238762402178,-0.007967451231313316,0.8850778202013103
0,-16.767502955922293,-11.891319625046812,-15.532770672258124,-14.017827309292663,0.8900782598634649
0,4.9332467926048045,2.6695568875157107,7.027883955746934,-3.637685999967873,0.8950786995256195
0,1.7939982202649676,1.0004349586846042,-0.8514599885066317,-2.8875435253178914,0.900079139187774
0,-8.875248668939545,-6.728685403821975,-9.980802501086142,-6.837399886817412,0.9050795788499215
0,-0.2644938708719673,1.5821958078391625,1.9998564221265487,1.0527449144983818,0.9100800185120761
0,6.346262618822773,6.353078601639056,5.170516785511914,2.1328908778978963,0.9150804581742307
0,-11.41297919537087,-11.226037014437662,-11.09882140643274,-7.756961997209541,0.9200808978363852
0,-6.372219308822549,-1.515151032353128,-3.1781581490972646,-3.9768137112634028,0.9250813374985398
0,6.448542283477293,6.065736556175802,6.092506562436161,0.11333573561797694,0.9300817771606944
0,-3.1206944131268526,-1.1133742404183002,-2.606827266692357,-0.536513656362044,0.935082216822849
0,2.700070606757393,7.187516586164133,4.713840368614676,4.253638113127001,0.9400826564850036
0,8.430837348401436,10.808409043883763,10.764509473240363,3.463791044331945,0.9450830961471581
0,7.711605816762614,4.849303140136506,7.995180051611512,2.1639451372590908,0.9500835358093127
0,-5.4476239837113605,-3.3398011183428413,-10.614147892467548,0.644100391631284,0.9550839754714673
0,1.803147951045681,6.001096274741293,5.906525644447344,5.414256806933425,0.9600844151336219
0,5.353921624983168,1.121995325469961,6.99720066574115,-0.7255856175743379,0.9650848547957764
0,-3.6053029580380005,0.872896039723552,-1.012122825371142,5.864573117123484,0.970085294457931
0,1.2054742057171197,2.3937984231803267,0.038555174014973104,4.604733009762253,0.9750857341200856
0,12.646253119867778,14.304702481277205,17.509234666526957,7.3248940586910924,0.9800861737822402
0,-0.9829662122580698,1.2056082189798982,0.5699156543433761,-0.584943738222302,0.9850866134443947
0,-0.9521837877718009,0.6365156406348664,-3.5894018609838745,2.3352196164743986,0.9900870531065493
0,-3.1013996040220446,-2.042575249821659,-4.408717878236094,-5.404615879975504,0.9950874927687039
0,-0.6506136582966158,-2.7216644485267594,-4.908032396046426,-3.0244502302943155,1.0000879324308585
0,-5.229825947692731,-4.000751951474916,-7.697345412636993,1.2157165630060147,1.005088372093013
0,0.5109635309212828,1.3801622455732996,1.4933430742571232,-6.734115502347197,1.0100888117551676
0,0.40175478088844757,2.701078147032589,-0.18596693270682743,-6.443946428361249,1.0150892514173222
0,-3.6774521943232785,-4.998004242654535,-8.165275430654733,-3.753776216628878,1.0200896910794768
0,5.453342608815326,5.942915080932343,5.005417583473305,3.796395131717466,1.0250901307416243
0,16.09413919372412,15.613836122081924,20.256112112785722,11.44656761571823,1.0300905704037788
0,1.114937563312157,-3.4852411153873377,-0.8631918400800705,2.7067412341105945,1.0350910100659334
0,0.7357377197584185,1.1156833717358454,-2.632494273261631,4.076915985053299,1.040091449728088
0,13.736539664674407,15.246609586253818,17.68820481456755,13.20709186612464,1.0450918893902426
0,10.027343399124447,13.387537530465442,13.33890542421602,10.927268874230247,1.0500923290523971
0,-6.291851076559973,-4.901532794189809,-2.260392444395493,-2.5225529945732137,1.0550927687145517
0,-2.251043762585496,-2.150601387006816,1.0803112077999644,-2.39237374489865,1.0600932083767063
0,-0.86023465919655,-2.569668247452471,0.9210163794879489,-5.7621933815200235,1.0650936480388609
0,-3.119423766423455,-4.12873337478959,-0.6582769307305654,3.6279880909892546,1.0700940877010154
0,-9.918611084035527,-7.037796767961113,-10.587568724219791,-8.371829331697532,1.07509452736317
0,5.2822033885559545,4.22314157446179,8.813140997854951,0.20835434631790173,1.0800949670253246
0,-1.1469803477388179,-2.94591834580357,-3.6861477654666803,-2.9214608788009344,1.0850954066874792
0,-1.7261622919030388,-5.0149765268951665,-5.625435015080836,-2.9012750106275305,1.0900958463496337
0,1.6146575570856194,6.525967033178451,4.5052792482101065,-0.041088052511868256,1.0950962860117883
0,2.1454792002558003,2.7169123364631744,-1.8340049762530977,1.0290999923666595,1.100096725673943
0,-5.973697361389335,1.1878593848328074,0.056712310909662764,2.689289120877168,1.1050971653360975
0,-0.8728721268031723,0.6388081799007546,1.7474311090576495,-1.2705206701879115,1.110097604998252
0,-0.9920450947557089,3.1397587230965067,0.13815141752223137,-3.3603293841077946,1.1150980446604066
0,-0.13121626382766588,-0.819288984290552,-3.1911267644033687,0.5698629758913216,1.1200984843225612
0,-13.50038563242061,-13.388334941007505,-15.6604034373008,-13.409943593211693,1.1250989239847158
0,-0.7795531985680234,-1.5973791455157105,-2.3196786012535964,-8.88974909398851,1.1300993636468704
0,-9.148718959726702,-9.32642159569101,-14.24895225555325,-12.229553528223455,1.135099803309025
0,-17.207882912667547,-16.9654622886895,-18.138224398548218,-12.449356896679404,1.1401002429711795
0,1.6629549466823381,1.2254987791994394,1.062504972520685,-2.7691591990543585,1.145100682633327
0,4.913794623182365,-0.0435383874866121,-1.4367641385811176,1.7710395658170317,1.1501011222954816
0,-15.635363877919312,-16.05257378368594,-17.236031727458194,-11.478760600394356,1.1551015619576361
0,-2.4645205510935337,1.0983925961223737,1.9447022108294814,-1.4285596956508506,1.1601020016197907
0,3.406324609669609,4.189360757986789,0.9754376818269817,0.8016422825081316,1.1651024412819453
0,-1.2128283892553258,-3.179669291775669,-2.1138253085740883,4.391845336817857,1.1701028809440999
0,0.8780204585616993,-2.3486975468380322,0.7069132455867757,3.4920494699607736,1.1751033206062544
0,11.07887115943835,3.6122759991684656,7.897653350246606,3.452254684342022,1.180103760268409
0,-2.350276280587125,-7.806748647289149,-6.971604988787744,-0.3875390179543676,1.1851041999305636
0,-2.5894218558213353,2.8042285203732424,-0.03086176583235463,6.2426683648891945,1.1901046395927182
0,2.22143443928898,5.505207508849763,9.389883024798237,3.4728768344259477,1.1951050792548727
0,3.5022926103057572,4.186188324740114,1.710629388673473,3.963086391860815,1.2001055189170273
0,-1.9368473372857957,1.3871709743125002,-5.508622668945412,4.173297038000282,1.205105958579182
0,-2.4159853981055286,0.13815546349581456,-0.347873142951597,-0.7764912267134116,1.2101063982413365
0,16.444878433158063,13.839141797945686,16.51287797177192,12.773721597833022,1.215106837903491
0,-1.5042558384612053,-6.289870017045839,-6.946369319881256,-6.456064488616315,1.2201072775656456
0,1.6966117915668524,5.211120023417891,1.474384986581463,1.944150513355007,1.2251077172278002
0,10.3874813273371,12.01211192392525,14.505140895382247,4.734366603016699,1.2301081568899548
0,3.488352772544715,2.763105688633702,1.4858984103955897,4.824583779502256,1.2351085965521094
0,1.6492261303782896,2.9141013210885487,2.0566575349241076,5.234802041614841,1.240109036214264
0,12.600101403518707,15.755098824242705,19.097418271687413,13.345021387645513,1.2451094758764185
0,6.310978594093205,4.046098200394072,2.418180622725611,8.905241815168605,1.250109915538573
0,-9.508142296388232,-8.732900548867917,-11.461055410666802,-6.764536679061554,1.2551103552007277
0,-4.467261266704574,-3.3018974222706956,-2.300289827468373,-4.49431409878068,1.2601107948628822
0,4.073621684566423,-1.9108924183245408,0.9704773736360743,-5.434090447632986,1.2651112345250368
0,-3.025493440877978,-9.39988553512777,-3.618753805691582,-7.583865728809487,1.2701116741871843
0,-1.4246066412396943,-8.668876770293723,-3.9179833635867887,-5.233639944935517,1.2751121138493389
0,4.936282085322168,8.222133879135674,1.0327887020262083,-1.2034130980649131,1.2801125535114934
0,11.367172740559996,9.553146416417064,6.433562393384461,9.706814810127641,1.285112993173648
0,-1.2419346741700013,-4.135839155432116,-3.0556622873334582,2.017043777936379,1.2901134328358026
0,10.048959841930161,8.485177166157792,10.81511466182348,7.347273803268284,1.2951138724979572
0,6.55985628911284,4.266195383392567,7.355893242446509,3.4475048835276816,1.3001143121601118
0,1.3707546670560984,0.5272154981035698,0.7166734555838439,4.027737015633825,1.3051147518222663
0,4.451654974900579,8.498237511719882,8.077455301703402,0.6379701960868615,1.310115191484421
0,19.08255721129134,18.68926142517539,20.45823878068079,8.428204421044288,1.3151156311465755
0,4.233461374147385,6.590287238559349,2.529023891520635,3.3384396862956294,1.32011607080873
0,8.754367460417143,11.301314950839009,6.719810632176896,4.088675987176316,1.3251165104708846
0,31.995275465994883,35.112344559745026,35.10059899958619,20.928913318463707,1.3301169501330392
0,20.046185385334383,18.7333760613513,14.911388989308021,12.66915167406638,1.3351173897951938
0,16.247097210894704,18.714409449564446,13.592180594994904,7.659391046653384,1.3401178294573484
0,20.478010933050022,29.795444716045356,30.992973808339137,17.079631427605918,1.345118269119503
0,30.20892654021511,32.33648185017889,33.10376861900353,23.00987280703341,1.3501187087816575
0,13.039844018724272,17.67752083879679,9.114565014235197,7.1301151735540165,1.355119148443812
0,24.380763352744776,24.89856166612793,25.74536297885596,20.590358514183812,1.3601195881059667
0,14.68168452442382,17.009604314076533,16.196162495634255,7.720602814465661,1.3651200277681212
0,5.102607514128477,6.8606487625541455,4.136963545554895,5.850848058652951,1.3701204674302758
0,-1.1064676991019269,0.391694989967703,-0.22223389177063813,2.0310942300173505,1.3751209070924304
0,16.16445886300888,14.78274297380787,19.058570162455965,9.01134131119912,1.380121346754585
0,2.7853871781530355,2.6737926909041096,1.2793756863704102,1.2715892843476397,1.3851217864167396
0,4.906317223330118,3.574844117407969,7.210182657316766,6.0818381311300715,1.390122226078887
0,4.7472489749032025,4.9258972288937555,8.390991051903383,1.9720878327751676,1.3951226657410416
0,2.958182408755878,-5.87304799943421,3.111800846104602,-0.917661629838723,1.4001231054031962
0,-16.420882499510117,-18.461991592399325,-21.107387984542438,-11.687410275967649,1.4051235450653508
0,-11.129945774078452,-10.080933574241065,-10.256575464285895,-7.357158124589765,1.4101239847275053
0,-5.799007438328456,-6.469873968126879,-0.5057616164771213,-3.4469051940458346,1.41512442438966
0,-7.638067514662463,-7.34881279616822,-12.124946463511472,-3.4566515020126793,1.4201248640518145
0,-8.307126024663946,-9.81775007964374,-6.21413002705447,-7.156397065663139,1.425125303713969
0,3.8038170107512177,4.033314160870239,1.9466876718854476,0.4538580982564541,1.4301257433761236
0,-4.965238428870931,-5.195620094692754,-13.162493387142032,-7.795886026597261,1.4351261830382782
0,-7.364292363708482,-8.934552866081319,-8.381673224061574,-6.125629456161742,1.4401266227004328
0,-3.763344813597988,-1.7934841726645825,1.2391481418698334,-5.975372205871615,1.4451270623625874
0,-11.83239579784598,-9.2024140332833,-11.22002930795173,-14.975114290513988,1.450127502024742
0,-16.78144533502074,-17.561342466132793,-20.319205591494217,-10.99485572402942,1.4551279416868965
0,-6.5004934426745065,-5.45026948851296,-1.9783807257881296,-3.754596519338061,1.460128381349051
0,0.9704598627174729,0.6708048832809831,4.412445273165329,3.5056633115127287,1.4651288210112057
0,-11.568585434555494,-11.288119366310664,-16.646727610005584,-5.074076243082829,1.4701292606733602
0,-13.157629349616744,-12.32704225228265,-11.09589939018945,-6.393815194537694,1.4751297003355148
0,-3.596671896808914,-2.565963788884601,-1.635070081481437,-1.113553553979514,1.4801301399976694
0,-1.3257130896230827,-2.3348839895685867,-1.784239697142656,3.1467086678077973,1.485130579659824
0,-12.50475294091891,-8.723802867213863,-13.69340824987568,-7.433028539763771,1.4901310193219786
0,-5.023791463005344,0.627279565731548,-0.40257575187514716,-3.572765187128361,1.4951314589841331
0,-2.172828667544713,-6.35163670276529,-3.2117422147521917,-2.8825012844139106,1.5001318986462877
0,-13.431864565568272,-20.68055168425366,-18.10090764957085,-13.352236841304503,1.5051323383084423
0,-4.730899167473896,-2.5894653894932613,-0.8400720667386836,2.1780281330652436,1.5101327779705898
0,-6.9999324829274485,-7.878377828226679,-7.429235475855521,-4.641706369884416,1.5151332176327443
0,-10.348964520847892,-10.797289009301512,-15.31839788575631,-3.541440358335453,1.520133657294899
0,-11.03799528938276,-5.856198940790817,-7.90755930445253,0.7488261598096337,1.5251340969570535
0,-2.4170247958182607,-4.225107629996494,-1.8067197390064869,-3.9409068231167588,1.530134536619208
0,0.3039469533141402,-2.544015083577829,-3.8258791957062472,-2.400639314584492,1.5351349762813626
0,-3.5950800480828327,-1.2429213077616386,-7.575037680348685,1.0796286781357374,1.5401354159435172
0,10.06589419403498,13.368173691405715,15.055804801594112,12.069897147852561,1.5451358556056718
0,2.036869673593287,-4.170730092289428,-1.5233517553266174,-2.349833912861997,1.5501362952678264
0,-10.012153615753455,-12.989632665322489,-15.062507356772846,-10.989564511764353,1.555136734929981
0,0.3688243195933915,-0.3885340340160728,1.1783379916880956,-0.3992946565555344,1.5601371745921355
0,3.409803473457476,-5.347434204155713,1.6591842849458194,-5.679024354507112,1.56513761425429
0,-0.389216160200219,-8.326333180990359,0.3600315181801825,1.501246387535037,1.5701380539164447
0,-11.728234587410087,-9.835230969222492,-9.969120313374486,-4.458482437000328,1.5751384935785993
0,8.632748185958889,7.4058724270764955,9.26172878564183,4.601789165482026,1.5801389332407538
0,-3.63626784573301,-3.06302299573131,-7.347421189246471,-2.447938811358977,1.5851393729029084
0,-11.235282687995511,-10.2719172411278,-11.70657024236247,-6.647666373832968,1.590139812565063
0,-3.664296346049281,-4.920810312322834,-3.1457183776215194,-5.867393528047486,1.5951402522272176
0,-6.9733088245360175,-7.129702211958604,-6.644865598271725,-11.117120279625073,1.6001406918893721
0,-14.652320127409396,-16.498592941954424,-17.934011906845463,-15.486846633432135,1.6051411315515267
0,-4.631330257825271,-5.347482503352603,-4.963157305017611,-7.286572593324127,1.6101415712136813
0,5.7596607818651355,0.8836291037355662,5.92769820645794,5.623701837858851,1.6151420108758359
0,-15.709347010165398,-16.165258120083458,-16.791445372556467,-7.446023342103921,1.6201424505379904
0,-5.418353635336853,-5.0641441735807495,-3.380588041755417,-2.1757481351722734,1.625142890200145
0,1.5426409055151653,-5.373029054769599,1.3202701997400361,-0.2854725430719268,1.6301433298622925
0,-3.096363387918256,-2.521912760943895,-1.1188706467203213,2.4248034326901626,1.635143769524447
0,-1.7553665156891396,-2.5807952889024586,-1.668010579612827,7.965079790608244,1.6401442091866016
0,-5.294368477665352,-9.659676635068351,-3.687149597321478,-10.664643471020865,1.6451446488487562
0,-1.0333692734498416,-3.7185567954187646,-5.346287698027833,-6.764366353947687,1.6501450885109108
0,-4.242368902339214,-5.367435765376285,-4.6254248795730035,-0.7740888595725034,1.6551455281730654
0,-4.211367363324318,-7.10631353980308,-4.124561139364935,-3.7238109887957607,1.66014596783522
0,1.3796353449108967,-2.605190113026683,-1.9636964743778222,-0.7835327421645055,1.6651464074973745
0,-6.4193607760482445,-9.914065478837765,-9.412830881184783,-5.703254119975937,1.670146847159529
0,-7.618355724336662,-6.692939630444415,-5.771964355894157,-6.522975122224624,1.6751472868216837
0,3.602650502301862,3.8581874395539186,6.83890310590134,-1.0426957484898605,1.6801477264838383
0,8.873657906407189,11.049315738898352,8.339771508843677,8.777584002002946,1.6851481661459928
0,-5.035333509572706,-1.2295547248490162,-3.6593591426579577,-2.5021358699384857,1.6901486058081474
0,9.485676256509057,12.681576055369437,13.211511155378409,1.0581446362925486,1.695149045470302
0,12.236687206440385,11.222708085987062,12.122382406427917,10.288425521098329,1.7001494851324566
0,-8.702300658514302,-2.996158627319089,-6.636745386733053,-6.101293215363436,1.7051499247946111
0,-1.8012873375145528,-0.10502407950909184,0.884127778085553,-3.341011573152445,1.7101503644567657
0,7.35972717024084,7.396111734173205,4.525001902891791,3.0692704477001387,1.7151508041189203
0,6.1107428655402,5.157248818280874,5.765876989603526,6.0695528472594455,1.7201512437810749
0,-7.078240251106065,-4.961612822977693,-7.133246960104204,-9.260164374494439,1.7251516834432294
0,-3.9172221793827564,-4.270473185614954,-0.5723699447058497,-4.449881217604919,1.730152123105384
0,-4.956202918783891,-9.239332265472994,-11.141491962501293,-7.409597681790196,1.7351525627675386
0,-3.565182468383334,-5.5881900578890775,-8.610613011307207,-3.3393137662165713,1.7401530024296932
0,0.3358391731496486,-1.2570465575850143,1.5602669117243821,-2.359029469519275,1.7451534420918478
0,0.09686200741189348,-0.7059017587927291,-2.5188521899919736,-3.4287447899256938,1.7501538817539952
0,-6.602113963857336,-8.474755655436969,-7.217970312715874,-4.308459725340889,1.7551543214161498
0,-5.441088738714915,-3.323608241125471,-3.347087452404336,-3.8781742733383555,1.7601547610783044
0,-4.160062314823011,-1.9824595090387505,-4.366203604590905,-4.707888431113253,1.765155200740459
0,-3.4590346893626767,-5.781309451941399,-4.935318764359179,4.872397804491713,1.7701556404026135
0,-5.168005859074496,-2.4701580622376795,-0.63443292638381,2.032684436795438,1.775156080064768
0,7.053024179644674,5.6909946679736585,6.446453914943573,5.252971468995633,1.7801565197269227
0,-6.595944569435291,-8.267851253251164,-9.88265823469527,-10.546741095937973,1.7851569593890773
0,1.2950878974976265,0.6333041822286345,-0.01176936956808447,-0.9064532550443065,1.7901573990512318
0,3.6661215843017985,6.054460982680034,7.119120516222379,1.0838349948981076,1.7951578387133864
0,6.2571564947790375,5.485619156333205,3.8100114285785653,5.764123657307247,1.800158278375541
0,-4.721807367517904,-6.643221288861409,-7.60909662684305,-4.755587264463645,1.8051587180376956
0,1.2492300007455301,1.947939654844737,3.8017963554635616,-2.2652977671631445,1.8101591576998501
0,6.030268602834132,5.449101995192117,6.062690381016879,4.414992152515198,1.8151595973620047
0,-6.118691558065099,-4.129734260129455,-6.366414544750332,0.635282497929907,1.8201600370241593
0,-3.287650478818503,-3.9785691035109987,-7.2055184164739865,-8.074426727603946,1.8251604766863139
0,-0.3566081561411572,0.4425974727564644,2.835378771429724,-5.734135520656687,1.8301609163484684
0,4.714435413464633,0.17376547658337987,1.096277024850444,2.3661561225791896,1.835161356010623
0,-5.784519766453105,-3.955065083994655,-5.722823650203433,-0.8735517937388921,1.8401617956727776
0,2.736526307634577,6.806105799120053,7.898076752302414,3.3667407346496434,1.8451622353349322
0,7.297573639244169,10.777278133931825,8.368978238324331,5.807033711897214,1.8501626749970868
0,-1.9413777682616897,2.8084519280115163,0.9198808134532077,2.6773271418824103,1.8551631146592413
0,7.869672088181108,10.349627188263508,10.780784482728787,6.147621028092422,1.860163554321396
0,12.800723211243877,15.03080392084208,17.351689250537213,10.24791537354261,1.8651639939835505
0,8.161775602951433,8.341982130972575,7.0425951203319865,11.358210180604518,1.870164433645698
0,8.95282926442869,14.663161822770162,10.433502094429727,9.868505450772641,1.8751648733078525
0,11.663884195852566,19.594342999139148,18.074410174037254,11.458801184529541,1.880165312970007
0,5.104940396482362,2.355525661662893,0.95531935925732,5.95909738134294,1.8851657526321617
0,-5.744002135206539,-3.743290189234327,-3.9237703507639576,-2.6806059601762593,1.8901661922943163
0,9.427056598818885,9.757895446251638,13.427141042594933,5.309691158058995,1.8951666319564708
0,0.9581165963708115,-1.0409174323465586,-3.151946462342666,-3.5500112660889225,1.9001670716186254
0,-8.12082214494798,-9.01972882569525,-11.16103286750889,-11.539713234765857,1.90516751128078
0,-3.6297596275445536,-9.088538734363098,-5.950118174716161,-10.919414749753473,1.9101679509429346
0,2.7213041464619656,2.5626528415826035,2.0507976147582383,-1.5091158120826864,1.9151683906050891
0,0.06236917520995308,-3.5961540974078616,-6.068285499867481,-2.0388164220337464,1.9201688302672437
0,-13.016564543045828,-9.264959550557771,-9.997367519028705,-8.978516579391297,1.9251692699293983
0,5.514502990186377,8.446236483208398,5.373551557257954,2.0117837164441403,1.9301697095915529
0,-2.894428226261019,-3.7025659948069864,-2.8355282706372456,-3.6879155335677196,1.9351701492537075
0,-5.363358193337346,-1.8413669832612494,-4.834607002161256,-0.0676143282193344,1.940170588915862
0,11.237713088121193,12.539833519143187,13.866315363305528,12.402687333763343,1.9451710285780166
0,-0.8512143827575511,-0.21896448649426165,-1.8127611737307703,-3.4770105465464964,1.9501714682401712
0,-2.5201406070718733,-0.9977609994536565,-5.021836613060995,-2.5167079684045652,1.9551719079023258
0,-0.029065586068172944,2.383443980708838,0.6490890454006945,-2.6864049311635863,1.9601723475644803
0,7.78201067900444,12.604650454267416,9.190015801811077,5.6138985659560685,1.965172787226635
0,-7.076911813181576,-4.484141578844321,-6.8390563437454635,0.7342025237734233,1.9701732268887895
0,3.724166935927611,3.7770678808803884,2.0418726086489176,7.2045069429214506,1.975173666550944
0,-1.7247530751255042,3.6882788326766267,1.782802658873262,-5.635188176255218,1.9801741062130986
0,0.6163281522290232,-1.0005087244099768,-1.686266193190461,-0.2048828335886599,1.9851745458752532
0,5.817410616526003,4.6007052084634665,4.934666052277615,3.6054229710979846,1.9901749855374007
0,6.158494316118157,6.3719206299123,9.55559939492468,4.625729237966467,1.9951754251995553
0,9.889579248930582,6.403137538191922,9.576533833956917,6.476035966934075,2.00017586486171
0,-7.869334587674614,-8.485644068885309,-7.7825306320644225,-10.153656842433337,2.0051763045238644
0,1.5317528033002192,3.085575806263647,3.148405994979874,-1.2433491906862137,2.010176744186019
0,0.5528414188212591,0.2967971612599937,-1.8606562868634273,-3.6230410781376583,2.0151771838481736
0,-3.6860687440607545,-7.291980006182567,-6.619717479445885,-2.3827325047447676,2.020177623510328
0,-10.114977688153667,-3.9607556981831396,-7.758777584371661,-1.1324234701752836,2.0251780631724827
0,8.726114584040046,10.870470083409558,12.972163397132812,12.687886026036226,2.0301785028346373
0,5.627208070226868,5.901697336767121,6.113105463943806,10.048195984106474,2.035178942496792
0,-12.071697232000158,-12.117073940265733,-12.835951385377541,-10.4314935963504,2.0401793821589465
0,-1.6406013251004992,1.6341562499854971,2.6049928475345863,-8.091182716086067,2.045179821821101
0,2.650495788740826,1.8853879053761344,1.6059381612138526,3.579128624382128,2.0501802614832556
0,-3.2084058923863177,1.0466210239089149,-1.6931154456546906,2.3594404249237213,2.05518070114541
0,12.082693629628919,14.467855603437915,14.247832025524632,16.269752685381583,2.0601811408075648
0,8.993794352611255,3.989091641346684,8.19878057295748,4.000065405053885,2.0651815804697193
0,-1.215103726205974,-2.839670865626483,-5.990269805802864,2.4603785824529014,2.070182020131874
0,-2.4840006101472936,-3.6284319211568716,-3.7593191136702226,-0.24930778452420216,2.0751824597940285
0,8.817103697220714,7.182808471044134,11.741632646393796,3.5510063017178575,2.080182899456183
0,11.38820919211333,7.364050307221793,9.322585471318357,12.411320838537172,2.0851833391183376
0,0.22931587021287303,0.8152935832813091,0.24353935750305367,2.0916358228382075,2.090183778780492
0,3.6404237265581623,6.146538294648188,6.78449430069694,-1.128048749056932,2.095184218442647
0,6.601532755720165,9.147784436289841,5.465450296142814,6.6022671187608575,2.1001846581048014
0,-7.837357048051561,-7.120967997294861,-10.453592661296305,-5.437416578012303,2.105185097766956
0,2.7237543093359813,3.41028098805695,3.5973654231090633,2.0029001562135136,2.1101855374291105
0,10.80486682194692,7.671531386377954,7.308324544163435,8.163217316974452,2.115185977091258
0,-1.4940195163575494,-0.14721680849172847,-0.8907153034110334,0.8435348996217785,2.1201864167534126
0,1.0670952879003435,3.374036396951044,0.40024587483589,1.1338528991654786,2.125186856415567
0,4.828211227918179,1.4752909959163494,4.771208073148549,2.634171310330065,2.1301872960777217
0,5.889328296671452,3.266546981391626,5.772171285582333,7.504490127618565,2.1351877357398763
0,-7.809553513153579,-10.082195653788645,-5.576864494092446,-4.705190654749078,2.140188175402031
0,7.721565790933468,3.9290630832555364,8.474100727649098,5.3051289571842,2.1451886150641855
0,2.932686201329705,-2.8696768143940994,1.5450669441503702,0.9054489572138196,2.15018905472634
0,-8.586192289715072,-9.978415353443046,-11.203965851423755,-5.234230660979856,2.1551894943884946
0,5.684930309976251,5.652847459682402,4.39700233410907,5.616090096243188,2.160189934050649
0,5.446053992603995,2.104111618815624,2.687971494127646,-0.0035887774769371994,2.1651903737128038
0,1.24717875021219,-0.9446228822013298,0.22894162204686774,3.5467327113951863,2.1701908133749583
0,-2.3716954254562577,-4.363356049630605,-4.360087288834673,-1.2129454437887777,2.175191253037113
0,9.519431457128407,8.587912110268459,5.370884754754776,0.9073767501831883,2.1801916926992675
0,-10.569440610648408,-11.070818408735736,-8.098142253857427,-8.762300713487695,2.185192132361422
0,-8.728311637387854,-3.639547612784482,-7.237168321193856,-6.011977841375416,2.1901925720235766
0,3.8128183686662958,-0.3182755077070447,2.863806546573162,0.45834536039500795,2.195193011685731
0,3.0439493996775058,2.4429979010110507,3.054782343611786,-0.901331113879646,2.200193451347886
0,3.165081447853513,3.374272607971315,-0.4642409358603361,3.1289927302833083,2.2051938910100404
0,-3.993785494802017,-0.9944513923600444,-1.3932632977430313,-4.670683112622846,2.210194330672195
0,6.99734856355679,8.766825894273563,10.24771525196042,7.139641351870324,2.2151947703343495
0,3.698483614633014,5.69810446181938,1.9686947070288499,7.719966118110275,2.220195209996504
0,-10.000380350077211,-6.6806156961899745,-9.420324939086989,-10.849708819843602,2.2251956496586587
0,6.210756660847001,7.610665413479169,10.080656306918632,3.860616531881409,2.2301960893208133
0,-0.688105361088208,-5.398052216040178,-1.3383615616521638,-1.8090578327601734,2.2351965289829607
0,-7.266966424321389,-7.696768591586949,-7.2073785515714786,-4.868731919663906,2.2401969686451153
0,10.604173462756275,11.53451628017013,11.523605330354608,10.491594265367466,2.24519740830727
0,-9.834685708200634,-12.564197607276265,-9.105409922670752,-15.458079283431825,2.2501978479694245
0,-8.603543945451786,-10.392910260264934,-9.154424317403997,-7.317752571660156,2.255198287631579
0,-3.612401256879882,-5.23162168462503,1.416562139708367,-5.49742560436548,2.2601987272937336
0,5.438742350175938,3.229668114537414,4.717549442642842,-1.0370983858756617,2.265199166955888
0,-5.170113131322301,-5.529040867407805,-7.491462414466976,-3.4067709199994503,2.2701996066180428
0,-4.608967708317718,-3.0377486348650304,-5.750473437420871,-0.4264432102437158,2.2752000462801973
0,-2.5878213875466267,-1.1764551920026725,2.540516368255712,-2.3161152599076846,2.280200485942352
0,-4.396674175394605,-6.675160542693156,-2.038493002647928,-2.465787072114303,2.2852009256045065
0,-1.2855260778937152,1.5661353094938892,-2.0375015551878657,4.224541350163534,2.290201365266661
0,-7.704377100746472,-3.052567638739137,-3.906509294299113,-8.505129995949105,2.2952018049288156
0,8.15677275065257,6.818730609455244,6.484483775247565,3.8451988867764157,2.3002022445909702
0,-9.012076528895836,-3.099969949108758,-7.734522351224639,-1.7744720042913174,2.305202684253125
0,3.349075055506412,8.801330682220925,5.026472321635794,5.8158573282650545,2.3102031239152794
0,4.480227498825307,10.082632499786255,7.987467789157842,3.966186881720046,2.315203563577434
0,-8.388619203983431,-6.896064500561615,-11.801535953486875,-5.173483346909543,2.3202040032395885
0,-5.997465057913391,-1.1347603233610257,-4.050538911181934,-4.543153360728971,2.325204442901743
0,4.52368993233673,7.356545026785993,9.120458911438304,6.037176837287369,2.3302048825638977
0,-0.7651542376407581,1.6278515452360456,0.27145750990246353,1.0275072442795943,2.3352053222260523
0,-0.9439975721973388,3.6791592270842775,2.2324568795561284,5.277837857252284,2.340205761888207
0,3.5171599242710303,5.710468067070418,4.223457015457671,5.588168672890573,2.3452062015503614
0,6.128318247271534,6.751778059534854,7.854457912370849,7.4184996874437665,2.350206641212516
0,1.2894773920531828,-2.0869108016420057,-1.1345404353348834,4.378830896614951,2.3552070808746635
0,-6.009362646433794,0.17440147706199413,-0.963538033660287,-1.6608377044285179,2.360207520536818
0,8.62179812663726,11.745714888970593,7.327465111197347,5.619493879112327,2.3652079601989726
0,-10.257040293903941,-6.562970572835572,-10.15153100706075,-5.070174358160676,2.370208399861127
0,-3.825877913130732,-2.8916549155187283,0.5394736052729607,-1.2098424217063137,2.3752088395232818
0,-0.16471473582145174,2.2396618537681463,5.1304789420600745,-6.689510316854741,2.3802092791854363
0,4.196449233561484,0.3309797280094474,3.1814849972008505,-0.15917804863876173,2.385209718847591
0,-3.562386009363471,-1.1177012997829516,1.6724917643689792,-2.6888456217662715,2.3902101585097455
0,3.258779530962998,7.563618763334713,4.363499236926479,0.7914869592916068,2.3952105981719
0,0.5799458500468956,-1.3750600898504204,-4.51549259201312,-2.4381803097978785,2.4002110378340547
0,-3.298887056658668,-4.593737866740587,-2.9144837294282055,1.6121525667196381,2.4052114774962092
0,5.422280806268846,8.137585425196914,7.006525817779712,7.622485584598997,2.410211917158364
0,4.363449434179061,5.75890977841672,6.877536042686539,6.282818739366836,2.4152123568205184
0,-8.355381177754255,-10.309764814880957,-13.171453061876617,-8.816847973852392,2.420212796482673
0,4.695788965545795,8.791561637321317,8.139558496788343,7.813485439807996,2.4252132361448275
0,0.8169598592025386,5.912889126977316,6.880570711410512,1.00381897514091,2.430213675806982
0,-2.5618685016594713,-4.565782354180256,-4.468416425439742,-5.8858473731582786,2.4352141154691367
0,-7.690696121899636,-5.784452814639606,-8.10740292140353,-7.64551361037759,2.4402145551312913
0,3.900476993831237,5.3268777371885445,5.873611215986256,1.4248202585154561,2.445214994793446
0,-6.85834915883262,-3.8117907069262698,-7.0853740205405735,-9.36484577100786,2.4502154344556004
0,-6.747174583988491,-7.540458155102025,-9.184358638015366,-0.46451170307536604,2.455215874117755
0,-5.175999285335299,-1.5791246152185316,-1.7833426430697892,-1.8641775414383308,2.4602163137799096
0,1.6951767339331052,0.8322099052136889,2.447673958165183,-1.6438432895562471,2.465216753442064
0,2.0563534709643694,4.233545398902489,2.6186911598150355,2.486491049272703,2.4702171931042187
0,-2.152469077025183,-2.485118141478199,-4.2102910440229815,-4.45317452817484,2.475217632766366
0,4.208709087122054,5.2862192766081995,7.390727340661394,2.2471599749330995,2.4802180724285208
0,-1.0501120395138426,-5.42244235441431,-4.8182536921968815,-4.7025054444854915,2.4852185120906753
0,-8.088932459892023,-9.351103042091154,-13.817234148644864,-9.24217078933061,2.49021895175283
0,9.802247823115096,9.330237206287341,9.093785965572955,4.4181639378400845,2.4952193914149845
0,2.103428806678436,-5.718421616319926,2.1448066450550196,-3.2815012651802653,2.500219831077139
0,1.1846104877559607,1.2029204830978952,1.355827884372563,0.4488335995710028,2.5052202707392937
0,4.10579286298589,6.254263497522643,3.0768496778296437,-0.050831469885547875,2.5102207104014482
0,9.506975928693729,5.405607419789689,9.077872019442914,3.1495035244893392,2.515221150063603
0,-0.3918403192152028,-1.1730477576134104,-4.551105097122906,2.6598385806529263,2.5202215897257574
0,1.889344114707763,4.858297957443133,0.4599183214903062,6.20017369634342,2.525222029387912
0,13.480529225540995,13.2296445567635,13.00094226847676,3.5705088689527433,2.5302224690500665
0,-8.138284992033254,-10.799007968286627,-11.288033263178674,-9.78915590446496,2.535222908712221
0,-10.457098543606971,-10.217659626610844,-12.687008280597109,-7.658820626868128,2.5402233483743757
0,-5.015911434529015,-4.476310426793804,-2.3059827904838146,-5.2284853007639835,2.5452237880365303
0,1.50527633046222,0.9850396232382689,0.8950432011656295,3.9718500719398198,2.550224227698685
0,-5.663535252886243,-5.753609483951303,-8.263930311153654,-3.2578145103041796,2.5552246673608394
0,0.2976538114397963,2.367742244461406,4.547096667327562,0.2825209510630666,2.560225107022994
0,4.858843519618445,1.159094801449248,5.838124131526413,-0.8171435453472158,2.5652255466851486
0,-4.4299661321459975,-12.519551819919366,-6.660847923711976,-6.616808000818763,2.570225986347303
0,-1.8687751476799743,-0.8081976263312298,-1.0298195036474915,1.3435275835604399,2.5752264260094577
0,7.552416469231203,1.7831573759504133,8.661209386505575,3.5538632069079297,2.5802268656716123
0,4.313608714738667,1.214513180938741,1.0622387414800127,3.2041988683522282,2.585227305333767
0,-1.195198415307545,1.0058697826419245,-7.246731444224121,-6.2654654331402835,2.5902277449959215
0,-3.1340049253393425,-2.21277282502528,-1.5757011761640518,-5.245129698630471,2.595228184658069
0,3.4971891801587507,4.018585351803331,1.3353295403195347,0.575206071074221,2.6002286243202235
0,-1.4416161032567896,-4.970055693023825,-6.953639299876874,-1.024458124516751,2.605229063982378
0,0.9695792199561917,-1.1686959656296805,-1.8526077016423366,4.095877714250946,2.6102295036445327
0,8.31077514525133,7.20266452794446,9.508424330352181,4.326213586960913,2.6152299433066872
0,-2.6180283321252515,-5.825974218343106,-2.370543208552469,-5.2734505070046795,2.620230382968842
0,-4.5268312171545455,0.7653877893986252,-3.2195103231975906,-3.0531145683681715,2.6252308226309964
0,6.3743664851409045,8.186750545036958,6.891522981477794,4.567221402256972,2.630231262293151
0,-0.06443523023734521,-1.741885957680081,-3.327443299495373,1.7975574043487226,2.6352317019553055
0,1.4767636315979467,0.5394782747531155,-0.4664091711609655,7.46789343723545,2.64023214161746
0,8.267963065322236,5.75084323565326,7.224625361377673,4.24822949987948,2.6452325812796147
0,-4.770836934652284,0.2622089181682858,2.655660292881162,0.46856559079248755,2.6502330209417693
0,-6.169636374097237,-3.7864246847495693,-7.753304382139415,1.6189017081168766,2.655233460603924
0,-1.7684352586593386,5.124942419759526,1.0577313307390563,2.6492378497734625,2.6602339002660784
0,-3.257233593631523,1.6663102245179588,-0.6312325739074948,-0.7504259864732931,2.665234339928233
0,-1.6860313839725622,-3.9423212777654975,-4.030196101329242,-1.6200898029698336,2.6702347795903876
0,-9.174828634345149,-7.810952094400889,-9.81915925657424,-12.109753601996395,2.675235219252542
0,8.236374650913072,9.050417767508968,6.821877955663681,3.0305826145045742,2.6802356589146967
0,-15.312421532247217,-13.978211698902617,-13.56708446893242,-10.899081154930471,2.6852360985768513
0,-13.241217187488527,-10.696840500213623,-11.116046534267069,-10.838744911239575,2.690236538239006
0,-0.10001231773574287,-0.11546864240269455,3.34499175639504,-5.158408654667394,2.6952369779011605
0,3.1911930748754656,2.705903869213569,4.116030400377296,2.541927615294445,2.700237417563315
0,-12.88760101137029,-11.252722970328781,-11.022930604798635,-7.027736100346068,2.7052378572254696
0,3.633605422070053,4.038650834224818,6.128108738455806,6.642600199648529,2.710238296887624
0,4.244812374018143,2.9600252783585823,4.1891484278364475,0.22293651657876934,2.7152387365497717
0,3.066019843335832,1.6914003575840169,2.2201884609431586,0.8932728516473627,2.7202391762119262
0,-9.702772171295791,-5.51722393273251,-7.238771164869482,-8.706390794038873,2.725239615874081
0,5.828436328767677,4.834152402721259,5.992269547672813,-0.3060544192377066,2.7302400555362354
0,5.999645342246087,-1.4344706407086145,-1.4866894041080498,0.4342819775927993,2.73524049519839
0,3.7408548676949387,6.196906932268555,5.014351977059647,6.194618398164067,2.7402409348605445
0,11.222064903208501,16.248285116661755,13.595393688195024,11.414954844011758,2.745241374522699
0,16.303275446190373,18.01966390675367,19.43643572568427,14.87529131606799,2.7502418141848537
0,9.204486493053137,12.571043295576107,7.467478084785433,14.375627814244668,2.7552422538470083
0,1.3356980390857847,5.782423274727891,6.108520759465725,6.715964337203643,2.760242693509163
0,9.53691007868505,10.183803834607929,10.699563742649511,10.716300882421123,2.7652431331713174
0,-16.401877394256758,-16.254815035160824,-18.509392973409852,-10.133362553511935,2.770243572833472
0,-7.080664385841871,-9.003433345094347,-9.148349396537657,-9.313025974343613,2.7752440124956266
0,4.450549098331592,5.437948894788267,7.2726944659974855,-1.5526893835174582,2.780244452157781
0,-0.018236946842628998,-2.5406683249862283,0.693738607465672,6.017647216045882,2.7852448918199357
0,-3.407022526340066,-6.3392850136709376,-10.035216978749183,1.047983821618045,2.7902453314820903
0,2.2941923548682737,9.642098819591352,3.0958277008157595,0.13832043031899896,2.795245771144245
0,-2.194592308133463,-0.6565168343121264,-0.4031273601442472,-2.8713429608925503,2.8002462108063995
0,-5.633376520174224,-1.5451319846513583,-3.0720821677783663,3.718993644922184,2.805246650468554
0,2.1678397140868038,3.1262533591504345,6.648963271798926,1.1593302446994886,2.8102470901307086
0,2.909056390164007,-0.012360812392650355,5.4800089523812545,-0.0003331647193397236,2.815247529792863
0,-2.7397264964100456,-7.410974508793793,-6.64894513249652,-1.1199965866016115,2.8202479694550178
0,-2.6085089501452075,-3.7795877394287327,-4.197898989455431,-4.039660024213633,2.8252484091171723
0,-0.25729097547053187,-4.71820051330042,0.44314737505202073,-6.129323480652156,2.830248848779327
0,-4.716072576635409,-12.746812838900743,-8.965806045101061,-7.778986958642471,2.8352492884414815
0,-13.044853757605608,-13.725424724018328,-14.30475925560936,-11.408650460321887,2.840249728103629
0,-2.5436345218192327,-2.7740361754868657,-3.8837122614536,-3.408313987071115,2.8452501677657835
0,3.1175851279215863,2.5973528007523377,2.557334933202765,1.7920224604447026,2.850250607427938
0,-13.99119481073699,-12.381257800717133,-17.101617675217074,-11.657641117962552,2.8552510470900927
0,2.110025660206802,0.4601320150433856,6.269429910176805,3.322695277869688,2.8602514867522473
0,5.051246539123343,-1.8084777566215262,4.120477686682273,2.463031648410983,2.865251926414402
0,-8.077532175446581,-8.887087120000318,-6.48847434829143,-3.436632005756533,2.8702523660765564
0,-10.146310484854153,-8.875696078980894,-5.877426197340399,-7.0562956840239845,2.875252805738711
0,-0.415088390041421,2.465695363115827,-0.5763778628158903,-1.535959385555989,2.8802532454008656
0,-4.673865891376006,-5.672912796504564,-5.855329346671377,-6.475623109113895,2.88525368506302
0,-12.602642988723115,-9.091520560263369,-11.004280650447587,-10.525286852988392,2.8902541247251747
0,1.3385803185935932,2.8498720698238493,3.3867682248262967,-2.194950614883593,2.8952545643873293
0,8.269804031743561,7.331265092082513,5.647817278552009,8.125385608051902,2.900255004049484
0,-11.448971847948188,-9.387341495131356,-13.091133489746609,-6.174278181114892,2.9052554437116385
0,-4.437747319109343,0.3040523064829437,1.1099159195446782,-1.5739419793362652,2.910255883373793
0,5.053477619918588,6.875446495324181,8.18096550628319,2.9263942164970134,2.9152563230359476
0,-5.525297028904961,-6.903158930161848,-7.147984729585486,-2.0632695904061453,2.920256762698102
0,-7.774071263445023,-3.4217639715413144,-4.3969347881613325,-1.6729333968073656,2.9252572023602568
0,1.777154918717267,-0.0003686302145200909,3.6241153305960965,-0.3525971994117133,2.9302576420224113
0,4.308381520319127,0.6510270926656548,-0.9548343730704301,1.877739005166445,2.935258081684566
0,0.48960854414786925,-1.487576803935296,-4.353783898850213,1.588075220323526,2.9402585213467205
0,6.260835992787433,3.7838196789585723,5.807266753611486,2.8384114493501778,2.945258961008875
0,15.79206386843975,9.165216540213653,11.98831758461545,13.528747695283975,2.9502594006710297
0,-4.576707827317117,-10.2033862215706,-6.890631405888142,-1.6409160393107836,2.9552598403331842
0,4.234520906448568,1.5580113920264866,4.9904197816357465,2.50942024758194,2.9602602799953317
0,10.295750070246712,8.679409379460822,12.561471146448355,7.549756557584289,2.9652607196574863
0,2.5069796641824085,-2.6891922608703718,-0.5874773125788089,2.8900928919828925,2.970261159319641
0,3.308209687828133,2.3722064691880007,-1.2364255970908513,6.660429251626554,2.9752615989817954
0,1.6594401402970576,-1.4263944323805609,-0.7453737090129526,-1.9492343630909634,2.98026203864395
0,0.7406710204138294,-0.44499496762912805,-1.2143216502618397,6.7811020478706565,2.9852624783061046
0,-4.49809767314512,-4.613595138561361,-2.443269422648889,2.3314384842637983,2.990262917968259
0,2.753134058302847,2.4078050529538126,4.837782972114596,-3.388225054436075,2.9952633576304137
0,3.834366213485521,-0.3207943948217596,-1.5211644676678642,-1.0778885689028634,3.0002637972925683
0,-5.794401208922819,-13.68939348350748,-7.440111743720209,-5.1475520597271744,3.005264236954723
0,3.5168317896922074,-3.537992214386819,3.07094114234879,-2.357215527252211,3.0102646766168775
0,0.938065207955035,-5.016590588133469,-0.5180058108619374,-5.046878971498147,3.015265116279032
0,-10.570700955479069,-16.905188604731332,-13.766952604578844,-12.066542392070764,3.0202655559411866
0,-8.329466701731278,-10.573786263335498,-9.34589923964667,-4.596205787980905,3.025265995603341
0,-2.3382320313638996,-3.592383562060581,-3.62484571616387,-4.295869157523323,3.0302664352654958
0,-1.086996944319791,-2.3809804980906937,0.276207966537661,-0.49553249839265845,3.0352668749276503
0,-15.405761440068629,-14.399577067972663,-16.982738190333457,-15.595195807834239,3.040267314589805
0,-5.21452551752613,-2.1781732676505925,-2.7716841850031892,-5.35485908253029,3.0452677542519595
0,3.3667108251021722,4.173230907564937,2.839369984988372,-1.7945223184138481,3.050268193914114
0,-4.772052409870215,-2.485364537278594,-4.5595756774269445,-4.774185510766766,3.0552686335762687
0,-10.210815219853417,-7.403959597039282,-7.588521169093016,-5.423848654430712,3.0602690732384232
0,-0.4295776018823273,-0.6625542663891586,4.6125335134171666,-0.953511743858773,3.065269512900578
0,-1.6583395525021531,1.4388514603130445,-5.1564116261791915,3.126825226825463,3.0702699525627324
0,-13.457101067843318,-9.929742411046318,-14.155356583909139,-6.15283773634431,3.075270392224887
0,9.374137856368735,9.101664125614048,9.495698644609456,12.417499372681885,3.0802708318870344
0,-6.474622775246455,-8.416928923463258,-9.173245935802257,-2.562163440178383,3.085271271549189
0,-4.45338295788918,-4.715521551901403,-8.442190320018758,-1.3118261692599396,3.0902717112113436
0,0.9278573134338233,1.6658862469274518,5.708865497445857,2.108511190950151,3.095272150873498
0,6.139098043918417,7.2472944798884775,6.469921522373438,7.888848645900159,3.1002725905356527
0,-3.82966076125133,-6.781296846183547,-10.219022239496734,-2.45081379916832,3.1052730301978073
0,0.36158090297968437,3.0301122754164598,1.8820342174879752,1.779523860703656,3.110273469859962
0,7.792823041595277,7.151521851337591,8.443090899064002,3.5998616302943294,3.1152739095221165
0,-0.1759343405666662,1.8829318880532597,1.8841478108913936,2.77019951422407,3.120274349184271
0,-3.354691238914084,0.2943423916956365,3.1052049582734322,4.030537516861337,3.1252747888464256
0,7.296552350997222,11.0857533680608,13.576262346069246,8.37087564222579,3.13027522850858
0,-0.892203566481833,0.05716482257440239,-0.9226800213980104,0.7512138938920422,3.1352756681707348
0,-3.280958987142214,0.5285767602340451,-0.10162214036472547,2.841552274978336,3.1402761078328894
0,2.4502860931657984,5.199989185718761,8.03943599257019,1.9918907882657502,3.145276547495044
0,7.72153167858182,9.781402103433132,11.550494380485464,11.232229436245422,3.1502769871571985
0,-9.777222226886876,-9.837184482599312,-12.898446974028696,-3.837431778988222,3.155277426819353
0,0.2240243806817867,-0.05577056860276683,0.6426119313111296,-2.6570928557072118,3.1602778664815077
0,3.0252715053403607,-1.4843561507012986,-2.736328901069864,-3.986753792240097,3.1652783061436622
0,0.6865191512463521,-2.6329412247847803,-0.8252694684543629,1.8735854132923864,3.170278745805817
0,-3.2122326774964067,-5.061525786532776,-4.294209767915826,-0.876075237037098,3.1752791854679714
0,1.5390160231846923,-2.1001098313559003,0.5168502036662083,-0.7757357410849982,3.180279625130126
0,3.360265257386713,1.2113066456367723,-0.2620895504049657,2.9346039033039117,3.1852800647922805
0,-14.028484970772286,-9.097276350421971,-11.97102902665599,-7.715056301701386,3.190280504454435
0,-2.2472346569587924,2.11414118584746,0.7000317786966961,-1.9247163538152643,3.1952809441165897
0,5.1940162036040105,3.1355592600691,3.301092869840199,1.4156237495012245,3.200281383778737
0,-15.924732383932511,-11.2730221220033,-12.207845748777036,-10.264035988944645,3.2052818234408917
0,4.14651958589543,4.798397045518209,5.443215927493049,3.036304433928023,3.2102822631030463
0,9.637772118861166,13.509816768645578,16.514277903426407,9.27664502142186,3.215282702765201
0,9.869025220647945,6.511237053101791,5.00534018344484,6.156985776706531,3.2202831424273555
0,1.59027889633269,3.6226579038878657,3.1664027711676987,0.21732670245012964,3.22528358208951
0,9.701533150274438,7.934079325271803,12.587465669442178,6.07766780080917,3.2302840217516646
0,8.52278798618676,8.525501320903889,8.128528880421436,6.188009073540108,3.235284461413819
0,-6.42595659283837,1.036923893802484,-2.6804075944903256,-1.521649478006797,3.240284901075974
0,5.245299415858093,10.618347046369545,8.290656245503238,5.368692147147722,3.2452853407381284
0,6.446556014736949,3.2797707804340894,3.2617204007997582,-0.3109660502780443,3.250285780400283
0,-1.7721867939749556,-4.308804902692772,-3.1172151285503573,-5.980624069718531,3.2552862200624375
0,-4.370929008304405,-2.6173800019642255,-2.216150342712086,-10.910281910506233,3.260286659724592
0,3.070329373684657,1.004045483737275,5.224914758155579,-4.4799395714873285,3.2652870993867467
0,-4.708411645953543,-3.2745284442949267,-4.6340198260682515,0.040402949146925576,3.2702875390489012
0,-2.3971520650311775,2.3868982153513594,-2.532954095494057,4.830745653640627,3.275287978711056
0,10.34410811875971,11.348325464072081,14.028111949799328,5.741088544259327,3.2802884183732104
0,-4.60463109231393,-8.870246696972476,-8.1308216903855,-9.598568376962977,3.285288858035365
0,-7.913369696115499,-5.988818266823112,-11.209755016401957,-6.068225108049162,3.2902892976975195
0,-1.4121076903760275,-1.5973892443311228,-2.83868802834258,-3.8078816466697836,3.295289737359674
0,-1.6908450724440014,-5.675959627909159,-4.187620725683293,-3.0275379899637573,3.3002901770218287
0,-7.619581839307762,-9.804529415513233,-9.976553107310895,-5.337194134618472,3.3052906166839833
0,-7.658317987578975,-6.57309860453833,-6.005485171542439,-5.346850076918521,3.310291056346138
0,3.4829464866237347,0.11833280828629408,2.1755830839215906,-4.316505812700143,3.3152914960082924
0,-5.245788412395403,-5.670235173224003,-3.0933483381654,-2.366161337336335,3.32029193567044
0,-4.334522680072218,-1.4388025448909725,-4.8822794348175425,2.214183354164424,3.3252923753325945
0,13.986743688330936,11.932630697669797,15.558789797071743,11.83452826689179,3.330292814994749
0,-4.291989302497329,-4.285935441231721,-8.530140639477418,-6.645126594309329,3.3352932546569036
0,-5.980721648101593,-6.894500957505248,-6.689070741627158,-2.0147812248917014,3.340293694319058
0,2.470546655947221,6.386934152942962,2.5619994935703234,6.795564379640626,3.345294133981213
0,8.121815614206191,7.218369894290637,4.233070069331663,3.225910223761841,3.3502945736433674
0,-5.336914768850998,-2.5401937294836894,-4.005859011083628,-1.5537436882816518,3.355295013305522
0,3.864355511034651,7.57124328523656,8.705212255452023,4.976602647493022,3.3602954529676765
0,10.585626457946416,6.09268094172471,10.866283871815757,5.976949234847967,3.365295892629831
0,6.0168980756120645,3.884119242823769,1.717355840363339,7.297296077191742,3.3702963322919857
0,4.948170367134773,4.875558190860296,5.748428162789497,6.397643177386163,3.3752967719541402
0,7.78944333494836,11.096997787639204,10.669500840203234,4.377990537668213,3.380297211616295
0,0.7007169809010662,3.2784380343646435,0.560573873132577,-0.7816618402747977,3.3852976512784494
0,-2.888008693599714,-2.190121068373255,-5.788352738412994,-2.0013139550844654,3.390298090940604
0,5.033266312646971,5.831320479613989,4.662721005373248,5.579034194495364,3.3952985306027585
0,7.204542000717575,1.5727626782955704,1.913795104305503,0.5193826096472974,3.400298970264913
0,-5.6941816285708065,-6.40579447253804,-6.965130441838807,-5.320268708576595,3.4052994099270677
0,-1.3829045746217106,4.005649026848937,3.485944366717859,-1.1799197591301582,3.4102998495892223
0,4.65837316316825,4.277093176229379,5.42701952981447,-2.069570540778176,3.415300289251377
0,0.1296515854341111,-0.4514620247259449,-3.891904952787943,-1.879221052054098,3.4203007289135314
0,-1.3690693072863855,-1.0300165765433211,1.5591709185165912,-1.1388712913019456,3.425301168575686
0,-0.9077895145261233,-0.8985704798302976,3.9702471432603517,-7.498521256666137,3.4303016082378406
0,0.8634909642170981,-2.877123735133016,-2.7786762790992108,-3.1181709459895166,3.435302047899995
0,-2.295227870495046,0.9843236571275366,-1.9175993491846817,4.732179643245263,3.4403024875621426
0,4.776053981923902,11.925771696566972,14.463477932335314,10.732530513678414,3.445302927224297
0,6.64733652197243,3.7672203825268693,5.854555564517906,-0.01711833236238103,3.450303366886452
0,-11.841380250064631,-12.951330286105591,-14.894366454096518,-12.036766892964035,3.4553038065486064
0,0.3999036660381078,1.540119689427915,0.04671187484063868,-2.6764151661935864,3.460304246210761
0,3.9511882707140855,0.5615703081544348,0.5377905499868068,-0.9760631496722094,3.4653046858729155
0,1.2824735645258731,1.9630215693109196,-1.8511304296768518,2.3142891593796,3.47030512553507
0,-3.2862404520571533,1.3844734720991463,-1.590051065044704,2.424641763844347,3.4753055651972247
0,0.06504622136869073,-0.6840739844030551,3.151028643062859,2.024994666488677,3.4803060048593792
0,-4.403666414703131,-6.792620801162416,-7.397891306106567,-7.734652130061969,3.485306444521534
0,-11.1123783595345,-11.341166978931426,-11.676810913119056,-5.274298623108776,3.4903068841836884
0,3.5289103880413983,-0.12971251792895938,4.004269821922323,-0.43394480960339776,3.495307323845843
0,2.550199829602545,3.2217425821929986,2.5253508993890867,-1.4035906861096876,3.5003077635079975
0,-8.398510033115617,-6.4468016779344,-11.483567680155458,-3.453236248944903,3.505308203170152
0,3.332780801695267,0.9246547024261137,5.617514083978521,3.05711850573313,3.5103086428323067
0,2.0740723359729865,4.006111724122583,0.41859619267524684,0.6374735818512082,3.5153090824944613
0,1.4053645716632082,-4.382430611963996,-4.0503213531076385,0.94782898329582,3.520309522156616
0,-0.0933424894273611,-0.45097230497304036,0.4807614476011909,4.278184713827601,3.5253099618187704
0,-5.202048845580568,-2.89951335395852,-4.528155404107614,-7.031459222922946,3.530310401480925
0,-2.360754494980394,-6.9780537577623,-7.067071906911646,-5.451102823304122,3.5353108411430796
0,-10.479459435506165,-8.926593514858144,-9.785988059078198,-1.7607460833738862,3.540311280805234
0,0.11183633543124374,-1.0151326231685733,1.6750961417186767,-1.2703889987952703,3.5453117204673887
0,-0.09686717910964973,-4.853671080047777,-0.9238193016728515,-6.310031564922079,3.5503121601295433
0,-10.525569975737941,-16.172208882336328,-14.512734386073646,-8.179673776782185,3.555312599791698
0,-3.944272050718193,-2.970746026207036,-5.041649107867937,-3.8493156289086756,3.5603130394538454
0,3.40702660014688,8.14071749290602,5.709436537190302,3.8910428846955956,3.565313479116
0,-7.811674018580305,-13.097818320018334,-9.909477446188067,-10.148598229626977,3.5703139187781545
0,-0.7803739021061109,-2.89635345979108,-1.6683910530384103,-2.0982389652726576,3.575314358440309
0,17.82092695449936,21.80511207901241,19.792695721777918,8.612120684660322,3.5803147981024637
0,-0.9877714440633002,-8.433421698286908,-3.0062171167969227,-7.337519272791222,3.5853152377646182
0,-8.286469093604008,-4.421954786782697,-5.105129564338296,-1.5371588306041102,3.590315677426773
0,3.924834009852475,5.659512818299505,6.245958383302634,1.1032020183466063,3.5953161170889274
0,4.10613787037889,-0.1590188781683238,5.707046730227002,2.0135632813291613,3.600316556751082
0,-5.172557507956162,-6.107549871321008,0.32813548030957995,1.0639249655980847,3.6053169964132366
0,-3.341252121132419,3.723919843727383,2.6892246370710278,0.6742870782868428,3.610317436075391
0,14.120054034930149,17.405390271858757,15.170314203685413,19.734649626297706,3.6153178757375457
0,-4.848639035779236,-7.7831385824075205,-7.848595817136025,-3.3349873839901356,3.6203183153997003
0,1.4726686704346053,0.7783332849431684,2.472494576872719,6.805376053098536,3.625318755061855
0,9.943977157023845,10.95980587767769,12.11358538774415,10.035739942649222,3.6303191947240094
0,9.08528642712208,8.331279199300157,5.524676617190815,14.056104289129944,3.635319634386164
0,6.526596483231915,12.11275325266633,6.115768266298788,11.436469096084771,3.6403200740483186
0,4.147907327088688,9.184228039705252,8.886860335438781,6.096834365942896,3.645320513710473
0,5.589218959772761,6.055703561373125,6.967952824291413,8.567200100111716,3.6503209533726277
0,-5.919468618101161,-5.262820182170217,-5.5309542681061385,-0.26243370079519995,3.6553213930347823
0,-3.7581554060966686,0.38865680884184023,-0.9998609430839867,-0.2620670366873261,3.660321832696937
0,4.943158596338823,6.890134534113843,4.00123279800585,0.8283000922910252,3.6653222723590915
0,-9.645526610055716,-8.808387006686996,-9.377673046100055,-7.56133231401479,3.670322712021246
0,-10.824211024294069,-9.28690781385155,-13.426578476443217,-10.290964255534895,3.6753231516834006
0,-5.072894644840433,0.0645721127069574,-4.975483493456633,-8.22059573164113,3.680323591345555
0,-1.2515774694279216,-4.853947226385457,-7.234388096713715,-2.37022674093571,3.6853240310077027
0,-6.780259495209983,-3.162465830087467,-5.363292285013216,3.9501427186097535,3.6903244706698572
0,-2.1989407189265364,-5.130983697017164,1.397803943435318,-7.229487350679121,3.695324910332012
0,1.6223788630351634,-2.9595008254167556,0.6389005907869425,-7.279116946292841,3.7003253499941664
0,-9.27630074544198,-9.138017213106224,-13.910002340610662,-14.878746065271775,3.705325789656321
0,-8.72497954016033,-5.966532857395109,-8.948904848041241,-13.22837470379551,3.7103262293184756
0,5.896342483566363,-0.33504775500770556,6.192193071875504,-1.1680028569496006,3.71532666898063
0,-10.512334669119987,-15.57356190210719,-16.336708576869444,-10.617630518836673,3.7203271086427847
0,-8.591010992715368,-7.172075294220629,-14.0456097897254,-9.857257682785367,3.7253275483049393
0,2.070313518773709,2.599412073896912,3.2254894386810258,1.0531156586061372,3.730327987967094
0,-7.798361128127717,-11.319099791860364,-6.43341088544275,-7.84651048661249,3.7353284276292484
0,-10.637034926442546,-8.447610885097188,-10.762310755343739,-7.706136109887337,3.740328867291403
0,10.18429213129015,10.463878801118195,10.118789836173844,6.934238797801934,3.7453293069535576
0,14.315620052761787,11.185369273962603,10.90989089652298,9.964614245712276,3.750329746615712
0,-2.7130511547336336,-7.493139459721481,-2.419007567202771,1.9349902428283583,3.7553301862778667
0,4.278278515431614,2.9883526064607504,4.752094451540742,8.145366797552192,3.7603306259400213
0,3.5796090694478333,6.02984547873243,9.553196958885,9.665743917673014,3.765331065602176
0,1.9809405132289726,2.0113391631625506,1.0342999605413281,8.266121610289032,3.7703315052643305
0,5.9022728523860195,8.082833665474492,4.915403461716043,14.126499881647945,3.775331944926485
0,12.333606092125537,8.154328990907096,9.056507467141119,6.946878737024202,3.7803323845886396
0,5.214940237036553,1.985825144107003,5.8776119810294905,8.517258180695084,3.785332824250794
0,-4.363724708998543,-1.6726778708237402,-2.6212829929899817,7.107638216039067,3.790333263912949
0,7.077611257438863,7.818819949889256,7.649822548263602,6.0880188456581825,3.7953337035751034
0,3.968948139528029,2.7803186097765074,4.920928607652339,0.5984000714932252,3.800334143237258
0,1.8202859401567508,3.6618181120212747,1.3920351876587898,5.44878189498992,3.8053345828994054
0,-4.688375338094071,-3.0266815405455585,-0.8168577096136134,-4.190835682726593,3.81033502256156
0,9.01296430720997,9.974819654670805,9.744249917682003,5.519547339286636,3.8153354622237146
0,-4.785695121584609,-6.103678299935865,-7.004641928836416,-4.750069038116212,3.820335901885869
0,-0.504353622237911,-3.6021754021149244,-5.103533247693546,-2.0896848140852775,3.8253363415480237
0,8.44698880743498,8.809328350417617,8.257575962683273,1.7807000123339518,3.8303367812101783
0,-3.2816678304867706,-6.549167040010019,-4.701314296007809,-7.1789145577452755,3.835337220872333
0,-6.190323534073605,-9.077661571051314,-7.490204022043544,-5.9185285229840705,3.8403376605344874
0,3.1810216986527093,8.213844759857826,7.670906786437043,3.6118581183101797,3.845338100196642
0,11.172367869779631,16.415351955418714,15.542018131351,10.302245368059575,3.8503385398587966
0,-3.356285018802748,2.1968600178807747,-3.716869985809509,1.862633227979896,3.855338979520951
0,3.465063034408959,1.9083689486838835,0.3142424358272987,2.6130216992974242,3.8603394191831057
0,15.946412030567156,10.02987874863019,14.415355396748538,12.473410782757936,3.8653398588452603
0,1.2277619703158569,0.041389418054234794,-3.2035311029060125,-0.036199521399851775,3.870340298507415
0,-0.10088714637658996,0.9929009568572784,2.3375829365557372,2.1741907865198136,3.8753407381695695
0,16.280464679907425,15.584413364564341,17.008697514429308,11.214581705773124,3.880341177831724
0,3.541817448043712,0.8359266402171931,4.209812629475465,1.0849732351820645,3.8853416174938786
0,-4.47682884375058,-3.0425592177376535,-2.6190717202904557,2.4753653730647884,3.890342057156033
0,5.324525802293882,7.768955788756675,8.682044462575654,5.435758117320076,3.895342496818188
0,7.755881383746558,9.300471657507579,6.433161175156798,2.4761514655141466,3.9003429364803424
0,-6.372762102079462,-5.318011614086943,-6.255721585861441,-5.703454585077805,3.905343376142497
0,-1.3514046580936148,-0.9664940290032673,3.0453961759097252,-0.723060037275174,3.9103438158046515
0,11.909953712766589,11.015024409658636,11.276514456735288,9.187335106179257,3.915344255466806
0,-5.098686992538195,-7.213456301317222,-4.082366747367495,-5.542269157497063,3.9203446951289607
0,-2.777326777269127,-2.501936165302104,-3.4512474407089835,-0.05187283123465267,3.925345134791108
0,5.514034355250536,3.759584814371344,9.149872372284703,3.988524081996049,3.9303455744532627
0,2.4853964017016756,-2.6688933655041835,0.8209926871165925,-0.34107842078951156,3.9353460141154173
0,-3.3432406413780766,-7.9573707080554446,-6.707886500914865,-5.100680342647211,3.940346453777572
0,5.288123222390487,11.294152783737083,9.363234803363309,4.7097183133782545,3.9453468934397264
0,14.489487989197116,13.925677106866011,13.224356594984899,10.67011754423287,3.950347333101881
0,-5.809146345212515,0.2972022577800035,-4.414521131494924,3.8005173465338977,3.9553477727640356
0,11.082220214343206,13.948728232101066,17.006601617812382,15.10091771624072,3.96034821242619
0,7.303587662559206,7.3002550246477,11.367724836094373,8.271318648467254,3.9653486520883447
0,4.324955993574303,3.691782629436892,1.9088485156559398,7.021720137374132,3.9703490917504993
0,5.76632520088567,6.703311039746699,6.78997264791155,6.662122176217417,3.975349531412654
0,7.347695277402107,3.9148402482701528,7.771097223613038,0.8125247575361114,3.9803499710748085
0,0.3890662154903015,-1.2236297527659523,-3.3677777670203075,-2.877072126597741,3.985350410736963
0,-8.019561992878142,-10.022098971373353,-10.176652334086139,-4.92666848424672,3.9903508503991176
0,1.9318106442227532,2.4394325845741545,3.1444735124391956,-1.696264323298346,3.995351290061272
0,-3.636815881066231,-5.399035092451733,-5.924400237054955,-9.595859651295346,4.000351729723427
0,-12.375441576318925,-17.107502009581474,-14.443273591793226,-12.225454475272858,4.005352169385581
0,-11.644066448601869,-8.995968173274871,-8.032146560398221,-9.275048801490026,4.010352609047736
0,-5.032690504138416,-7.094433588988265,-4.211019150618375,-8.834642635235747,4.0153530487098905
0,-7.71131374823387,-7.942898261178845,-10.589891369353882,-9.384235980831702,4.020353488372045
0,-18.659936185348933,-13.78136219344383,-12.838763222731583,-14.19382884166162,4.0253539280342
0,-5.158557818983788,-2.299825388513145,0.03236528397236024,-9.343421220092269,4.030354367696354
0,-12.24717865153846,-12.448287848245483,-14.776505853676431,-16.47301311736182,4.035354807358509
0,-10.795798684358862,-8.766749573674048,-15.435376639282584,-14.012604533477873,4.040355247020663
0,0.695582082154344,3.574789434953402,0.8757529245368544,-1.0821954671845309,4.045355686682811
0,-0.6630363516886328,-2.1936708220466627,-4.053117163908202,-7.591785916183431,4.0503561263449654
0,-6.56165398520947,-6.312130344107431,-10.951986905708626,-4.191375877484732,4.05535656600712
0,0.8397291824982644,5.829410869502559,0.22914369853057756,-1.9109653475959205,4.060357005669275
0,7.681113152524861,10.440952819571407,9.340274648635607,4.199445677341055,4.065357445331429
0,-2.137502074079822,-1.427504493403988,-0.8985940555064892,1.0998572012933838,4.070357884993584
0,4.48388350349736,6.214038930585341,4.022537585708746,11.390269228050784,4.075358324655738
0,7.335269885801752,9.625583091100264,8.973669571537078,10.470681760931026,4.080358764317893
0,3.9666570730176827,-2.9628720127698216,1.1948019008266093,0.4610948025256722,4.0853592039800475
0,-12.751954935053767,-16.161326382259773,-10.914065427957485,-13.148491645171447,4.090359643642202
0,2.3394338613338106,1.1502199816186516,5.117067583597904,6.031922419775816,4.095360083304357
0,4.120823462169317,0.5817670784255073,4.538200934068616,5.492336999528562,4.100360522966511
0,0.8722138675370809,1.1233149080698124,-2.2006653779950893,5.4527520961780205,4.105360962628666
0,-2.48639492261456,-1.5251365295085446,-0.779531354208509,-0.8768322885795027,4.11036140229082
0,3.1149970915577283,2.2164127655917305,3.4516030037496557,0.20358384660276294,4.115361841952975
0,-2.4836100901187987,-3.1520372067376985,-11.187262305760596,-3.8359994970442206,4.1203622816151295
0,-5.202216467783497,-2.9204864465617817,-4.57612728417293,-3.0355823181968726,4.125362721277284
0,-2.610822041402739,-2.388934953789062,-2.174991932466798,-6.125164615279895,4.130363160939439
0,-0.12942681064734152,-1.0373827280938845,-0.9038562511445734,0.07525361363378028,4.135363600601593
0,-6.738030774906804,-8.78582976889375,-11.48272024035802,-5.3243276291771835,4.140364040263748
0,-3.976633933282151,-4.584276075251062,-5.071583899834194,-5.103908341108488,4.145364479925902
0,-8.27523628446196,-5.06272164572449,-6.770447228680876,-12.393488519126148,4.150364919588057
0,-14.433837826535369,-6.401166478323178,-11.039310225303463,-7.173068159535051,4.1553653592502116
0,-9.782438556740289,-1.4696105705409757,-8.068172887348439,-8.722647257802885,4.160365798912366
0,10.438961528612971,13.131946080468861,13.462964788251101,13.807774191325937,4.165366238574514
0,-1.229637566273562,-1.1364965225193253,-0.1558971951601063,3.6781961933170844,4.170366678236668
0,-2.588235837207222,0.26506162289002794,-1.2747588344538652,5.988618753261946,4.175367117898823
0,6.713166719877149,5.816620518781145,6.306379873217719,1.5090418756793467,4.180367557560977
