labels,F4,F3,Fz,Cz,timestamps
0,-3.3161996725887675,-16.319426397613277,-10.777081165798565,-10.070593978839943,-2.0000276395798657
0,-5.765372794917652,-12.599183342685462,-8.175945338669464,-15.199678105467978,-1.9950275704809144
0,-5.194548162630646,-8.348942832975924,-15.934810942503335,-8.798761872771896,-1.9900275013819666
0,-4.02372577464462,-1.8287048667079966,-9.933677976885164,-5.567845277653075,-1.9850274322830153
0,-4.452905629401316,-1.1684694413423289,0.4374535596864252,-4.6269283160957615,-1.9800273631840675
0,2.9879122750562668,-1.7882365539533935,5.108583669469335,4.653989016510906,-1.9750272940851161
0,2.968727940887537,-7.858006201386426,7.049712354879617,3.2949067250014115,-1.9700272249861683
0,5.57954137016858,4.142221619784847,5.310839617992336,4.225824814081618,-1.965027155887217
0,7.170352564641514,-5.597553086742855,-1.258034539625254,9.146743288091454,-1.9600270867882692
0,-1.1888384744132723,-8.537330317033813,-4.9169101167410965,3.8676621508651507,-1.9550270176893179
0,4.641968253871159,-1.4571100667831902,-2.9157871121119845,8.148581405632461,-1.95002694859037
0,6.802772750040231,2.203107668758259,5.735334475719879,7.319501054992953,-1.9450268794914187
0,9.09357501423517,6.9333228945389305,13.816454648220397,8.120421100869674,-1.940026810392471
0,6.3543750459810795,1.7435356153353543,5.6875734063783865,3.0013415444806877,-1.9350267412935196
0,7.145172844081064,11.823745835511001,22.808690750276185,3.0022623864277547,-1.9300266721945682
0,-3.1340315933126606,1.6139535588860248,-2.2601933211221867,-7.306816373066826,-1.9250266030956205
0,-3.443238268422551,-15.265841211182394,-14.99907880976474,-6.755894733795621,-1.9200265339966691
0,-2.0924471834717693,-11.875638471251209,-8.597965717686453,-8.22497269515869,-1.9150264648977213
0,5.048341659495384,0.19456178285851122,-3.4468540462302,2.8259497440301353,-1.91002639579877
0,-3.1608717414893888,-0.2452404438834811,-10.185743795898915,-7.1531274145553425,-1.9050263266998222
0,-4.960087388400741,4.644954853846114,-3.324634966500492,-5.672204168896915,-1.9000262576008708
0,-8.389305283036245,-3.3248523186449517,-7.733527557206723,-5.861280516558793,-1.895026188501923
0,-3.3485254267398528,5.6953380438304055,-2.8424215665938983,0.39964354539972125,-1.8900261194029717
0,-4.447747820301242,-6.694474053627167,-3.4613169927207985,0.5805680203003476,-1.885026050304024
0,1.3830275359459423,-6.714288605868826,-2.6502138332353735,2.1014929116016927,-1.8800259812050726
0,1.643800641920886,-4.094105607431413,-0.7691120854722345,6.822418222674616,-1.8750259121061248
0,0.44457149757632963,-0.1639250523777997,1.5719882534399632,7.47334395658336,-1.8700258430071734
0,-5.634659897176488,7.326253065543463,2.2730871864374467,9.494270115850588,-1.8650257739082257
0,-4.763893542325853,-3.7735712474258656,2.4141847163590158,7.0351967022709605,-1.8600257048092743
0,2.4668705624260703,-3.8833979851676736,-0.22471915412582447,0.9761237168939148,-1.8550256357103265
0,7.537632417580619,8.006772858443892,9.306375577445237,7.287051160164854,-1.8500255666113752
0,9.288392023458247,15.99694128942972,11.287468913175466,8.997979032033168,-1.8450254975124274
0,4.439149379820534,8.317107313197013,3.3785608545237444,2.7289073318791615,-1.840025428413476
0,-2.8900955142008256,-0.18272906580512635,3.1396514022099047,-0.4701639414916957,-1.8350253593145247
0,0.0006573401633498677,5.457432156102563,-1.629259443568791,-0.43923478962303075,-1.830025290215577
0,0.3114079416212315,6.437590982132149,10.041828317099837,6.721694785806129,-1.8250252211166256
0,3.692156288893558,-1.7922525848936492,4.33291468381816,-2.0673752170228936,-1.8200251520176778
0,6.752902380576735,6.317901457484991,-1.8360003442511403,6.04355519985336,-1.8150250829187264
0,-4.766353785010026,-9.691946888491394,-11.214916768226805,0.19448603416365925,-1.8100250138197786
0,-5.465612209738625,-3.221797620552392,-3.393834589032404,-3.034582716559596,-1.8050249447208273
0,1.585127104632508,12.878349263783111,6.237246192881615,9.236348945090601,-1.8000248756218795
0,-2.9241358434042453,4.6484937669692385,-6.971674422637333,2.6872810163493313,-1.7950248065229282
0,-3.5534010551576247,-7.341364108940191,-5.74059643561296,2.8082134941056944,-1.7900247374239804
0,-2.492668531733377,-4.051224362153535,-2.219519845793367,3.6191463748527752,-1.785024668325029
0,-3.6519382739636392,-3.7310869906794037,2.2615553474555705,4.2500796547458695,-1.7800245992260812
0,-1.2512102823881661,1.0490480078553361,-3.0773708550049523,3.401013329598314,-1.77502453012713
0,10.149515442638133,0.6891806360742116,11.363701547697723,7.4119473948354475,-1.7700244610281821
0,8.150238900612086,-0.2506891033370706,11.964772556159748,7.412881845408117,-1.7650243919292308
0,-1.1590399094773325,-9.720561207656608,-3.4541578296505717,1.8738166756949262,-1.760024322830283
0,-3.208320989131303,-1.1704356739312196,0.266910389625788,-2.8952481204249936,-1.7550242537313316
0,-4.457604339963942,2.319687501162545,-4.972022786864168,1.6956874506924833,-1.7500241846323803
0,-2.5168899633687447,-5.410191678794107,-6.4009573598124545,1.176623382658312,-1.7450241155334325
0,-5.286177860399611,-5.450073210051712,-6.969893329514267,-3.9424403309224516,-1.7400240464344812
0,-11.525468031689613,-13.159957088500082,-10.978830695678415,-9.40150369636048,-1.7350239773355334
0,-5.134760477279278,-2.4198433093770877,2.8222305426800207,0.21943328036788137,-1.730023908236582
0,-5.694055196484055,1.060268132778137,-7.716709612867613,0.7103705937091526,-1.7250238391376342
0,-4.413352187954093,4.990377243812969,-0.5856511603506658,3.7813082383120005,-1.720023770038683
0,-0.08265144982788059,2.46048402953757,-3.4045940974847886,-0.8177537912328048,-1.715023700939735
0,-2.8319529798935505,-5.349411504457766,-2.52353842169329,-2.536815500457676,-1.7100236318407838
0,-3.2112567757052135,1.1906906473224028,4.937515869816075,0.5641231050964197,-1.705023562741836
0,-2.740562834590595,-4.779209509521904,8.478568779841984,1.215062019957176,-1.7000234936428846
0,-1.0598711536158616,-13.469111969120274,-1.260379689112676,3.766001238646713,-1.6950234245439368
0,-1.3091817296199313,-4.9790167250655974,-13.51932953484643,0.2069407555512325,-1.6900233554449855
0,-1.938494559272398,-6.898923770186268,-6.568280754980996,-0.6521194351153271,-1.6850232863460377
0,2.2921903608821816,-8.558833096551709,-9.117233346447826,-1.1211793392221592,-1.6800232172470864
0,-2.197126965635378,-5.318744695535889,-1.3661873053722517,1.0397610373766315,-1.6750231481481386
0,-13.636446535196216,-6.318658557832854,-4.185142627245046,-4.1792983111145325,-1.6700230790491872
0,-10.525768343740028,-7.228574673494932,-6.36409930710514,-8.298357390348475,-1.6650230099502359
0,-12.065092386336275,-7.978493031936454,-9.473057339535313,-12.687416205562041,-1.660022940851288
0,-7.5344186569869525,-4.988413621897758,-10.072016718486163,-5.206474761254647,-1.6550228717523368
0,1.2862528512615654,12.831663568430859,4.929022562834872,6.384466938853158,-1.650022802653389
0,5.436922145932895,9.43173855090914,14.450060511649802,11.475408891366934,-1.6450227335544376
0,11.277589234558619,13.401811336787254,4.741097134923033,7.446351092536405,-1.6400226644554898
0,1.8682541242008899,7.611881936316456,6.422132438877267,3.8572935378645044,-1.6350225953565385
0,-3.001083178658549,1.4919503587550347,6.723166428983128,-2.3217637778155806,-1.6300225262575907
0,2.949577332142541,-1.0679833873297833,8.434199110057058,-0.6408208600036259,-1.6250224571586394
0,-2.789764337294826,10.052080706273195,3.9552304862567507,-3.4098777142166035,-1.6200223880596916
0,-0.7091081808408978,-2.9378573524961027,-0.6837394388645035,-4.298934345805915,-1.6150223189607402
0,-5.398454192269474,-16.027797555878905,-5.672710662091187,-5.877990759828193,-1.6100222498617924
0,-10.85780236508028,-8.41773989580623,-3.281683180175149,-4.927046960923826,-1.605022180762841
0,-3.1571526922589523,-3.777684363383912,1.9293430104023663,-8.816102953217678,-1.6000221116638933
0,-8.496505166128149,-11.417630948842074,-7.65963208657945,-8.425158740221597,-1.595022042564942
0,-5.4258597783590945,-6.577579641650866,-1.6586084671003412,-2.784214324744719,-1.5900219734659942
0,-0.3052165200357172,4.51246956941126,-1.617586126836743,-1.7932697089665817,-1.5850219043670428
0,-1.0545753818032446,3.7525166959751806,-4.0465650611660084,-6.8323248946216655,-1.580021835268095
0,-2.153936354073477,2.732561749628875,-7.0455452651789034,-9.851379883031523,-1.5750217661691437
0,-6.263299427089771,-7.2173952582701775,-13.874526733511388,-4.540434674942039,-1.5700216970701923
0,0.5773354091620915,3.5826456835719807,0.4764905399005247,0.8905107295445471,-1.5650216279712446
0,5.337968164936455,6.9226845864933395,13.267506561731452,4.621456330723231,-1.5600215588722932
0,4.638598850472754,1.3427214616834666,8.898521338642905,-3.457597871063863,-1.5550214897733454
0,6.279227475690036,2.6127563199872816,4.329534876640197,5.003348124414534,-1.550021420674394
0,0.0398540500509853,5.892789171910898,-3.2594528190060426,3.1442943172585816,-1.5450213515754463
0,-4.089521417333579,4.912820027616643,2.601558256579761,-1.1047592926283598,-1.540021282476495
0,-6.288898917396673,0.672848896855708,-2.267431891813497,0.32618729446580136,-1.5350212133775472
0,-2.048278440796576,-1.0071242109691099,1.6035767406033987,-0.5728659218178448,-1.5300211442785958
0,-3.5876599777896168,-10.497099286547268,3.42458415860207,1.7480810581619204,-1.525021075179648
0,-3.3970435182720164,-6.387076320283291,-12.194409633076464,0.8890282340158954,-1.5200210060806967
0,-2.1764290518243072,-1.0270553020155015,-0.7234046295394831,-0.5700243947129615,-1.515020936981749
0,-4.205816567724341,-3.0570362210436604,3.6575991744543055,-3.389076828519721,-1.5100208678827975
0,-7.085206054920693,-6.717019066296014,-6.1613982156045095,-1.2581290678200172,-1.5050207987838498
0,3.5854024980165207,-0.38700382635805497,-7.010396794072814,-1.2271811128601458,-1.5000207296848984
0,8.306009102752645,4.503009510492176,3.1506034449834526,-1.8362329637129433,-1.4950206605859506
0,10.126613770757716,11.173020955994712,7.791602507758368,3.9147153796655703,-1.4900205914869993
0,-6.312783487055513,3.1130305214854435,-6.857399599608811,1.0856639173224367,-1.485020522388048
0,11.277817339719007,11.533038217638216,11.263597128800525,10.18661264912554,-1.4800204532891001
0,9.068416261088643,4.473044054405504,8.324592698622602,8.4075615745186,-1.4750203841901488
0,6.32901328648177,1.583048041055965,17.295587114892427,6.738510692278741,-1.470020315091201
0,1.9296084245953415,3.9630501863336356,2.866580381670407,4.42946000042927,-1.4650202459922497
0,2.7702016835388807,4.783050498618091,9.727572501985087,3.570409496351196,-1.4600201768933019
0,-2.289206928908242,-8.456951013985602,-3.5914365219277404,-0.9686408230333471,-1.4550201077943505
0,4.851382594870854,9.593045656494285,-6.0304466882361805,-0.1276909610561947,-1.4500200386954027
0,1.5119702623693847,-6.236959481998115,-0.2894579950858211,-1.0967409211174761,-1.4450199695964514
0,1.392556080899943,4.473033578432815,6.26152955959724,0.6042092934107187,-1.4400199004975036
0,-3.4368599424013984,-1.756975154370454,-6.467484022047639,-2.3748403207937474,-1.4350198313985523
0,-7.206277800384425,-7.746985672544901,-12.106498737835471,-4.62388976696189,-1.4300197622996045
0,-5.635697485608115,-9.60699796798777,-7.615514585152605,-10.742939048068186,-1.4250196932006531
0,-4.035118990132556,-8.39701203201189,-6.4245315606012054,-11.7119881665307,-1.4200196241017053
0,-2.1245423055021924,2.2929721448104607,-2.2235496600007743,-9.251037123907505,-1.415019555002754
0,-0.5939674228799715,0.5829545724350331,-0.6125688786175006,-3.190085920792561,-1.4100194859038062
0,0.11660566679796236,-2.9170647389990365,-2.651589211404237,-3.269134556996149,-1.4050194168048549
0,5.9171769726527215,9.572914220633795,5.1393893468364,1.0218169681609777,-1.400019347705907
0,7.257746503640748,5.182891461273086,8.890366801246927,-2.6172313444003814,-1.3950192786069557
0,0.6283142683224354,1.7528669924385902,2.851343156616602,-3.1662794936133456,-1.3900192095080044
0,0.05888027483256353,0.6528408231994416,-2.5376815827530117,2.0046725217437573,-1.3850191404090566
0,3.9294445310454424,3.7428129623371684,6.343292587110659,2.9356247030009,-1.3800190713101053
0,-3.7399929553005253,-2.207216581541899,2.224265669982727,0.046577051434480723,-1.3750190022111575
0,-4.369432176495934,-5.507247799908017,-2.8947623305871035,-0.3124704318154861,-1.3700189331122061
0,-11.848873124614878,-11.607280684041363,-12.443791411123431,-4.251517745659444,-1.3650188640132583
0,-0.5083157912118756,-0.9973152247006898,4.997178432137407,4.079435111063196,-1.360018794914307
0,-3.3177601672460932,-5.877351412013445,6.838147203303926,-2.4496118604099824,-1.3550187258153592
0,-6.617206243222303,-2.1873892355974425,-3.1408850935218777,1.1013413411685242,-1.3500186567164079
0,-6.266654009241264,-3.647428684686419,-4.719918454430753,2.052294717024051,-1.34501858761746
0,6.083896545039233,-4.557469748167353,-4.598952875452275,3.6132482683026197,-1.3400185185185087
0,-0.5855545697746476,-9.387512414537724,-4.367988352269379,-1.4857980040158223,-1.335018449419561
0,-1.055007343084917,1.542443328193659,-11.417024880086917,3.1051559008803338,-1.3300183803206096
0,-2.8844617643384645,-3.8176025075208138,8.053937546419576,0.30610998367622844,-1.3250183112216618
0,-0.013917822896163723,0.022350091063938926,-4.6451010670436075,-1.972935755037209,-1.3200182421227105
0,-0.383375507981619,1.9123011368407936,6.245859285317221,0.6380186852983085,-1.3150181730237627
0,-0.07283480873252124,8.792250642684033,-2.053181390801301,-0.211026694728541,-1.3100181039248113
0,3.3277042857279184,13.01219862112844,3.357776910161962,5.239928105467421,-1.30501803482586
0,6.638241786168468,9.762145083964398,5.418734193606924,3.410883086327452,-1.3000179657269122
0,4.698777703046471,6.132090042005406,3.9896904646646245,0.9518382480136524,-1.2950178966279609
0,6.279312046346487,-11.76796649473847,4.020645728077436,0.732793590409423,-1.290017827529013
0,-0.9201551744487897,-10.128024516451159,-5.258400011776463,-0.41625088676599376,-1.2850177584300617
0,-2.8496239502000447,-4.188084012822005,-6.977446750623452,-7.635295183809207,-1.280017689331114
0,-1.8790942718362846,-0.9181449728150413,-3.706494483930015,-9.504339300778954,-1.2750176202321626
0,0.9414338698413043,-3.398207384878409,-5.975543206677,-3.413383237200118,-1.2700175511332148
0,-4.378039515819262,1.4317287628098865,-0.374592913358998,-10.702426991911652,-1.2650174820342635
0,-4.827514419306956,3.6116634821870015,-4.363643598085545,-8.701470563036867,-1.2600174129353157
0,-3.666990830821955,-10.868403214795055,-6.112695254638374,-8.880513947901477,-1.2550173438363643
0,-3.886468740172569,-6.788471316024641,-0.4517478764446491,-5.929557142978321,-1.2500172747374165
0,-5.495948136764511,6.991459191032789,-3.9308014565650913,-5.758600143961534,-1.2450172056384652
0,1.2045709903884754,1.261388319224381,-7.17985598772869,-1.1276429459095185,-1.2400171365395174
0,3.865088652532794,14.601316081254193,6.061088537666231,6.343314456514359,-1.235017067440566
0,8.365604860886242,15.501242489201264,12.04203212736091,11.434272068641768,-1.2300169983416183
0,5.376119626292458,-1.6088324458301853,7.482974788734,6.875229895313933,-1.225016929242667
0,5.89663295902068,6.661091286334078,10.203916528376881,11.256187940571925,-1.2200168601437156
0,8.97714486871959,4.981013695267153,11.294857351960191,11.387146207544292,-1.2150167910447678
0,12.957655364341313,10.630934790057825,13.585797264169265,12.688104698356064,-1.2100167219458164
0,6.478164453980158,2.2808545791883246,12.596736268574086,7.989063414045242,-1.2050166528468687
0,4.298672144817446,0.46077307053184324,0.6976743676005143,2.230022354629113,-1.2000165837479173
0,3.5891784433031884,5.69069027154339,-0.9413884371968222,2.210981519390033,-1.1950165146489695
0,5.2596833553717985,2.1206061893890413,6.259547855307345,3.4019409071816495,-1.1900164455500182
0,1.740186886544856,6.970520830908615,2.3004832460121243,-3.5170994833881344,-1.1850163764510704
0,-1.0593109579972944,10.50043420248839,4.271417735523838,0.3138603461810221,-1.180016307352119
0,-2.45881017324796,10.510346309854667,5.042351324085071,1.9348203944016398,-1.1750162382531713
0,-3.5183107541544327,5.310257157879018,-3.866715988413676,-0.734219340201613,-1.17001616915422
0,-2.7078126954563753,3.8501667505980333,-6.965784202244121,1.0367411408479652,-1.1650161000552721
0,4.702684008338801,-3.3799249085380234,-2.0148533175058114,-1.102298164010046,-1.1600160309563208
0,-1.986820637180217,-9.440017816273922,-13.843923333847167,-0.8413372563390249,-1.155015961857373
0,4.133673373515647,4.049888030848567,2.5370057496731646,0.2796238623375943,-1.1500158927584216
0,8.954166045772556,-5.72020736337234,3.6679339345084983,6.380585190502967,-1.1450158236594739
0,5.8746573845532195,2.5796960050875484,8.578861222227328,4.401546726472675,-1.1400157545605225
0,6.515147394222415,10.279598140295256,12.359787614002904,9.332508468163548,-1.1350156854615747
0,6.755636078485998,7.139499046043351,10.120713110228017,6.103470412912497,-1.1300156163626234
0,5.556123440416705,7.469398725503042,11.411637710296176,3.874432557394728,-1.125015547263672
0,1.5866094825007244,11.239297181066902,-1.1274385873920973,3.095394897697652,-1.1200154781647242
0,2.87709420676171,7.409194414300433,-2.2065157851356427,0.4663574294815602,-1.115015409065773
0,-2.362422385067487,-0.8309095740428597,2.104406114510783,0.3173201481497734,-1.110015339966825
0,-8.65194029132233,-9.681014783719819,-4.024672890996182,-1.1717169510105474,-1.1050152708678738
0,-11.201459510050194,-15.62112121437425,-16.113752804019548,-5.930753872691485,-1.100015201768926
0,-5.060980038641828,-10.201228864879813,-7.192833626378403,-4.329790621379142,-1.0950151326699746
0,-8.280501873677558,-3.171337733030378,-5.281915359010249,-4.428827201186117,-1.0900150635710268
0,-6.130025010990833,-4.311447815704177,-4.830998002012916,-1.317863615799221,-1.0850149944720755
0,-1.089549445761905,-2.1515591092030375,-3.4400815548816603,7.633100131384255,-1.0800149253731277
0,1.9509248272970878,15.93832839042498,2.1908339833079395,6.84406403692209,-1.0750148562741764
0,-2.048602186320424,4.458214686917963,2.201748613689807,4.395028096958038,-1.0700147871752286
0,-7.298130481034576,-15.481900216503073,-8.287337662573268,-0.9340076928937415,-1.0650147180762772
0,-0.5176600510502676,10.207983683160267,8.303575155721436,5.066956662600941,-1.0600146489773294
0,-10.107190890192767,-7.83213361093583,-3.7155129301682703,-1.3620788415543557,-1.055014579878378
0,-4.426722991807815,-15.662252095371354,-14.804601918919268,-5.4511142104789725,-1.0500145107794303
0,-0.36625634870168666,-5.322371766180484,4.196308191112593,0.8098505507681064,-1.045014441680479
0,2.994209046718738,2.2675073814186475,11.057217401980324,5.040815437278007,-1.0400143725815276
0,4.844673202127806,-5.4626146471906285,2.858125715681072,-0.2382195558673194,-1.0350143034825798
0,-2.01486387497994,-10.422737846285674,-4.440966866246944,-3.977254433726215,-1.0300142343836285
0,0.5455978226897763,-9.502862209655936,-6.150060342517819,-1.2262892013724478,-1.0250141652846807
0,0.4660583023501502,-1.782987730348803,-10.149154711610036,0.5846761362669624,-1.0200140961857294
0,2.336517571190036,9.116885599210752,-5.598249971405076,-1.8543584255947065,-1.0150140270867816
0,3.916975636299476,9.40675778667876,-1.0473461190948,-3.2233928916466907,-1.0100139579878302
0,-1.5725674954189564,7.416628839204465,3.2535568486252298,-2.842427266420387,-1.0050138888888824
0,1.657888182764954,5.996498763165491,12.824458935137262,0.7285384457746038,-1.000013819789931
0,-3.501657322490987,-5.86363243572603,3.4753601434300623,0.26950424080480256,-0.9950137506909833
0,2.7787959954924317,-7.963764752023501,-5.753739524095801,-6.999529885364495,-0.990013681592032
0,-2.0007518565620686,-9.723898180004998,-11.312840065292788,-5.8185639365745345,-0.9850136124930842
0,-2.270300871896537,-0.4440327133112657,0.9080585223059652,-6.487597916239231,-0.9800135433941328
0,-4.759851043642619,-3.074168344968426,-1.3010437583154428,-4.536631827206096,-0.975013474295185
0,-1.5894023646904216,-8.064305067577747,-11.620146903792888,-9.235665671734,-0.9700134051962337
0,-0.30895482764784377,-9.444442873303853,-7.079250910342399,-11.714699451427535,-0.9650133360972859
0,-6.078508424892719,-11.62458175363892,-13.10835577347559,-15.133733167025682,-0.9600132669983346
0,-3.688063148551215,-6.714721699190819,-4.467461487810257,-13.152766818138351,-0.9550131978993868
0,-5.187618990389573,-5.004862699669595,-2.7865680471149687,-11.66180040309092,-0.9500131288004354
0,-1.007175941757806,-6.155004744040347,1.3843245554254502,-7.810833918954533,-0.9450130597014841
0,2.0832660063244566,-14.885147820610396,-0.8747836731110435,-1.2298673617673181,-0.9400129906025363
0,3.523706862948191,-0.19529191693585546,-0.25389272557844,6.161099273077601,-0.935012921503585
0,0.5641466370970342,-5.005437019813209,-5.443002594777621,-4.34793400963213,-0.9300128524046372
0,0.09458533756569021,0.344416884487281,1.2078867266384306,-0.6869672051467166,-0.9250127833056858
0,0.5450229730266367,4.154269809940849,-1.001224753795955,-1.7860003086718557,-0.920012714206738
0,-2.6545404478872046,-7.685878229421969,-6.630337028392189,-2.7250333152599935,-0.9150126451077867
0,-3.1441049164804333,-16.50602721941238,-10.31945008919646,-5.474066219754989,-0.9100125760088389
0,-8.28367042385154,-1.106177145255514,-9.118563927688765,-4.073099016695601,-0.9050125069098875
0,-2.103236960706731,7.75367200856831,2.1123214654026703,7.847868299708232,-0.9000124378109398
0,1.5271954826854413,-1.0664797421144754,0.09320609992385076,5.928835735318459,-0.8950123687119884
0,-7.1023730836393595,3.933367618368594,-0.775910014069329,1.9298032956854607,-0.8900122996130406
0,-4.841942649398023,-10.33678589448579,-7.2050268664561035,-3.199229014050666,-0.8850122305140893
0,-3.9815132039313497,-3.256940265074544,1.7358555530598614,-4.078261188908508,-0.8800121614151415
0,5.6089152638257564,3.7629045225506945,6.5567372549768095,2.95270677620787,-0.8750120923161901
0,-0.8806572348882884,0.11274848459228581,1.3776182497389853,1.1236748865304067,-0.8700120232172424
0,-2.21023068887641,0.5025916372515664,-7.4915014524327335,-3.1153568527061664,-0.865011954118291
0,2.7201949130131844,11.242433996572975,4.959378158612652,-2.1843884362658406,-0.8600118850193397
0,3.9906195819107513,6.372275578245002,-4.16974290686795,5.656580141174755,-0.8550118159203919
0,-3.1389566711724823,-1.8878836026114225,8.131135361425466,0.01754888494914289,-0.8500117468214405
0,3.361466164633386,-7.6280435312927075,5.332012973641757,1.1985178002483499,-0.8450116777224927
0,3.4518881000959993,4.5717958069085265,-0.8171100604225208,4.7494868920822935,-0.8400116086235414
0,-0.587690854168896,12.771634426795192,-3.466233731296121,-1.0695438347286113,-0.8350115395245936
0,1.862729312269003,1.5114723428816061,8.29464197037639,3.041425624441123,-0.8300114704256423
0,-1.516851390278604,3.501309569091572,4.765517053833844,0.30239527405675243,-0.8250114013266945
0,-5.306432951506364,-4.638853881101511,-7.263608471971484,-7.186634881492076,-0.8200113322277431
0,-10.20601536090345,-4.799017994324847,-5.492734598231224,-8.265664837672011,-0.8150112631287953
0,-6.765598607450117,-13.469182756932122,-1.4018613158957183,-10.644694589444692,-0.810011194029844
0,-12.755182679372368,-13.87934815459694,-8.500988615480903,-12.383724130963097,-0.8050111249308962
0,-15.67476756396346,-4.749514171988917,-3.840116487043868,-3.742753455420998,-0.8000110558319449
0,-11.674353247369355,-9.409680792741227,-13.829244920085303,-7.781782555113103,-0.7950109867329971
0,-6.333939714490759,-4.249847999637286,-5.958373903377372,-5.940811421604794,-0.7900109176340457
0,-3.1235269491674265,-10.500015774750784,-7.027503424853705,-6.949840045822316,-0.785010848535098
0,-3.4631149345316965,2.1498159005018382,-2.736633471681233,2.9011315818868373,-0.7800107794361466
0,-2.062703653278946,7.139647045151765,-2.4757640304613076,4.392103471525946,-0.7750107103371988
0,-3.5922930877933954,-4.910522321710145,8.035104912524716,-1.7369243669015912,-0.7700106412382475
0,-0.33188322018778627,-6.300692181084342,-2.734026628983561,6.284048076425077,-0.7650105721392961
0,12.73852596755464,11.599137486103409,12.346841358527834,19.575020810992754,-0.7600105030403483
0,17.298934493149943,9.088966698896536,17.34770888808622,16.605993845497032,-0.755010433941397
0,10.289342373394767,13.638795475793012,11.128575971794168,9.976967187310116,-0.7500103648424492
0,6.22974962385611,14.128623834296796,10.029442620506279,4.377940842413,-0.7450102957434979
0,13.670156258990941,22.148451790643016,13.880308843843693,7.998914815744392,-0.7400102266445501
0,9.340562292283524,7.648279359577019,8.901174650291114,1.8098891115320248,-0.7350101575455987
0,3.550967736256415,-10.851893445511575,-6.547959952660257,-4.059136266474609,-0.7300100884466509
0,-3.5586273973452633,-8.28206661182433,-3.867094958063201,-3.87816131469092,-0.7250100193476996
0,3.051776902849993,-2.0022401262724565,-0.24623035893477474,-3.4871860293615238,-0.7200099502487518
0,-2.6878193518560645,-3.882413975175573,-5.565366148005992,-4.166210406390988,-0.7150098811498005
0,-1.7174161501327314,-0.8025881444116792,-4.094502317705482,-6.575234441296928,-0.7100098120508527
0,0.5229865194356758,0.23723738039867337,-2.77363886011076,-1.8942581291630098,-0.7050097429519013
0,4.933388668329517,10.307062613703678,2.4272242330377356,1.2167185353271164,-0.7000096738529535
0,5.663790307915855,14.266887569648077,10.53808697011284,2.8476955576986085,-0.6950096047540022
0,1.0041914492344222,-10.133287738287093,-3.7110506407426507,10.488672943385428,-0.6900095356550544
0,8.774592102916392,5.346536702820343,2.6098114082601938,11.889650697369891,-0.6850094665561031
0,4.524992279147846,4.036360905697436,-4.449326875261219,7.320628823842838,-0.6800093974571517
0,8.18539198757464,17.396184882831808,10.191534516288568,12.441607326032077,-0.6750093283582039
0,10.265791237196444,14.166008645985372,15.272395590282605,16.512586206141325,-0.6700092592592526
0,0.4561900362968522,-0.5741677941883745,0.6832563534412498,1.2735654652596677,-0.6650091901603048
0,1.6365883925365252,6.315655571975079,-1.7558831883026154,4.124545103469355,-0.6600091210613535
0,-0.5830136867751956,-3.8045212464211153,4.054976970545481,1.865525120216732,-0.6550090519624057
0,4.757383805520656,0.46530175951284924,6.775836835292306,4.5265055145917845,-0.6500089828634543
0,4.627780876418232,2.045124598632288,2.416696410956141,4.457486285372349,-0.6450089137645065
0,8.438177532579381,5.78494727974474,5.467555702128334,1.668467430980175,-0.6400088446655552
0,-0.4614262198196582,-0.10523018854632893,-2.4315852869968158,2.7894489494963537,-0.6350087755666074
0,-7.3010303749951495,-3.235407797878268,-4.240726552439586,-0.039569161263686675,-0.630008706467656
0,-5.280634927172278,-5.3955855399264605,-8.579868090124176,-2.9085869036356744,-0.6250086373687083
0,-1.1902398702118755,-2.795763406132288,2.810990104398113,-5.217604279927908,-0.6200085682697569
0,0.16015480242512126,9.904058612346667,2.591848035923894,-3.746621292209861,-0.6150084991708091
0,-2.789450902491145,0.8738805243600272,-0.6972942906780453,0.9543620577955534,-0.6100084300718578
0,0.07094302193166735,0.2837023384738072,3.0435631293489984,2.7553457686087417,-0.60500836097291
0,3.1513365826697393,8.663524062937805,6.134420300596226,8.27632983871869,-0.6000082918739587
0,4.381729786660422,-2.6766542942852047,1.3852772273867173,-0.02268573368560861,-0.5950082227750073
0,-1.4978773593557924,-7.036832725451845,-3.9738660862612885,-0.18170095079054788,-0.5900081536760595
0,-5.427484848806701,-7.727011222716323,-7.803009636401978,-3.2307158149758877,-0.5850080845771082
0,6.7729073248998635,-2.93718977775729,5.807846581138576,4.510269671388591,-0.5800080154781604
0,1.233299168391209,11.852631618216515,8.268702570714877,-3.808744494034662,-0.575007946379209
0,-2.2663093118269875,2.8824529740279603,-0.4104416635143805,2.962241686409635,-0.5700078772802613
0,-3.1559181093522666,4.742274298086924,-0.2895861177742932,-5.926771789610362,-0.5650078081813099
0,-0.765527217688845,-10.29790440162616,-4.11873078848124,-6.915784924285576,-0.5600077390823621
0,-2.30513663014458,-10.18808311713315,-8.567875671927279,-6.594797719427806,-0.5550076699834108
0,0.9752536601403825,-3.0082618399461993,-0.8870207640298898,-2.743810176294115,-0.550007600884463
0,-2.014356339862913,10.081559439027561,3.6438339397058037,0.8171777043655903,-0.5450075317855116
0,-1.4539666231007227,-7.878619270895061,-0.30531155604433724,-0.52183407791219,-0.5400074626865639
0,1.9964228175684458,-1.078797960431872,-12.464457246581999,-7.450845523455495,-0.5350073935876125
0,1.3568119893244868,4.251023379759948,-1.6336031269655005,-5.5698566323610486,-0.5300073244886647
0,-1.5527991007007422,-3.7391552408874893,3.6272508082029082,-3.688867404288209,-0.5250072553897134
0,-5.202410445395447,-3.2093338129119893,-12.001895435327675,-6.6178778383783925,-0.5200071862907656
0,3.6179779624684634,-0.5295123267310161,-3.131041851514384,-2.1068879332810684,-0.5150071171918142
0,6.828366130208249,3.750309227410365,9.33981156606461,6.924102312726162,-0.5100070480928665
0,3.1387540649613572,2.490130859281449,6.410664823950759,7.68509290141276,-0.5050069789939151
0,8.019141773431727,10.99995257841905,16.051517928238262,6.256083834160577,-0.5000069098949638
0,6.739529261786018,6.039774393875845,3.7223708841662813,3.8370751117390136,-0.495006840796016
0,0.5099165356117634,4.099596314048067,5.5132236960495495,5.478066734334421,-0.49000677169706464
0,3.930303600000129,-2.4205816532575604,1.8040763674926266,3.92905870163431,-0.48500670259811685
0,2.050690459702142,0.8892404994563945,2.934928901648268,-0.38994898709650144,-0.4800066334991655
0,6.751077119181557,6.5590627795760215,0.1357813013732886,-1.238956332878155,-0.4750065644002177
0,10.501463582498296,3.9488851943065857,4.026633569313007,-1.967963336802752,-0.47000649530126637
0,1.2018498531305668,-9.981292249429314,4.02748570790204,-3.736969999861123,-0.4650064262023186
0,1.8622359339546575,11.038530455157762,6.178337719271195,3.614023677129995,-0.46000635710336724
0,-3.757378172515431,1.3183533148086108,-2.1608103948312993,-3.9749823065191388,-0.45500628800441945
0,-7.086992463794567,-11.081823663884567,-7.399958632908904,-12.32398795135345,-0.4500062189054681
0,-5.1066069371067115,-10.242000474253816,-9.359106993324064,-6.182993257502303,-0.4450061498065203
0,1.2037784107785603,5.987822890887786,-0.8682554739193499,-2.5519982244029715,-0.44000608070756897
0,2.17416358343143,1.127646439209503,2.0725959280055557,2.7489971491028706,-0.4350060116086212
0,1.0745485844869163,2.7974701784355713,2.8934472153880333,0.7699928644199251,-0.43000594250966984
0,2.554933417459706,7.697294116049251,4.024298391072093,2.520988922919486,-0.42500587341072205
0,-0.9246819142908299,3.277118259161197,3.8351494576296337,-5.39801467413614,-0.4200058043117707
0,4.025702592460089,4.41694261441935,7.07600041726654,2.6629820745034034,-0.41500573521281936
0,0.0060869408021860805,8.61676718798601,0.16685127176014167,4.383979170127722,-0.41000566611387157
0,1.6264711336770787,-3.3034080144522817,-2.672297977477176,9.994976613877947,-0.4050055970149202
0,-4.733144826076803,-8.01358298752336,-4.631447329142164,4.185974406434529,-0.40000552791597244
0,0.8072390644032151,-1.953757725763783,-2.3505967817528455,5.936972547850321,-0.3950054588170211
0,6.017622808059054,3.1860677766392893,8.690253666410353,4.297971037586154,-0.3900053897180733
0,3.298006407740362,10.605893525642212,5.641104017034939,-0.8210301253779342,-0.38500532061912196
0,-1.281610133985637,11.365719526854745,5.721954271404469,4.619969057604817,-0.38000525152017417
0,-1.4012268147850002,-5.084454214812451,2.982804430242118,-1.3290314150363227,-0.3750051824212228
0,-6.350843632318807,-8.544627694966765,-4.1363455061754975,-7.018031544970156,-0.37000511332227504
0,-16.720460583932162,-3.314800909141185,-7.80549553770667,-16.16703133365678,-0.3650050442233237
0,-9.100077666231256,-7.894973852375116,-4.864645663945677,-7.7560307818525995,-0.3600049751243759
0,-1.809694874818603,8.194853480796782,1.2462041159905555,1.5149701106323632,-0.35500490602542456
0,-2.8793122044535138,-5.1753189039089245,-5.592946196617826,0.27597134467225753,-0.35000483692647677
0,9.291070350505654,8.40450899921302,0.3379033997646875,3.5069729213428706,-0.3450047678275254
0,4.791452795650363,2.9343371956825393,-2.6812470931148056,-2.3220251583496148,-0.34000469872857764
0,0.48183513619439133,-1.7258343092717867,-0.19039767332735108,-3.3210228934675086,-0.3350046296296263
0,-2.3977826230304915,-6.886005510617998,-7.8295483387681335,-5.290020282961579,-0.3300045605306785
0,-3.897400477299427,2.5438235967683953,-3.5286990870482136,-0.8590173254909498,-0.32500449143172716
0,-5.717018421712385,2.013653018213754,-3.9478499153636406,-2.418014019392888,-0.3200044223327758
0,-8.216636450982438,-9.20651724086357,-7.687000820445546,-2.887010362747415,-0.315004353233828
0,-7.436254559258647,4.76331282505625,-2.9761517985427783,2.103993646566067,-0.3100042841348767
0,-6.775872740003759,-3.8868567783273837,-4.265302845407412,-3.12500198919628,-0.3050042150359289
0,-3.7854909859869172,6.722973954777036,-6.6844539563253225,1.5160027322976657,-0.30000414593697755
0,-0.9251092894007089,-6.047194969884752,-6.793605126105211,3.9370078133994313,-0.29500407683802976
0,-4.404727642039115,-16.85736354649649,-3.2327563490031315,-7.751986743580281,-0.2900040077390784
0,-2.5743460354069687,-10.607531768685787,-2.051907618747265,-3.5109809362825724,-0.2850039386401306
0,2.016035539248689,1.5323003708900322,2.2189410712935858,0.9300252379091098,-0.2800038695411793
0,2.5764170908217365,0.7521328803676064,7.35978972784831,-4.61896821808852,-0.2750038004422315
0,5.816798628125357,4.371965768142607,6.790638357413627,1.3220386988422776,-0.27000373134328015
0,-11.102819840230248,-6.578200957454776,-5.028513033959353,-4.27695400801813,-0.26500366224433236
0,1.7675616943387589,-0.5183672881196316,-0.4676644405351521,3.6740536647512827,-0.260003593145381
0,-0.9020567593747939,-10.218533215342,-6.036815856556624,-1.184938279360479,-0.2550035240464332
0,-1.3616751923758788,-1.6886987302005134,-2.1259672760073167,-5.543929836837975,-0.2500034549474819
0,-2.541293595565152,0.2711361766911774,5.79488130740723,-1.8429210040398674,-0.2450033858485341
0,-0.530911959715997,16.200971514928586,2.075729900055141,1.7780882229164132,-0.24000331674958275
0,6.2894697245044275,0.23080729380367426,0.9765785081252987,-1.290902151910621,-0.2350032476506314
0,-0.8201485336303895,-13.049356477904555,-0.052572862420697225,-0.5198921244141479,-0.23000317855168362
0,5.250233274940794,10.560480208430443,1.6682757942478146,10.881118309473388,-0.22500310945273228
0,5.180615158998587,6.020317361514877,4.589124483857515,4.132129153568703,-0.22000304035378448
0,5.2509971269568,4.360154989812137,6.759973211920114,3.50314041119038,-0.21500297125483314
0,11.671379186717127,6.339993101242916,4.550821983543218,2.1241520851446647,-0.21000290215588535
0,0.3417613455455977,0.5798317032003342,1.3216708033491342,-2.9548358220880355,-0.205002833056934
0,-0.5378563898826972,2.3796708026735787,9.672519675508505,1.1761766918466952,-0.20000276395798622
0,2.5325259867753456,3.0895104063737886,1.053368603750181,-1.5428103706796066,-0.19500269485903488
0,-6.127091518219356,-2.4206494791884,4.744217591336705,-5.341797007210327,-0.19000262576008708
0,-2.516708898524285,-1.8508088476060092,0.645066641127332,-3.5407832150900624,-0.18500255666113574
0,-6.336326147531087,-2.560967692413673,-12.324084244216431,-5.549768991319096,-0.18000248756218795
0,-7.915943258204006,-1.181126006968114,-8.423235061828224,-5.548754332458955,-0.1750024184632366
0,1.5844397770067828,0.6087162155526493,1.5276141917631896,5.992260765347903,-0.17000234936428882
0,-0.3551770339259965,4.328558982045535,-4.341536479382876,1.2532763061654135,-0.16500228026533748
0,0.16520631714930467,-11.87159770060277,4.479312929100462,-7.295707705978723,-0.16000221116638969
0,-6.394410161555806,-5.9917538253466995,-5.719837578324555,-9.24469126698027,-0.15500214206743834
0,-1.0240264616768182,-5.721909384634599,0.2410120028753429,-7.293674372266913,-0.15000207296849055
0,-1.0036425745844642,4.3879356296792285,-1.8881383226337844,-4.392657016553079,-0.1450020038695392
0,-4.6532584914058,4.027781226036034,-12.18728854996376,-8.011639193862681,-0.14000193477058787
0,-9.24287420299804,-12.332372587130031,-13.236438673748086,-13.3606208975481,-0.13500186567164008
0,-11.752489699720538,-14.512525801215538,-9.765588687753276,-13.90960212010818,-0.13000179657268873
0,-0.41210497118637884,-0.942678406932077,5.315261415254252,0.09141714700702697,-0.12500172747374094
0,0.548279993679897,-3.212830394142883,-0.6838883568634982,2.722436913210654,-0.1200016583747896
0,-2.711334793686133,-5.672981752135787,-5.773037996069618,3.8434571882424073,-0.11500158927584181
0,2.3190506782672284,1.1168675301617563,-5.892187494196649,2.9744779817139957,-0.11000152017689047
0,4.699436421090518,-1.0432825359070133,1.2286631572569808,6.175499302919319,-0.10500145107794268
0,0.839822446197056,15.836568061046234,11.339513967050834,5.566521160750365,-0.10000138197899133
0,6.230208764727535,5.2164193320383205,5.110364943772394,5.587543563605683,-0.09500131288004354
0,1.7205953875017364,1.056271287392513,0.05121609547555822,0.9985665193718181,-0.0900012437810922
0,1.3009823250133927,3.8161239368139324,-1.3579325702476144,2.8995900355160784,-0.08500117468214441
0,0.8513695874986575,5.225977289620236,-0.6270810459660086,4.520614119199664,-0.08000110558319307
0,8.221757184997978,12.505831354728539,6.623770675745744,4.991638777280291,-0.07500103648424528
0,5.892145127238752,5.215686140430557,8.244622602155856,7.162664016209367,-0.07000096738529393
0,8.372533423428617,-2.5044583457019844,4.845474740085103,3.3536898419312777,-0.06500089828634614
0,7.632922082102302,7.465397903391235,5.576327095742623,2.9547162598817684,-0.0600008291873948
0,4.253311111082732,1.26525489446968,3.937179674760162,-1.8642567248918849,-0.05500076008844346
0,6.39370051753408,0.7051126340143898,7.128032482258089,1.0167708924633616,-0.050000690989495666
0,1.1140903080640152,-10.73502887165844,0.548885522871813,3.397799116731548,-0.04500062189054432
0,-2.975519511112403,-5.495169616039545,0.9897388008250623,5.17882795257169,-0.04000055279159653
0,3.404871066049517,-0.5753095921152334,-2.3494076798840826,9.579857404321222,-0.03500048369264519
0,-8.104737954395834,-3.145448792381192,-4.058553915269043,7.780887475758794,-0.0300004145936974
0,-2.0443465662436875,-2.535587209019615,4.752300098784683,1.981918169965554,-0.025000345494746057
0,0.706045236987527,-1.1157248339836396,1.6731543664655752,1.9729494894126118,-0.020000276395798267
0,0.306437462013167,3.4541383409540343,2.044008891847095,-2.166018563784447,-0.015000207296846924
0,4.46683011558434,6.414002324018512,6.934863678760945,-0.1449859876227835,-0.010000138197899133
0,9.1272232042743,14.4338671231075,7.045718730681153,11.436047219852027,-0.00500006909894779
0,-0.9523832657361571,5.623732745421099,7.846574050550435,0.7470810603577582,0.0
0,-1.0719892886798243,-8.096400802632672,-4.552570359293398,0.968115535187583,0.005000069098951343
0,6.298405140981892,-3.536533515022844,3.208285503081343,-0.5008493546908667,0.010000138197899133
0,1.0088000286375056,-2.4266653855470235,-0.8408583605358172,3.6601863915554516,0.015000207296850476
0,-6.650804620508508,-2.1767964076375748,-7.870001948340546,-3.9587772253134794,0.020000276395798267
0,-5.680408801239167,-17.436926574344675,-6.229145258317754,-4.457740204541962,0.02500034549474961
0,-0.8100125080134574,-0.39705587813081733,-2.478288287999367,2.2832974547777884,0.030000414593700953
0,1.6603842650834515,3.832815689232577,-3.4874310344092225,0.45433575373375007,0.03500048369264874
0,-3.0992184758481516,6.832688136291599,1.9134265057904234,-2.384625306533405,0.040000552791600086
0,-0.3088207246363671,1.332561471393657,0.12428433611721479,1.6164142751175015,0.045000621890547876
0,-2.5784224750088796,10.152435702451253,3.0851424600961557,-0.7525455001424783,0.05000069098949922
0,-3.04802372053419,-9.64768916305038,4.546000881119305,-3.011504631109761,0.05500076008844701
0,0.1523755454110559,-1.9778131178230007,0.32685960233937855,-3.0904631164860343,0.06000082918739835
0,1.4427753296159362,-5.447936154400481,-2.262281373326802,0.010579045220407025,0.06500089828634614
0,-0.6768243610789022,-3.298058264918526,-4.781422043020912,-0.5183781443051182,0.07000096738529749
0,-1.166423519845384,6.541820558833496,2.719437596262932,-2.7273346832544965,0.07500103648424528
0,2.7439778601424325,-0.9982996748219902,0.9702975476868485,-0.5462905697115936,0.08000110558319662
0,-1.7056202142927932,-7.258418957619163,-6.518842185541082,-4.115245801611969,0.08500117468214441
0,4.66478226361537,1.5714627187719923,2.61201839985851,8.245799623250823,0.09000124378109575
0,12.675185300445374,13.421345362811365,15.082879307205934,15.09684570696874,0.09500131288004354
0,0.8755889023165926,-2.948771017225082,1.5037405395047019,5.247892451037573,0.10000138197899489
0,3.3659930747398628,-5.798886413438393,-0.4553979008524549,5.258939856065761,0.10500145107794268
0,5.566397822742087,9.830999181923108,0.9354639880951531,4.549987921897062,0.11000152017689402
0,3.286803150970759,1.0708857765674025,0.966326208168556,-4.098963352122806,0.11500158927584181
0,2.337209063691388,2.9707733779580066,2.1671887611186347,3.052086033105367,0.12000165837479315
0,3.8576155648109274,8.210661993192574,5.498051648555803,5.603136076582764,0.1250017274737445
0,0.7680226579388705,9.800551628915448,7.688914871799654,10.694186777065452,0.13000179657269229
0,4.458430346422377,11.720442291081875,8.089778431675844,6.825238132756287,0.13500186567164363
0,4.80883863333234,2.5703339847696762,5.540642328350528,9.986290141084762,0.14000193477059142
0,7.599247521372635,7.240226714233681,3.771506561314698,5.977342798655739,0.14500200386954276
0,1.6396570127627934,2.1101204831001312,2.6123711295069674,6.2383961012974405,0.15000207296849055
0,0.270067109260255,7.780015294498481,0.013236031479986934,2.979450044161884,0.1550021420674419
0,5.1504778123074315,-14.18008884881433,0.7741012655598175,1.1105046218890555,0.16000221116638969
0,4.260889123101855,-7.3401919440701535,10.534966829902492,4.3915598287676385,0.16500228026534103
0,1.3313010425232648,-7.10029398796477,-6.9641672775937895,-0.21738434117083805,0.17000234936428882
0,5.28171357110424,13.269605023465655,0.2366989407327099,2.2036721058922923,0.17500241846324016
0,4.102126709040485,5.979505094349003,12.667565482454352,-0.5852708363803243,0.18000248756218795
0,-0.9274595438186486,0.7894062283960267,0.1884323449306512,-0.45421317441182496,0.1850025566611393
0,-3.3270451878664034,-2.1506915711868713,-9.000700474854757,-5.24315491461236,0.19000262576008708
0,-0.7966302235094728,-5.9407883013604685,-2.649832980000544,-0.7620960632427822,0.19500269485903843
0,1.0837853489785334,7.799116041035083,1.2310348266995395,8.358963373610294,0.20000276395798622
0,1.764201529401624,-0.670978540762111,1.7819029427264814,4.100023389789303,0.20500283305693756
0,8.114618317472088,0.19892795637462232,0.7727713655855052,4.011083978757919,0.2100029021558889
0,0.945035712612152,-5.911164464526889,-1.9663599073012672,-0.9678548664605746,0.2150029712548367
0,-4.834546286094547,-6.70125580029155,-5.605490878511591,-1.4567931531077407,0.22000304035378804
0,-0.9641276796844147,1.4486539526245992,-7.8246215503943946,0.5142691115186695,0.22500310945273583
0,-0.8437084690606994,4.098564798092475,0.18624807513552266,0.9953319201579133,0.23000317855168717
0,-3.2732886549387556,-1.7215232599589754,1.8471179965859124,-0.9436047344498139,0.23500324765063496
0,0.8671317621245326,-4.551610217676117,-0.15201178736431026,0.6574591404163888,0.2400033167495863
0,0.8375527816903775,-3.1016960711211454,-1.5911412780472296,3.1985235374479317,0.2450033858485341
0,2.6679744033381194,-8.89178081604378,-1.5202704767863973,0.9695884492463575,0.25000345494748544
0,-4.981603373419148,-1.8418644477303907,-3.5693993847960104,-4.529346131710753,0.2550035240464332
0,1.328819450920382,-6.431946960956486,-8.598528003057895,0.3517197870456815,0.26000359314538457
0,-9.260757124004929,-0.18202835003629436,-12.647656332086662,-6.087213801865932,0.26500366224433236
0,-3.94033309824954,2.6878913910382924,-2.8667843716648096,5.343853094382161,0.2700037313432837
0,-7.299908471393551,6.6478122683428476,-3.5559121207879008,-8.725079531218967,0.2750038004422315
0,-8.429483242425388,7.777734287689394,-0.3850395778986423,-11.614011685443833,0.28000386954118284
0,-3.149057409689244,-1.9023425455942946,0.975833258841099,-6.942943374516179,0.2850039386401306
0,-1.898630970932968,-5.802418226561501,13.316706391282334,2.8381253960951325,0.29000400773908197
0,-9.778203923432285,-12.22249275021084,-10.802420178987642,-5.310805378524164,0.29500407683802976
0,-11.417776263958398,-10.892566110965387,-11.511546450555407,-0.6397357030207775,0.3000041459369811
0,-9.977347988521972,-3.9026383023597764,-6.430672421624144,1.5713344181320215,0.30500421503593245
0,1.2330809077684508,-3.3327093170826614,1.1002019103550287,3.4524049805392982,0.31000428413488024
0,5.843510430443117,1.4172208527316204,8.351076548436204,8.773475979656595,0.3150043532338316
0,3.433940585133247,-2.71284778478541,6.301951495615983,5.504547410532821,0.32000442233277937
0,-4.525628622766706,1.1070847786099773,2.2828267544321146,1.8056192676568914,0.3250044914317307
0,1.3248028119643718,18.387018551107722,1.3837023269177648,3.4466915450191866,0.3300045605306785
0,7.515234894514668,6.916953540423847,5.224578214752646,0.7977642362653019,0.33500462962962985
0,4.1156676299059685,6.0068897533883,2.38545441933113,-2.5311626651650716,0.34000469872857764
0,-1.303898977211268,6.766827195936178,0.4163309417473044,0.08991083410409373,0.345004767827529
0,-1.9134649224841418,1.8167658733270562,-6.442792217097054,-6.199015272463021,0.35000483692647677
0,3.4169697983657428,8.3667057902893,4.818084943720341,2.942059008784101,0.3550049060254281
0,-1.8125948103766765,-7.2433530488763544,3.4789624251957516,1.8631336716520863,0.3600049751243759
0,0.98784125554007,-3.693410640060195,-0.8801597717763721,-4.6057912900259215,0.36500504422332725
0,-0.6417219996562007,-1.3034669790054163,3.420718353493082,-6.264715882369042,0.37000511332227504
0,-2.3412845717238415,-3.0135220611454856,-6.1784031984322185,-5.89364011120204,0.3750051824212264
0,-10.950846456283914,-20.563575881532717,-15.52752442687028,-15.23256398178502,0.38000525152017417
0,-6.25040764855978,-21.98362843442085,-10.916645330545538,-9.441487498552783,0.3850053206191255
0,-10.199968143097426,-15.223679712602761,-11.725765907149194,-13.380410664891867,0.39000538971807686
0,-2.9395279336697646,-0.8537297071738297,-3.294886153252188,-6.129333483072841,0.39500545881702465
0,-2.2990870133709764,-6.243778407954098,-1.5240060645466353,-9.868255954345674,0.400005527915976
0,-5.228645374813838,1.1561741959184315,-5.453125636181859,-8.357178079062273,0.4050055970149238
0,2.9717969897153695,19.046128115501567,7.067755136988246,3.053900143201223,0.4100056661138751
0,3.7922400881005487,10.786083361439887,2.5086362601793506,-0.4450212866187692,0.4150057352128229
0,3.1126839281463794,2.616039943413192,11.189517738364152,1.4160576325672116,0.42000580431177426
0,-3.0868714825787356,-7.424002129782869,-8.97960042393607,-9.642863098133299,0.42500587341072205
0,-5.416426136620982,-15.164042849552718,-7.098718222449201,-8.331783477388253,0.4300059425096734
0,-3.0559800263639794,-21.5140822066593,-9.267835652634743,-12.69070350326381,0.4350060116086212
0,-4.6155331438335585,-8.154120190572863,-11.766952709243757,-6.159623172949089,0.4400060807075725
0,-2.3950854806677393,2.195843210621602,-5.266069386143841,-4.158542482732756,0.44500614980652387
0,-6.104637028131096,-4.354191990273472,-8.505185676323856,-8.037461428169614,0.45000621890547166
0,2.8058122228610975,5.3357742198667655,8.405698427920782,-0.6563800042332046,0.45500628800441945
0,-5.423737718333281,3.0757418541742836,0.40658293459509465,-1.4952982054422979,0.46000635710336724
0,6.996713157794234,-1.144289074389355,1.2274678516207211,-1.5242160260225626,0.46500642620232213
0,-2.6228351392328375,5.545681446915642,-6.001646813242145,-5.503133460011754,0.4700064953012699
0,-5.33238259993847,-2.074346569358339,-11.830761052120959,-6.382050501177137,0.4750065644002177
0,-11.961929214683693,-4.564373110775259,-1.0598748566627254,-1.2909671428749745,0.4800066334991726
0,-9.751474973264742,-12.544398164762356,-13.55898821783471,-8.469883378004646,0.4850067025981204
0,-5.611019864620006,-16.694421718157976,-1.978101125897872,-3.3287991989994996,0.4900067716970682
0,-0.800563876870467,-10.204443756748113,1.3927864295193482,-1.8577145978239609,0.495006840796016
0,-5.410106997566094,-6.004464265091562,-11.656325540766398,-4.606629566031089,0.5000069098949709
0,-6.049649213865255,2.4055167732399285,-7.925437025525127,-4.215544094836689,0.5050069789939187
0,8.630809487420574,8.295499375135794,8.955451987013916,6.445541824840547,0.5100070480928665
0,8.891269119574133,-0.6845164425922297,8.916341508915735,5.626628202167693,0.5150071171918142
0,9.61172969546592,5.915469336523385,8.167231551913892,4.017715046046424,0.5200071862907691
0,9.972191227176378,17.73545672850577,16.91812212694534,11.878802364872527,0.5250072553897169
0,0.9426537259146603,10.48544574863314,1.7790132439539201,3.6298901664045116,0.5300073244886647
0,1.8531172022052997,15.145436411047914,10.559904911904674,9.58097845769049,0.5350073935876125
0,11.043581666122886,12.145428728599208,15.13079713888587,14.272067245011767,0.5400074626865674
0,9.154047127266042,7.435422712878333,13.431689932005069,14.093156533704702,0.5450075317855152
0,10.964513594491075,6.665418374378682,2.0625832972095255,8.664246327933483,0.550007600884463
0,5.484981075737661,5.955415722735152,3.0434772394525056,13.875336630645082,0.5550076699834108
0,10.705449578057667,9.755414766880685,10.614371763055544,18.88642744358979,0.5600077390823657
0,5.475919107683947,7.885415515036508,-2.0147331281505996,6.487518767211167,0.5650078081813135
0,4.696389670096759,5.305417974657948,10.306162569178666,15.138610600625213,0.5700078772802613
0,4.416861270142154,8.185422152459743,9.867058857871152,10.20970294173383,0.5750079463792162
0,10.387333912123065,9.175428054455745,16.997955740021048,6.600795787325033,0.5800080154781639
0,10.297807599720668,13.705435685876843,13.938853216624171,7.021889133201722,0.5850080845771117
0,5.3882823358130985,14.385445050965744,2.5597512873962636,2.6229829743984263,0.5900081536760595
0,-1.5912418774955066,9.815456152781163,-1.7393500489817473,-7.4659226945484685,0.5950082227750144
0,2.1092349614127346,5.10546899319705,2.761549205661144,0.16517212077097815,0.6000082918739622
0,9.229712853911412,7.875483573122399,-0.387550950653465,0.4162674149268284,0.60500836097291
0,8.590191801027864,12.5354998926843,4.873349480003091,-3.3426368173414196,0.6100084300718578
0,4.840671803169898,2.695517951218204,4.224250495370749,-4.171540581160121,0.6150084991708127
0,1.7611528600664128,-3.5144622526675873,0.7451520928973581,-5.170443881413361,0.6200085682697605
0,-4.208365029012045,-4.024440720704742,-4.703945730228878,-1.8893467226155023,0.6250086373687083
0,5.432118135037568,2.255582545445133,3.8169570231120193,3.5717508910542204,0.630008706467656
0,3.722602351246146,3.8856075442578932,4.637860350045152,2.772848955532338,0.635008775566611
0,12.873087618369315,3.8956342741281462,13.338764247474145,5.413947466602915,0.6400088446655587
0,8.003573934556542,6.375662733144671,-2.5103312882422695,7.545046419694682,0.6450089137645065
0,4.7840612971406005,15.585692918895237,5.4605737386595266,8.756145809713324,0.6500089828634543
0,10.274549702644961,0.2557248282354601,-6.768520676409501,2.867245630908176,0.6550090519624092
0,4.76503914686748,-7.144241542690676,-1.0776145380866589,0.3883458769206622,0.660009121061357
0,1.9755296249372742,-6.4642061979528105,3.623292149123558,0.6394465410142108,0.6650091901603048
0,-2.5339788685029787,-5.164169141272848,-2.0858006191871867,1.5605476162912166,0.6700092592592597
0,-4.953486338969943,-8.654130375784977,-2.6648928474246465,-6.208350904197985,0.6750093283582075
0,0.7870072081516626,8.585910095924453,1.9960154600515516,5.532750972640027,0.6800093974571553
0,8.74750176763484,11.695952271470484,5.94692429892487,10.903853239883096,0.6850094665561031
0,3.3879973341269136,9.755996148051494,0.8578336647309645,12.544955890206412,0.690009535655058
0,1.3984939018747147,0.4860417220423098,16.848743552634147,8.266058915433153,0.6950096047540057
0,1.4189914647412207,-5.323911010855281,3.4796539571786433,5.067162306398379,0.7000096738529535
0,0.559490016365568,-10.443862055072628,-15.15943512775693,0.38826605313712187,0.7050097429519013
0,9.919989550204056,1.546188585326909,8.151476291483572,7.079370145168479,0.7100098120508562
0,-0.9195099405838854,-3.913759093225261,3.00238820870581,0.5704745716480745,0.715009881149804
0,-7.189008463158579,-3.2537050939529637,-1.5666993822975441,-4.288420678554978,0.7200099502487518
0,-2.4585060247023156,-2.58364941981569,-6.015786487875443,-1.6573156166528613,0.7250100193476996
0,1.221997367880678,0.1764079264930194,-2.594873114280396,3.613789746260664,0.7300100884466545
0,4.202501707901103,5.9064669424378025,5.946040732502092,5.684895399130345,0.7350101575456023
0,-0.26699301137267895,5.886527625379133,6.436955046553846,3.62600133067495,0.7400102266445501
0,9.673513203108076,12.396589972254867,4.717869821652533,2.18710752922628,0.745010295743505
0,-0.44597965594106614,10.15665397927837,3.1587850510791067,4.118213982744463,0.7500103648424528
0,-2.1154715961543067,-3.113280358196747,3.91970072764715,5.0393206788562495,0.7550104339414005
0,-4.494962625304258,-10.483213045386329,-2.499383156178554,2.200427604826216,0.7600105030403483
0,-4.644452750994375,-12.503144087383632,-18.798466608008074,-4.048465252407591,0.7650105721393032
0,-10.033941980439566,-15.673073488484906,-8.987549634959912,-4.9673579060066775,0.770010641238251
0,-9.933430320253859,-10.403001251811306,-5.29663224317958,-4.456250368920231,0.7750107103371988
0,-5.8429177762702835,-10.122927379227132,-2.08571443786959,-4.855142653693213,0.7800107794361466
0,-0.3224043535390524,3.9771481284626833,2.67520377633028,3.615965227534073,0.7850108485351015
0,3.7181099433891487,11.027225271008078,11.246122394903939,5.8370732628146085,0.7900109176340493
0,5.278625110056677,17.50730404794821,16.167041412950752,8.058181440022226,0.7950109867329971
0,6.2791411417468295,10.577384457893757,13.667960824628821,1.4292897465549312,0.8000110558319449
0,3.6496580332858404,2.0074664982531734,8.668880622830148,-1.6396018306730444,0.8050111249308998
0,4.220175779003881,8.32755016545549,4.959800799243544,6.421506694969807,0.8100111940298476
0,2.4706943727964186,9.717635455230166,0.39072134468788544,5.332615309901359,0.8150112631287953
0,4.581213808188553,-1.1922776373403654,-5.788357750469616,5.543724000173724,0.8200113322277431
0,11.55173407830917,6.537810882246044,11.612563504022678,9.224832751305906,0.825011401326698
0,3.992255175727188,6.697901008047675,7.623485098258547,5.265941548188018,0.8300114704256458
0,3.642777092345127,13.207992733610048,3.1744070218393428,6.387050375040581,0.8350115395245936
0,12.273299819446107,2.888086051743072,5.315329263732974,0.8681592154703116,0.8400116086235485
0,9.663823347655036,1.8981809544894779,13.046251812324869,-2.8307319473359422,0.8450116777224963
0,3.674347666778026,-2.721722566606274,1.747174655355086,-12.979623130262697,0.8500117468214441
0,3.904872765832922,-4.471624520125252,-3.7119022200828757,-7.9185143497890085,0.8550118159203919
0,4.4453986332716475,-2.4315249144900206,-6.2809788271794496,-5.637405621626476,0.8600118850193468
0,8.725925257094016,-9.89142375778514,4.919944821011359,-10.556296960664051,0.8650119541182946
0,14.26645262472117,7.138678942316691,8.600868711571884,-5.765188381018841,0.8700120232172424
0,9.92698072271488,5.418783178382425,17.451792831265003,-0.9640798960941439,0.8750120923161901
0,9.047509536578678,8.398888942792073,8.852717165979156,1.1970284812287744,0.880012161415145
0,5.788039050798751,7.568996227363028,5.893641700473481,7.458136738231818,0.8850122305140928
0,14.858569248970554,11.269105023178081,17.324566418458602,10.799244861964373,0.8900122996130406
0,4.399100113808395,-2.3207846794547846,-0.904508697308869,-0.3996471610795882,0.8950123687119884
0,1.4496316271719598,12.219327109107185,-0.9535836648744228,-3.5785393449584193,0.9000124378109433
0,0.8201637703215159,6.86944037793199,0.1673414973127646,-1.3774317039284176,0.9050125069098911
0,3.8106965242267523,-9.030444884483144,3.6982667707293655,6.70367574782105,0.9100125760088389
0,7.741229869621953,-9.89032868989546,-3.7508078631932973,2.67478299606149,0.9150126451077867
0,8.06176378683751,-7.920211049684005,8.270117576885141,6.125890026271829,0.9200127142067416
0,2.612298255611053,-1.9300919744852956,4.901043072119167,8.786996823476766,0.9250127833056894
0,0.41283325510895064,-2.8399714742853193,-11.628031396618852,3.668103372133335,0.9300128524046372
0,-0.7166312358498765,0.020150441322035806,-1.8971058485206354,4.459209656097546,0.935012921503592
0,3.993904761421468,9.330273762884643,7.583819697479612,6.580315658690764,0.9400129906025398
0,6.894441225469631,-4.959601519166466,2.0747452225713667,8.031421362717431,0.9450130597014876
0,2.394978134527883,-15.69947541450749,4.545670707706217,8.892526750364627,0.9500131288004354
0,8.78551546637319,6.650652067480353,12.016596133402386,9.0036318030648,0.9550131978993903
0,2.6060531982735173,0.09078091789073728,12.377521479548626,5.13473650143955,0.9600132669983381
0,-6.233408692951271,-4.189088871989223,-5.731553274796651,0.6558408253884496,0.9650133360972859
0,-6.132870230615824,0.6310426891561474,-0.6306281512022587,5.816944754298886,0.9700134051962337
0,-7.132331437728826,-8.178824407213547,-9.139703171332018,-1.8419517327796933,0.9750134742951886
0,-5.291792336736378,-1.5686901693508892,-2.268778356526354,4.6391513429641495,0.9800135433941364
0,0.49874705049171875,0.6014453948350826,7.992146272265105,3.6602539601246424,0.9850136124930842
0,2.13928670246304,2.451582277657911,6.523070694167624,9.041356096993624,0.990013681592032
0,-4.580173402183169,1.6617204714276705,4.2439948879410885,3.392457731385197,0.9950137506909869
0,0.12036671524252529,8.09185996826958,1.0049188318167668,10.13355884052369,1.0000138197899346
0,4.91090703351193,4.472000759961846,0.3358425036353363,3.964659400993582,1.0050138888888824
0,4.8814475313392816,-0.4778571621763388,-1.0932341189408117,3.0557593887578673,1.0100139579878302
0,4.431988187138285,3.2022861927975637,-2.202311058274845,4.296858779265657,1.0150140270867851
0,-5.817471021045901,2.692430815589975,-1.4313883366398072,-3.3720424523860837,1.020014096185733
0,-6.246930115301306,-0.07742330329000269,-9.110465976113986,-4.170944331249241,1.0250141652846807
0,-6.636389117448407,-1.3072761734967373,-4.819543998412653,-10.879846882209094,1.0300142343836356
0,-3.7458480487794823,0.6028721952612237,-0.09862242475109162,-7.7787501296293495,1.0350143034825834
0,-8.765306930013057,-5.596978206671741,-15.257701275843372,-8.787654097110766,1.0400143725815312
0,-7.344765781271572,2.9731726111763783,-5.686780571821222,-5.326558807433649,1.045014441680479
0,2.4657753779357736,9.273324639347628,-1.2958603320791546,5.614535717293961,1.0500145107794339
0,-1.3536834714459909,-1.6465221318085983,-0.6649405753983959,-1.3243705447091094,1.0550145798783817
0,-2.8431423482784126,-6.776367712238075,-4.334021320237375,-4.683277615183992,1.0600146489773294
0,-2.8826012713042086,-16.54621211180487,-2.343102584845582,-2.53218551580078,1.0650147180762772
0,-1.0820602590664679,-5.466055339706209,3.5378156127479383,-0.1510942679945575,1.0700147871752321
0,1.9384806700892676,1.214102595767271,-0.24126674537879533,1.5799961070060018,1.07501485627418
0,9.679021497838619,2.394261686922995,10.849650322749318,-5.278914411938122,1.0800149253731277
0,15.889562205496524,8.454421926149369,15.840566798681893,14.572174154036368,1.0850149944720755
0,3.8601027735742353,11.43458330547483,15.10148266307942,17.963261783481784,1.0900150635710304
0,-12.969356818259975,-11.435254183655283,-2.5176021045916106,-8.255651545847778,1.0950151326699782
0,-19.418816590490408,-14.025090550069438,-21.156687525678414,-16.444565856877123,1.100015201768926
0,-8.148276562797529,-8.114925802118453,-11.325773621313845,-13.163481172275654,1.1050152708678809
0,-7.927736753612066,-4.584759947205562,-12.284860411541635,-6.682397513657602,1.1100153399668287
0,-9.52719718026342,-7.0345929918723655,-15.543947915065356,-11.331314901475377,1.1150154090657765
0,-17.806657859136003,-8.324424941987878,-14.703036149267511,-18.620233355126572,1.1200154781647242
0,-11.856118805516383,7.695744197152846,-5.342125130203859,-11.479152892828404,1.1250155472636791
0,-10.245580033410992,6.265914420532592,0.36878512718691303,-4.118073531497118,1.130015616362627
0,-2.495041555634504,3.666085722923306,-0.7703053913877118,3.4230047129714976,1.1350156854615747
0,-0.14450338416919428,6.356258098603085,-1.339396699990431,-1.3259181748484385,1.1400157545605225
0,-3.4739655305625066,-2.4335684586218784,2.3415111873876504,-4.63484221027899,1.1450158236594774
0,-4.503428006116831,-0.6533939552432235,-5.727581743201444,-0.5837674085346405,1.1500158927584252
0,0.17710917811473126,2.236781602162309,3.873324494362947,2.0673062153525708,1.155015961857373
0,1.1876460113213438,9.436958206949509,2.2342298862531997,0.30837864643951646,1.1600160309563208
0,0.39818248278283686,7.547135852147785,2.355134418555762,3.8894498697206514,1.1650161000552757
0,2.4587185817351096,9.067314530151217,10.366038077096935,2.790519870019371,1.1700161691542235
0,0.5092542973058859,2.077494232602052,-1.0730591527083346,-0.03841136807115486,1.1750162382531713
0,-2.5802103814789454,-3.1723250494617075,-10.41215728580401,-2.0473438601416283,1.180016307352119
0,-2.3496754655986125,-3.8121433252435946,0.6587436628878873,-4.696277621795463,1.185016376451074
0,5.260859034059115,0.5480393961510925,3.5996436787502506,-0.7452126684588631,1.1900164455500217
0,-1.128606893366762,-14.961776894099973,-7.919457252637532,-0.9341490153107881,1.1950165146489695
0,-11.36807325876297,-11.981592204290097,-13.148559145506642,-11.873086677282272,1.2000165837479244
0,-9.067540072754278,-10.211406541802296,-10.437662013507502,-10.162025668873238,1.2050166528468722
0,-5.077007345304018,-12.201219912897889,-0.9267658693798815,-7.210966003830328,1.21001672194582
0,-12.746475085558938,-15.871032322688903,-19.955870724967742,-14.039907694972104,1.2150167910447678
0,-4.325943301853927,-1.9508437751216192,-4.024976591239817,-3.8288507541702588,1.2200168601437227
0,0.8745879982205393,-2.6506542731387728,-3.294083478227869,-0.6177951924494149,1.2250169292426705
0,-1.4848811924390386,-1.7504638190767368,-6.153191395211167,-2.4067410202775434,1.2300169983416183
0,-3.214350880728773,-6.160272414950691,-8.692300350923112,-4.655688247834699,1.235017067440566
0,0.816178926586939,-2.3200800624709297,-12.711410353480817,-4.174636885036706,1.240017136539521
0,-3.303291777106882,-6.879886762966202,-5.9805214101659265,-5.163586941432448,1.2450172056384687
0,-3.9327629982641774,-6.039692517314835,-8.859633527349967,-9.2325384261101,1.2500172747374165
0,-2.892234743104591,-0.499497325900518,-4.188746710578891,-3.7714913475902114,1.2550173438363643
0,-2.4817070175439526,-0.7593011886867944,2.2621390352335795,-2.460445713798571,1.2600174129353192
0,-9.071179827158968,-7.419104105367149,-11.376976294405814,-4.549401532179023,1.265017482034267
0,-4.620653177095059,3.3210939246024314,-1.7660927036291867,-3.658358809803996,1.2700175511332148
0,4.0898729280015935,-4.088707097997584,-12.655210196063331,-1.537317553399499,1.2750176202321626
0,-8.28960151616015,-10.278507172161175,-5.7843287746630905,-9.706277769335376,1.2800176893311175
0,-9.089076513595707,-12.078306296443442,-11.383448441597698,-12.6752394634932,1.2850177584300653
0,-4.128552067843738,-5.528104468618607,-7.032569198188397,-10.32420264097153,1.290017827529013
0,-2.668028181816592,-4.357901685582132,-8.701691044896819,-7.783167305859184,1.295017896627968
0,-5.327504857904534,-2.707697943548581,-11.400813981334545,-6.702133461271036,1.3000179657269157
0,-8.286982098067924,0.42250676169866963,-5.069938006246459,-12.541101109469027,1.3050180348258635
0,-9.426459903719824,-4.037287565371855,-10.689063117516907,-11.42007025184287,1.3100181039248113
0,-3.0759382755785034,-14.817080920024985,-7.218189312211038,-12.799040888757725,1.3150181730237662
0,-5.465417213675048,3.4431267029671275,-9.657316586575167,-0.05801301950369872,1.320018242122714
0,3.7051032824621757,5.07333530935504,6.833555063892297,1.8830133574425516,1.3250183112216618
0,-6.4443767864131765,-9.336455094917207,-6.405574355841472,-4.835961756030372,1.3300183803206096
0,-12.37385741929968,-16.636244503757318,-19.524704840503635,-8.234938357855292,1.3350184494195645
0,-8.913338614661962,-12.78603291039211,-14.603836384132007,-11.37391644556343,1.3400185185185123
0,-12.592820370082887,-15.025820306842379,-7.622968979533129,-11.85289601592935,1.34501858761746
0,-5.002302682144489,-1.8256066838219778,2.35789738170366,-5.491877064761489,1.3500186567164079
0,-11.151785546485307,-3.7753920310164806,-2.4112372912986224,-3.4708595869526344,1.3550187258153628
0,-5.121268957897124,6.914823662448998,-7.530372989126243,-1.589843576741665,1.3600187949143105
0,-2.0207529104297626,4.025040407530574,-5.909509702066565,-0.7688290279932912,1.3650188640132583
0,-7.370237397549352,-9.474741785005568,-10.748647419880868,-3.937815934352823,1.3700189331122132
0,-1.8797224122653173,-8.144522904405928,-13.817786131567651,-0.02680428928207307,1.375019002211161
0,1.4507920527999685,-3.9043029394881676,0.7930741747863985,-4.325794086041871,1.3800190713101088
0,0.15130600524881288,1.2259181215210693,-1.1760664881141536,-6.924785317646359,1.3850191404090566
0,-3.4981805472621854,-0.5338597092330064,-2.9152081071459937,-5.203777976723991,1.3900192095080115
0,-2.3376675970057885,5.146363580476526,-4.384350668979119,-2.082772055407999,1.3950192786069593
0,-5.397155136049265,7.686588002717842,9.726505839892772,-1.201767545386848,1.400019347705907
0,1.733356843828871,-0.03318643080995054,-2.852638567005068,-3.7707644380526015,1.4050194168048549
0,7.633868351039409,17.967040291080334,12.6282161236159,1.0102372754152256,1.4100194859038098
0,9.91437939382598,11.897268178848872,19.649069924510016,7.841237603943808,1.4150195550027576
0,11.944889979833338,8.347497241912475,12.409922847427357,8.152236556282501,1.4200196241017053
0,8.165400115803916,1.49772748860493,4.470774902778429,5.803234140658617,1.4250196932006531
0,3.9259098075360708,-2.6320410734659965,2.131626099845149,2.8342303646449065,1.430019762299608
0,2.5064190600653644,-6.921808436915524,-18.817523552612137,-6.464774764671347,1.4350198313985558
0,2.936927877934528,-2.4615745941672205,1.453325954351931,-0.7537812403375264,1.4400199004975036
0,7.527436265332764,3.9086604626993884,12.484174630180712,-0.8027890552446539,1.4450199695964514
0,4.777944226042793,4.378896741757492,10.685022484338878,0.3582017979013362,1.4500200386954063
0,7.088451763327159,6.0491342508966905,14.155869525570491,-1.9008086735176006,1.455020107794354
0,4.268958879874871,9.999372997557415,3.8567157615469743,5.270179537908274,1.4600201768933019
0,1.4994655778393151,7.199612988541874,6.267561198954419,0.8611664395193488,1.4650202459922568
0,3.1699718589607566,0.9998542299315512,10.318405843712515,6.212152038448928,1.4700203150912046
0,6.100477724662985,9.870096727179622,10.589249701016595,9.233136341474978,1.4750203841901524
0,-0.29901682395272855,5.550340485193683,7.240092775206986,0.30411935486758046,1.4800204532891001
0,-1.188511786084058,5.460585508282861,1.7809350697596402,3.495101084376573,1.485020522388055
0,3.961992838922974,4.100831800149542,4.521776587495982,10.606081535326823,1.4900205914870028
0,2.6324970516210704,-0.01892063599813545,-1.8973826691678082,7.307060712549077,1.4950206605859506
0,10.563000852321874,9.861328202671373,9.833457301918829,13.67803862013981,1.5000207296848984
0,7.1335042408503355,6.141578318580991,18.194296502503537,8.039015261264378,1.5050207987838533
0,4.884007216354242,7.701829713570477,1.0851349335449634,9.809990638093412,1.510020867882801
0,9.814509777267668,15.772082388733113,9.175972595025936,5.900964751850033,1.515020936981749
0,7.565011921324994,7.472336344240825,2.236809486150245,6.041937602938089,1.5200210060806967
0,1.2155136455463564,12.272591579208157,3.2676456055744607,6.052909191077323,1.5250210751796516
0,4.186014946353692,1.7128480917367082,7.69848095151691,7.72387951536621,1.5300211442785994
0,3.1765158197569994,1.903105879147998,13.719315521695707,11.164848574244614,1.5350212133775472
0,3.0670162614437144,-6.846635061647937,10.030149313058518,7.415816365367615,1.540021282476495
0,3.5875162667784495,-5.466374733727214,-7.389017678353761,-1.073217114414856,1.5450213515754498
0,2.148015830811298,-2.3361131398242887,0.1318145429312981,-0.03225186881784982,1.5500214206743976
0,6.128514948275419,-3.845850282239523,6.322645972285813,4.228712098210773,1.5550214897733454
0,3.659013613550441,4.534413837052995,-3.0765233949388895,2.6896747825844023,1.5600215588723003
0,10.299511820565247,20.374679216075766,15.874306436399774,7.120636179960698,1.565021627971248
0,4.260009562675499,4.604945852269538,2.955135460993026,-2.3884037143619823,1.570021697070196
0,5.160506832599735,5.465213742097986,7.025963672878461,2.3825550946080725,1.5750217661691437
0,0.8510036224961295,8.5654828811472,13.506791065360687,-1.1164873982939048,1.5800218352680986
0,4.181499924123559,7.205753264315674,14.767617630902913,3.044468801705422,1.5850219043670464
0,5.051995728923071,-3.7939751141248506,5.688443360890305,3.345423689282329,1.5900219734659942
0,3.3424910279895728,-0.23370226031421026,3.6392682456372993,5.126377258901245,1.595022042564942
0,2.97298581202567,0.9765718195196534,-0.9499077252751196,2.0473295047008273,1.6000221116638969
0,3.2134800713724885,3.2568471191607453,-7.2490845625601885,3.0482804204623744,1.6050221807628446
0,5.103973796039374,9.307123632250951,5.221737723125504,2.5592299996578745,1.6100222498617924
0,3.8844669756794694,6.737401352023275,-10.007440878675027,-1.9498217644814027,1.6150223189607402
0,-5.615040400398253,2.1976802711075702,-3.766620378161109,-4.648874878832108,1.6200223880596951
0,0.7454516569612957,-1.912039618400281,-3.5858007851350244,0.7620706498307233,1.625022457158643
0,2.4759431369604212,-0.14175832465784255,-10.394982108899567,2.283014814900221,1.6300225262575907
0,0.7164340288219806,-4.731475855815563,-12.80416435814354,0.4239576098080312,1.6350225953565456
0,0.936924321670521,-5.391192219837846,5.156652459216352,-6.385100972057432,1.6400226644554934
0,4.337414004493365,-1.8809074243572752,-7.392531664076354,-2.2641609372161606,1.6450227335544412
0,5.007903066070745,4.029378523327181,4.298283265064522,6.646777708037323,1.650022802653389
0,2.918391494859984,-1.230334383945782,3.209097239820987,3.527714957458456,1.6550228717523439
0,3.0688792789349435,6.519953846584839,6.629910253250189,3.138650804551962,1.6600229408512917
0,-5.830633593926316,-3.269756792500405,-1.649277701919352,-3.1304147575148185,1.6650230099502394
0,-8.17014713596627,-4.209466308748693,-12.768466633189911,-5.079481735706876,1.6700230790491872
0,-0.7096613591047669,-10.669174709572072,-0.8676565478642713,-0.59855013684531,1.6750231481481421
0,-0.6291762748179928,0.491117998069351,-2.236847452748044,-0.1976199674934454,1.68002321724709
0,-3.198691894287678,4.151411807688794,-0.21603935423593645,7.113308765911554,1.6850232863460377
0,-4.908208228497663,2.561706712951165,-4.655232258510062,4.894236056783443,1.6900233554449855
0,2.122274711812028,2.3520027073460836,3.015573828411244,7.345161898118596,1.6950234245439404
0,1.362756916102517,-0.2177002158910759,3.0463789006063386,2.63608628236972,1.7000234936428882
0,-0.29676162613616897,-1.207402063685133,5.157182952051588,10.417009201430036,1.705023562741836
0,-2.6762809254620827,-2.6371028429812626,1.2979859764349888,6.587930646594358,1.7100236318407838
0,-1.815800992391055,-0.0768025606236003,3.1687879671117196,2.758850608490034,1.7150237009397387
0,5.274678162668453,-2.076501223315925,4.049588917143702,5.099769077136738,1.7200237700386865
0,7.855156529267649,3.9738011623391243,19.040388819199464,6.990686042062796,1.7250238391376342
0,4.525634096603572,3.2841045897161214,4.631187665223734,8.14160149228254,1.7300239082365891
0,-2.853889146621473,3.6544090519938037,4.06198544620847,5.722515416181941,1.735023977335537
0,-3.8834132120035347,4.844714542026628,-2.7472178475923994,2.9334278014891346,1.7400240464344847
0,1.4570618888963984,5.825021052279917,5.513577773730804,4.944338635381996,1.7450241155334325
0,2.607536144647288,4.975328574759629,6.724372299884488,3.3652479046019237,1.7500241846323874
0,6.968009543772872,7.685637100950863,3.9151657202310313,-1.3838444044707112,1.7550242537313352
0,7.658482074471964,13.475946621717016,-0.48404197632517276,1.0070616943108237,1.760024322830283
0,2.1089537244177476,5.336257127122933,4.276749198765994,-3.862033812968104,1.7650243919292308
0,2.8894244807497675,3.9165686063702765,7.367539233787795,-1.7311309401433594,1.7700244610281857
0,-1.680105669760127,-8.233118951954719,5.298328116643063,-1.340229700873592,1.7750245301271335
0,-3.939636740476593,-6.7728055593788,-4.160884165239332,-7.4193301085893495,1.7800245992260812
0,-1.2791687446845297,-0.8124912270859097,-4.9800976246972954,-10.678432176360605,1.785024668325029
0,-0.9387016954631753,-2.7721759658002005,-3.30931227445048,-10.187535916621142,1.790024737423984
0,-4.78823560568808,-2.1518597859192954,-3.418528126863599,-5.756641340942908,1.7950248065229317
0,-10.687770487962677,-9.911542697566194,-8.977745193899107,-10.975748460012785,1.8000248756218795
0,-11.857306354353213,-8.38122471042065,-8.886963487009618,-7.484857283682502,1.8050249447208273
0,-8.476843216071904,-13.520905833444019,-5.646183016964875,-6.013967820980641,1.8100250138197822
0,-7.716381083356142,-15.260586074616006,-9.91540379377379,-2.2730800802008826,1.81502508291873
0,-5.025919965559841,-1.240265440777972,-5.894625826689748,-0.6321940691082397,1.8200251520176778
0,-6.025459871319203,-7.9699439377551595,0.7561508757252657,-3.061309795158412,1.8250252211166327
0,-6.345000808660214,-10.21962157061685,-12.173073694541682,-5.990427265582049,1.8300252902155805
0,-5.384542785034201,-4.879298343739983,-5.962299544996608,-1.809546487310878,1.8350253593145283
0,1.8859141926383847,0.2510257391912437,-6.79152668249534,0.511332533062427,1.840025428413476
0,-10.353629882157865,-2.6686493250218946,-6.780755113178932,-1.8277902108288588,1.845025497512431
0,-7.6131750155408575,-10.47832353927736,-5.149984842523066,-4.206914725215414,1.8500255666113787
0,-1.522721213067017,-5.497996906063694,-5.7492158753946185,-2.6960410161463244,1.8550256357103265
0,3.7177315202393033,-0.1876694272881851,0.8015517838707071,4.634830910562523,1.8600257048092743
0,2.1881831795540805,1.1926588956123978,13.242318131211508,-5.574298950771507,1.8650257739082292
0,1.8386337599368665,3.332988061354893,3.293083162367996,2.6065693942104025,1.870025843007177
0,-2.140916743745335,0.8133180685658559,-2.8161531274522895,-2.0225640600748185,1.8750259121061248
0,-2.8104683367003283,4.143648915676379,-8.285390743369488,-10.001699319091658,1.8800259812050726
0,0.41997897595023104,12.163980600824733,10.305370309576867,-1.9708363880018187,1.8850260503040275
0,1.2904251892106855,2.774313121644567,8.626130026394444,-5.919975271485128,1.8900261194029753
0,7.720870298073045,5.554646475117775,10.52688840166051,2.130884026237419,1.895026188501923
0,3.4413142972793045,2.8449806576515764,3.767645429155945,0.011741501219031378,1.9000262576008708
0,4.121757181147523,1.335315665230342,-9.991598898025561,-6.577402850369806,1.9050263266998257
0,6.572198943533714,9.255651493494254,-1.1808445869866442,1.6334509677752818,1.9100263957987735
0,6.34263957781284,10.4459881376422,-3.1200916445730047,4.764302952116667,1.9150264648977213
0,4.093079076820411,4.936325592201015,1.4106599227009475,1.1151530990946341,1.9200265339966762
0,6.313517432835268,3.2666638509417485,7.0914101084461585,-0.15399859505002295,1.925026603095624
0,2.2239546376277755,-1.9529970929229754,0.8421589061274813,-0.8031521342354156,1.9300266721945718
0,-0.9256093174521776,-9.602657246377058,1.6829063089048228,-3.172307522390569,1.9350267412935196
0,-4.465174441263009,-10.612316616145128,-13.256347690234653,-8.32146476329063,1.9400268103924745
0,-5.764740742578567,-6.52197520827443,-9.245603098049342,-8.350623860320255,1.9450268794914223
0,-6.93430822981764,-6.471633027981512,-3.3348599206128524,-4.329784816249917,1.95002694859037
0,-1.8538769108940014,-6.311290079731264,-3.704118163247682,-1.3089476332076997,1.9550270176893179
0,-0.093446793255691,0.8990536326195776,-1.563377830746574,0.9018876871151098,1.9600270867882728
0,-0.1530178840756134,9.559398105562185,0.8173610724029753,3.30272114319114,1.9650271558872205
0,-3.372590190411868,3.5397433354934704,6.408098541821878,-1.966447266552149,1.9700272249861683
0,8.907836280726602,13.910089318306213,11.138834572938121,23.134382456086332,1.9750272940851161
0,2.1582615222258794,2.130436049175072,-9.050430839280427,2.4052103087158043,1.980027363184071
0,-8.90131447326798,-2.3792164774162186,-9.709697700154518,-13.02396371185255,1.9850274322830188
0,-12.650891713090365,-19.388868267245435,-13.638966014665527,-14.373139609040877,1.9900275013819666
0,-4.760470204020358,-10.718519325602935,2.531764213028448,0.4176826143522253,1.9950275704809215
0,2.0799500479313013,-9.098169656709464,-5.307507020467796,5.448502956312636,2.0000276395798693
0,0.24036903723705946,12.05218073624076,4.223220281849966,1.959321415095328,2.005027708678817
0,4.130786758456917,4.452531850444543,10.723946117035526,4.5801379887574445,2.010027777777765
0,5.711203205983962,11.37288368276655,-2.035329518147969,7.570952674992687,2.0150278468767198
0,2.1016183738898233,8.50323622934375,-1.334606627342113,4.171765471036352,2.0200279159756676
0,9.87203225582506,10.403589485443433,14.496114785544098,0.83257637361695,2.0250279850746153
0,7.182444844914624,7.773943445419468,10.376834716218744,1.273385379070783,2.030028054173563
0,-0.5371438663342261,-6.2857018971829675,-7.572446840302119,-4.195807516450411,2.035028123272518
0,-8.046733885869074,-10.135346549192606,-14.481729889455284,-11.945002316710802,2.040028192371466
0,-8.666325221602754,-11.384990517144983,-4.371014436358298,-10.33419902500485,2.0450282614704136
0,-8.345917880923407,-6.584633806782406,-8.720300485323408,-5.113397643813038,2.0500283305693614
0,-5.9855118704636885,-14.684276422896293,-7.059588039846963,-5.9625981747601635,2.0550283996683163
0,-3.595107196123297,-4.46391836931458,-17.60887710263216,-5.81180061878026,2.060028468767264
0,-7.4947038631950695,-1.043559648983255,-2.1681676754456642,-3.301004976240862,2.065028537866212
0,-5.664301876426621,-5.353200264229897,-2.837459759114201,-1.230211247031264,2.0700286069651597
0,-3.6539012400074844,-2.102840217002301,-6.286753353806899,-0.9794194307087174,2.0750286760641146
0,-1.313501957618711,-6.622479508909426,1.5639515407153677,1.7413704733450133,2.0800287451630624
0,-0.1431040325914406,4.037881858790916,-2.625345075019649,7.102158465747971,2.08502881426201
0,0.5672925319142214,5.298243885035117,5.275356799661293,7.812944546865833,2.090028883360965
0,-5.432312267182817,-5.2013934313104615,-6.513942834560837,1.7337287165658506,2.095028952459913
0,-4.571918432812493,-2.851030091487185,-0.7032439769806281,1.204510974199063,2.1000290215588606
0,3.018474032372739,5.839333903333747,4.647453373221193,0.6952913187855784,2.1050290906578084
0,3.5188651259226287,6.499698551997932,15.448149216807785,1.1160697491862352,2.1100291597567633
0,-0.9107451546587088,2.81006385306357,-0.08115644594289127,4.966846264141352,2.115029228855711
0,1.3596431879695017,0.24042980465635327,5.20953638454047,-3.9623791377716864,2.120029297954659
0,5.06003015101637,6.440796404560748,7.560227707256862,-2.511606458076964,2.1250293670536067
0,6.170415731479904,5.231163650255643,9.920917520678447,-5.200835698187402,2.1300294361525616
0,2.8207999259796037,-2.518468461150572,-1.5283941773592102,-6.540066859192461,2.1350295052515094
0,3.061182730688971,4.34190006713613,-4.957707389528897,-4.499299941719049,2.140029574350457
0,0.2815641414223735,1.9122692317180705,7.742977881335805,-2.918534945887466,2.145029643449405
0,4.251944153742733,3.2126390290019473,6.873661632331156,1.5422281286009911,2.15002971254836
0,3.522322762985671,1.3130094551476652,5.874343860195916,0.5529892822586815,2.1550297816473076
0,2.7726999642048713,9.063380506038374,1.5150245611076374,5.623748515593949,2.1600298507462554
0,-3.6269242478268797,1.133752177191437,4.435703730751511,2.444505828921558,2.165029919845203
0,-3.866549878437305,0.5241244637112351,-5.143618635505407,4.425261222242036,2.170029988944158
0,-2.8761769327990745,0.544497360414886,9.527057457536799,7.33601469517508,2.175030058043106
0,-1.1658054157945443,-0.6751291379907987,2.767732004900208,8.426766246852598,2.1800301271420537
0,-2.7854353320399445,-7.394755036777342,-8.371594998659239,3.4075158757926136,2.1850301962410086
0,-2.635066685931418,0.8856196589668831,-7.410923558439158,3.8582635798918616,2.1900302653399564
0,-3.5746994816315136,-2.814005055567893,-7.370253679330144,-0.1009906434207801,2.195030334438904
0,-3.994333723020731,-3.31362918495064,1.7704146344030778,2.3997532029965374,2.200030403537852
0,-2.3239694136548854,-2.0232527335317028,3.051081378934014,1.680495116105908,2.205030472636807
0,0.9963934432082346,-9.082875705372102,-9.428253449419751,-4.048764907254937,2.2100305417357546
0,-10.233245155446621,-11.482498104069837,-10.537589854158231,-5.988026870232569,2.2150306108347024
0,-9.592885212283193,-11.30211993247375,-5.996927838226405,-6.207290775698826,2.22003067993365
0,-10.54252672930166,-10.931741192438256,-1.1562674038221787,-6.166556626029085,2.225030749032605
0,-3.312169707635248,1.5786381151874254,0.884391447413613,-5.895824423014082,2.230030818131553
0,-1.7718141476409617,2.8390179902428674,3.1550487140502668,-3.0750941678712587,2.2350308872305007
0,9.548539950742132,16.61939843267357,3.5457043945925726,4.195634138635194,2.2400309563294485
0,2.5988925875388604,4.449779441918966,11.296358487259056,6.616360495892426,2.2450310254284034
0,-7.750756237529919,-3.5998389833550775,2.6570109897666594,-2.4529150969016547,2.250031094527351
0,-10.950406524802709,-1.1794568449710905,-17.482338100645283,-4.292192640787535,2.255031163626299
0,-1.1800582741834562,11.08092585513057,-2.3016887866909874,-1.88147213678693,2.260031232725254
0,5.600288514991564,0.8613091148383123,1.1189589294698516,-0.4607535856986492,2.2650313018242016
0,-7.77936615634659,-6.708307068293258,-4.630394953828331,-11.420036988050196,2.2700313709231494
0,-7.5090222871392625,-6.147922696803308,-9.629750437956794,-8.309322343951939,2.2750314400220972
0,-1.7186798759809525,-2.097537772911632,-8.429107523846744,-10.078609652811197,2.280031509121052
0,-2.398338920978561,-8.487152298352754,-5.6984662117311835,-15.457898913111023,2.28503157822
0,-7.557999419843016,-1.5667662743775435,-14.707826501043014,-17.787190122210603,2.2900316473189477
0,-2.077661369913721,-3.8563797017769845,-4.977188390356601,-16.0064832760763,2.2950317164178955
0,-0.8373247681273622,-4.385992580944812,-8.15655187734704,-9.575778369141046,2.3000317855168504
0,-1.576989611117875,7.1643950880193055,1.484083041074754,-8.975075394434903,2.305031854615798
0,3.493344104626925,0.8247833050998552,4.974716368440053,-7.364374343880535,2.310031923714746
0,-0.35632361737555995,-0.32482792986814707,-11.024651891598602,-7.583675208513178,2.3150319928136938
0,-3.575992773659819,-6.8144386171781814,-4.114021735264217,-6.06297797860271,2.3200320619126487
0,-5.4756633607020095,-2.2140487569964944,6.556606841552707,3.347717356220942,2.3250321310115964
0,-1.9653353747170832,1.626341650806609,3.167233843173133,0.7384108066907826,2.3300322001105442
0,-3.4450088115600037,-3.7732673934061403,-14.712140726143788,-1.9208976163928442,2.335032269209492
0,-0.8446836667699495,-6.36287588910703,-13.651516861946774,5.3697920977109,2.340032338308447
0,-1.3943599356502467,-13.17248383541995,2.3191054409526255,0.4604799596436491,2.3450324074073947
0,-6.514037613304667,-8.772091230780848,-4.390273811446177,-7.918834020072224,2.3500324765063425
0,-2.56371669457005,-10.031698072692016,1.0403453872913524,-3.458149830835742,2.3550325456052974
0,-9.233397173886255,-5.2613043576994105,-8.889036956183306,-3.7974674616922997,2.360032614704245
0,-6.993079045165691,-5.3109100815282595,-11.148420834879468,-3.796786901256618,2.365032683803193
0,-4.982762301682371,3.4994847606949206,6.062193758752712,3.5738918621992974,2.3700327529021408
0,0.6775530639059577,5.849880174104641,10.852806832670005,-0.47543115942846054,2.3750328220010957
0,-4.032132940643693,-7.989723836224184,-2.856581605317682,-4.6647559542188155,2.3800328911000435
0,-8.301820307286455,-8.409327265237554,-8.415971547752722,-6.934082510142368,2.3850329601989912
0,-3.771509027591656,-8.988930107493465,-8.235362987120084,-8.543410814787295,2.390033029297939
0,-5.531199092603839,-6.198532356828106,-16.7047559152918,-11.632740855093283,2.395033098396894
0,-9.360890492814214,-4.808134006314505,-10.614150323145388,-14.702072617120326,2.4000331674958417
0,-4.730583218109493,4.162264951562154,1.4964537995531173,-8.541406085839935,2.4050332365947895
0,0.4697227422328696,2.202664524582819,2.857056463828726,-2.9107412451268395,2.4100333056937373
0,1.2200273993519923,-3.3669352795018233,-1.4823423190496126,6.949921921913198,2.415033374792692
0,0.34033076450977306,-2.266534452997267,-9.141742537796453,-0.14941656758965427,2.42003344389164
0,5.430632848900265,3.063867011870952,-1.1811441809208134,1.7712433033564592,2.425033512990588
0,5.500933663507117,4.564269122926614,11.33945276338062,2.261901551541348,2.4300335820895356
0,3.771233218941328,-2.1553281121411274,8.140048306859645,-3.5974418063828484,2.4350336511884905
0,4.831531525358881,8.745075314129181,9.550642460681077,1.6932132461888236,2.4400337202874383
0,-2.738171407490203,6.265479408896285,-3.038764764768179,-5.026133274083785,2.445033789386386
0,-3.01787557007403,-4.53411582110079,0.1918266403538894,-5.15548135037448,2.450033858485341
0,0.22241904717311656,1.9662896305473816,3.132416685693646,-1.264830965560029,2.4550339275842887
0,8.71271245390428,12.806695770083058,17.733005380724038,7.525817897768202,2.4600339966832365
0,3.063004659623971,2.7271026034216184,2.6035927343678114,0.03646525703632608,2.4650340657821843
0,3.3632956734376336,4.0775101358983425,-0.5058212452358309,-6.252888870501931,2.470034134881139
0,-1.9464144959469225,-3.2420816276538518,2.754763449500284,-3.6022444675987657,2.475034203980087
0,-1.6061258400144518,-7.431672682571989,-1.44465317404811,-8.151601516685753,2.480034273079035
0,-0.27583835023631426,7.398736975946066,5.105928891395999,0.8290400002831013,2.4850343421779826
0,0.9644479819988938,-4.3108526471261746,-0.49349034702326483,-1.5203198982351367,2.4900344112769375
0,1.9847331653314035,-6.580441546739943,-5.652910882285158,-4.819681193525148,2.4950344803758853
0,2.2950172083185265,-5.870029717627387,-3.142332707306052,0.12095613332861421,2.500034549474833
0,-1.1146998806253434,-0.2996171540763798,6.148244185220045,1.261592101439839,2.505034618573781
0,-3.2344180931774877,0.12079615003368838,-11.621180197221515,-1.8977732699742489,2.5100346876727357
0,-0.05413742096197638,0.8812102010080638,5.499394152989955,4.002860038304251,2.5150347567716835
0,-0.7338578554675592,5.52162500513642,1.9399672436225575,1.6734920454248754,2.5200348258706313
0,0.6064206119204494,-0.5779594314566057,2.6405390824260047,2.134122770374368,2.525034894969579
0,1.0866979898418683,-0.14754310285443076,4.421109676924417,2.254752231927801,2.530034964068534
0,-2.4630257130779016,-0.09712600325589058,2.2416790343448083,1.8753804486501915,2.535035033167482
0,-0.35275048820264326,-1.0067081268646154,-7.217752838335307,4.166007438892394,2.5400351022664296
0,1.3975236731652076,9.783710532090781,-4.457185934141244,6.006633220728811,2.5450351713653845
0,-0.5422032202419885,0.014129979183327285,-4.726620245777802,1.3472578118688296,2.5500352404643323
0,-3.2419311596871716,-2.485449780330972,-2.95605576549237,0.9378812296505192,2.55503530956328
0,1.718339863624935,13.28497125855052,-5.505492485101597,4.678503491141195,2.560035378662228
0,1.258609858561191,11.015393100470945,-0.6049303960342834,2.7591246131718843,2.5650354477611828
0,3.2588788339593897,15.895815749283338,15.76563051050072,9.369744612249239,2.5700355168601305
0,-2.250853201477743,0.7962392077381281,6.2961902430475565,4.000363504404744,2.5750355859590783
0,-1.1605862391456392,-4.633336522334985,0.3567488094671293,1.490981305128396,2.580035655058026
0,0.6996797295805767,-0.8429114394721926,-1.9426937829870665,-2.888401970502489,2.585035724156981
0,0.03994471338476446,-4.69248554210648,-3.692137527254044,-0.44778630754484616,2.590035793255929
0,-2.989791279015792,-3.0520588284004595,-6.971582416116895,0.8828283089940023,2.5950358623548766
0,-2.419528238826185,-7.031631296178236,-3.371028441987292,-1.886558105824003,2.6000359314538244
0,-2.429266157075678,-5.471202942829351,-4.390475596813998,-0.1659455368961833,2.6050360005527793
0,2.2809949754145658,0.0792262347491991,-1.329923872111717,1.2546660309273157,2.610036069651727
0,4.121255167907311,1.719656240038244,1.350626740909551,2.335276612800559,2.615036138750675
0,5.0115144295248335,1.3500870766413153,-4.64882374878484,-1.614113776203454,2.6200362078496298
0,-0.5782272309199832,-0.5094812518992378,1.1217246678847395,-1.853505121072367,2.6250362769485776
0,-4.417969804869429,-4.219048742094584,-2.457727999869613,-2.642897406741236,2.6300363460475253
0,-11.107713283719496,-5.848615390342659,-11.807181742639457,-10.762290617921098,2.635036415146473
0,-8.657457658395074,-4.308181192713308,-9.33663655058183,-11.541684738837892,2.640036484245428
0,-6.177202919056263,-8.157746144803454,-7.706092413093558,-7.971079752921414,2.645036553344376
0,-3.726949055078232,-4.627310241657606,-10.975549318674705,-7.770475642658635,2.6500366224433236
0,-8.08669605519088,-0.2468734777671924,-5.615007254943785,-8.699872389657035,2.6550366915422714
0,-1.6164439075781492,5.953564152739573,-4.94446620870565,2.8007300252186003,2.6600367606412263
0,2.293807400026623,4.20400265573596,-0.8739261661208412,6.211331621552571,2.665036829740174
0,-5.775942119855054,-4.795557963161648,2.076612887042933,0.7419324189317145,2.670036898839122
0,-8.99569245449807,-5.215117698485018,2.3371509651399562,-2.9974675632999905,2.6750369679380697
0,-2.4654435907818906,3.3853234553760223,-0.24231191755557346,8.033131694029889,2.6800370370370246
0,2.424804484918193,2.9357655042142854,2.588224253089724,7.9637302099046945,2.6850371061359724
0,3.6350517864871197,-3.603791546195154,-1.961240508902821,10.06432800282525,2.69003717523492
0,0.8652983277450496,-2.0733476901347023,3.749293810412037,5.314925090548167,2.695037244333868
0,-0.04445587768817383,2.327097078189298,-3.1101727750844583,12.975521490011664,2.700037313432823
0,3.7257891836520356,8.707542764605908,5.730359748424379,12.666117217271628,2.7050373825317706
0,12.676033525021438,14.077989374635075,4.840891394623483,17.066712287308015,2.7100374516307184
0,6.736277159185439,5.158436913058848,10.051422176858463,9.047306713818418,2.7150375207296733
0,10.35652009812731,0.22888538379330864,2.4719521079195332,13.517900509187733,2.720037589828621
0,9.106762352946802,4.169334790137535,6.492481199977908,10.33849368458516,2.725037658927569
0,12.04700393382923,3.9197851350472073,1.5730094646706498,10.299086250046543,2.7300377280265167
0,13.347244849957951,12.260236421117977,8.963536913185564,11.799678214524313,2.7350377971254716
0,6.617485109428326,9.990688650339633,6.36406355622156,9.050269585917851,2.7400378662244194
0,2.4777247193211913,-3.6188581760876155,4.794589403887716,7.660860371114865,2.745037935323367
0,1.2879636860089,-10.82840405749648,0.1351144657162877,1.2114505761273284,2.750038004422315
0,0.7882020154967304,-1.0779489931359723,4.595638750823087,-4.627959793603559,2.75503807352127
0,6.27843971358268,-3.1874929817863134,4.956162268021223,1.6926292671766832,2.7600381426202176
0,6.348676785799219,0.38296397817308697,8.456685025751632,7.5032177637306265,2.7650382117191654
0,2.3789132372542228,1.843421888550581,13.057207031875583,4.533805701153936,2.770038280818113
0,8.149149072555627,2.103880751166608,5.657728293444713,8.034393084095017,2.775038349917068
0,0.889384295830402,2.9543405677157057,-1.0517511833343756,6.664979916608001,2.780038419016016
0,-0.260381089209786,-0.2751986603021223,4.378768607169229,3.335566202114105,2.7850384881149637
0,7.289852920861951,5.585263068415358,9.149287670244426,3.3961519434664105,2.7900385572139115
0,12.120086329162186,11.275725754891305,12.699806010709297,11.396737143032958,2.7950386263128664
0,13.35031913816307,7.966189399609935,8.110323632591472,12.987321802578624,2.800038695411814
0,3.3605513493752914,2.1366540023027945,9.020840538952442,14.367905922946772,2.805038764510762
0,2.3207829633833694,0.6271195620459986,0.9613567319652809,0.22848950385572261,2.810038833609717
0,-0.1389860198036914,4.9075860775290225,-1.968127786811297,-4.010927455868117,2.8150389027086646
0,-2.3787556004077643,5.778053547164157,-3.9376130160501095,-3.620344957715056,2.8200389718076124
0,0.5114742213342021,9.958521968954027,3.0829010456445225,2.320236996950455,2.82503904090656
0,-2.008296554741525,9.948991340264811,1.0134143997740717,2.1208184069243705,2.830039110005515
0,0.24193207129014077,-1.4905383423053458,1.1739270478045005,1.351399270971779,2.835039179104463
0,-3.3578399005562463,3.859932917212145,-1.4155610089087156,-3.5580204122671018,2.8400392482034107
0,-2.4176124701316444,-0.5595948855513403,-5.965049769023654,-1.5674406441717834,2.8450393173023585
0,-6.767385637059093,-8.109121755067378,-6.334539230998036,-4.5268614259687885,2.8500393864013134
0,-13.49715940054566,-14.128647695589153,-16.754029392788578,-3.8362827586188915,2.855039455500261
0,-8.186933759093357,-17.968172710628938,-20.243520251434834,-14.885704642670662,2.860039524599209
0,-12.8967087102541,-12.507696802468992,-17.93301180257232,-10.445127077990131,2.8650395936981568
0,-2.4764842505809863,-5.577219972003343,0.17749595978501875,-4.1245500634946115,2.8700396627971116
0,-0.32626037581243156,-2.8467422189918143,-1.5219969571212753,4.22602640273726,2.8750397318960594
0,-1.9060370812132887,4.613736457464039,2.3885094545262544,6.82660232297927,2.8800398009950072
0,-11.55581436178089,0.9942160584607128,-0.920984797346106,0.8471776993426582,2.885039870093962
0,-2.995592212119976,3.16469658498563,-0.28047970484078577,7.127752533547794,2.89003993919291
0,-2.275370626277385,4.9151780377882694,4.410024739904793,1.5483268269107842,2.8950400082918577
0,3.7848504021334657,6.765660417288977,8.740528544610939,6.488900580345671,2.9000400773908055
0,5.325070879601993,0.146143723479481,8.0010317165883,3.509473794353622,2.9050401464897604
0,10.735290812358267,11.266627955894231,15.521534262432878,12.45004646895455,2.910040215588708
0,11.275510206028676,8.197113113542509,10.792036187765152,8.51061860351944,2.915040284687656
0,10.135729065358062,24.367599194630237,12.47253749705123,8.551190196579045,2.9200403537866038
0,5.335947394107004,18.00808619608415,10.383038193569032,3.341761245800657,2.9250404228855587
0,2.856165195179269,11.268574113166554,2.17353827951945,2.4523317481601135,2.9300404919845064
0,5.386382470864233,1.2090629395567491,12.744037756222353,1.682901700180234,2.9350405610834542
0,7.726599222978412,8.259552667856143,8.17453662422909,1.643471098110174,2.940040630182402
0,5.3568154528167105,10.330043289972926,-0.12496511668770358,3.4940399379966887,2.945040699281357
0,0.7770311611119078,6.750534797123573,0.47553253262300477,-1.7453917843043631,2.9500407683803047
0,-3.9227536518191997,-4.578972820197967,-6.223970428936238,-8.584824073019753,2.9550408374792525
0,-6.162538985730068,-1.7684795719239195,3.276525997607638,-1.0642569321916826,2.9600409065782003
0,-5.462324840099365,-1.447985467994209,-5.562978188602951,-5.833690365467784,2.965040975677155
0,-3.1521112139387943,2.27250948180647,-1.7624829882508204,-5.073124376062905,2.970041044776103
0,-2.2218981057947493,3.523005267741874,-5.7219884017789395,2.957441033205458,2.9750411138750508
0,-0.23168551387299247,1.2235018799446287,-3.0414944292930337,5.418005859747179,2.9800411829740057
0,-0.6514734361798081,4.64399930831496,3.0489989294419724,3.0685701008733273,2.9850412520729535
0,5.698738129343542,5.074497542463811,5.109491674818043,-1.3308662464095882,2.9900413211719012
0,2.658949184642771,9.884996571597725,-4.560016192871553,-2.310303185313431,2.995041390270849
0,-3.390840268572202,-2.034503615610905,-0.22952467346527822,-7.179740719006926,3.000041459369804
0,0.3093697712599841,-8.514003030900746,-2.129033766757675,-6.479178850346554,3.0050415284687517
0,-2.5904206942698895,-5.873501685965307,3.491456527573719,-8.978617581650852,3.0100415975676995
0,-1.0502116634449057,-12.59299959197823,-2.208053790106493,-9.148056914537912,3.0150416666666473
0,-5.410003134381692,-20.18249675924849,-11.347564719387961,-7.897496849824518,3.020041735765602
0,-8.119795104916324,-12.331993196864262,-7.467076259527392,-7.856937387496217,3.02504180486455
0,-2.9095875724309477,-0.1114889125326593,-5.986588409118656,-1.9663785267692124,3.030041873963498
0,-2.859380533784415,-2.17098391292661,3.753898833931943,-0.025820266275787762,3.0350419430624456
0,5.030826014540109,9.359521795704357,3.7843854720715617,6.0347373956258,3.0400420121614005
0,6.091032076125694,12.68002820696234,4.804871507681665,14.06529446044216,3.0450420812603483
0,-1.548762345681698,-7.359464686102136,0.1453569428313698,2.0558509291156666,3.050042150359296
0,-0.16855724782284595,1.461043109052977,0.055841779296064264,-0.16359319811816284,3.055042219458244
0,-0.16835262735790132,0.20155158483649918,-6.113673981258447,6.656962078482293,3.0600422885571987
0,-3.518148481313206,-2.8079392662819576,-1.3531903370438383,0.6475167583643485,3.0650423576561465
0,-2.7779448065936183,-10.31742945169994,-1.5227072860098503,-5.101929159261517,3.0700424267550943
0,-8.087741599852308,-6.356918978436073,-8.062224825820238,-3.401375675223183,3.075042495854049
0,-0.05753885735864739,0.7035921470856935,2.4782570461677276,0.28917720985998985,3.080042564952997
0,-4.68733657496599,-9.195896081019466,-5.381261667091996,-6.060270504354798,3.085042634051945
0,6.892865251758813,1.9446163317676892,7.239219037558291,6.7602811819991535,3.0900427031508926
0,6.013066627267321,7.77512938022927,20.059699163160637,3.3108322688366623,3.0950427722498475
0,8.443267555675686,5.555643059073045,3.5801787121013575,6.871382755852242,3.1000428413487953
0,5.1634680405052,9.08615736254006,2.3506576857871324,4.221932642295711,3.105042910447743
0,11.923668084579454,19.316672284129524,14.301136084818296,1.2724819269347543,3.110042979546691
0,4.293867689977897,3.877187816331135,3.871613909125365,0.3530306081635087,3.1150430486456457
0,-3.185933141921081,-3.1822960494004136,-0.8379088420488724,-3.8164213158026503,3.1200431177445935
0,7.514265589816432,-7.3917793221564665,-0.18743216994523626,-2.7858738467071205,3.1250431868435413
0,0.9944638858735555,-1.9512620109308048,9.113043923994296,-2.8753269860836594,3.130043255942489
0,-1.7453382533021615,1.0692558756466832,-2.736480561874964,0.6052192647910245,3.135043325041444
0,3.9748591725521436,3.359774329170807,-1.776005629441831,1.1157649048156089,3.140043394140392
0,2.2750561635868047,-4.389706658765672,-9.575531280615694,-1.673690067062959,3.1450434632393396
0,-2.004747280203179,-10.979187096532442,4.884942482974429,-6.6631456518553245,3.1500435323382874
0,3.215448841038975,-1.318666992152731,0.20541565998783903,-2.222601850365242,3.1550436014372423
0,-6.014355472878241,3.121853646851865,-8.634111750802148,-1.3620586630570966,3.16004367053619
0,-4.344160222057,0.16237481322417985,-1.893639750468679,-5.181516090077457,3.165043739635138
0,1.4160345936519612,-0.40710350030917464,4.126831660217211,2.0790258686871663,3.1700438087340927
0,0.3062289746470373,-9.206581301029797,1.2873024806538012,0.06956721353267753,3.1750438778330405
0,1.0564229214040433,1.50394140398798,-3.002227289826962,7.360107944768535,3.1800439469319883
0,-7.343383565601535,-10.265535391959094,-2.3917576519399577,1.280648062494097,3.185044016030936
0,-4.643190485742259,3.7849883048245805,-6.981288606245604,3.681187566473862,3.190044085129891
0,-0.5029978380346053,-2.5444875116487555,-5.830820152947988,-5.468273543811202,3.195044154228839
0,-11.962805621066517,-3.2639628471808426,-8.850352291722677,-7.397735268913214,3.2000442233277866
0,-2.6326138329430315,-7.793437707384452,0.7701149783636229,0.0028023908994066066,3.2050442924267344
0,-7.50242247118249,-10.822912097457925,-8.549418341216183,0.913339435731821,3.2100443615256893
0,-13.59223153264645,-10.632386021891564,-10.288952248493993,-8.066124134069078,3.215044430624637
0,-11.862041013382566,-8.401859484261411,-11.008486740837663,-4.915588317918641,3.220044499723585
0,-4.751850908425099,-0.8513324872331722,5.211978185201368,5.87494688512421,3.2250445688225327
0,-6.571661211843751,-8.270805032770776,3.882442533625066,0.9354814762215868,3.2300446379214875
0,-11.13147191693325,-10.070277122274346,0.10290630848145255,-1.303984543524901,3.2350447070204353
0,-7.5012830162450905,-2.369748756510417,-7.59663048634044,-1.043451173122381,3.240044776119383
0,-3.1210945015334293,-4.419219935587016,-7.496167846849327,-1.2929184115558836,3.245044845218338
0,-1.4909063638821856,1.851309340867297,-3.875705768598943,-1.0023862577086782,3.250044914317286
0,-0.05071859397376938,3.251839073438728,-8.865244246535006,-2.181854710345961,3.2550449834162336
0,4.439468817660262,2.202369262675899,-6.824783274974548,0.23867623189329462,3.2600450525151814
0,-2.5703441195484125,-7.447100091018069,-3.554322847583715,3.239206570456993,3.2650451216141363
0,-2.01015739624346,-10.05656898716904,3.0861370425269286,-3.9002636932126102,3.270045190713084
0,-2.249971003022444,-1.296037424850266,-16.863403597375445,4.8702654422829035,3.275045259812032
0,3.0002150696656353,4.344494597404372,10.097055240343451,6.130793978246467,3.2800453289109797
0,11.91040083137141,2.075027081280708,0.6975135636269891,0.14132191572900157,3.2850453980099346
0,1.8805862913015368,-0.4444399716498012,-3.0820286195553646,-2.148150744527955,3.2900454671088823
0,-1.3292285418694245,-2.4639065599624,-1.1015713013212531,-6.477624001874539,3.29504553620783
0,-4.519043659783696,-5.153372682203101,-3.3911144737055903,-3.947097855442379,3.300045605306778
0,1.8511409459448291,4.497161663269515,5.689341871414291,-0.48657230397556583,3.305045674405733
0,9.431325283787244,10.1976964781759,6.8397977421503855,4.673952654080227,3.3100457435046806
0,-2.228490637952694,-10.581768235971701,-10.62974685360514,-8.255522979630092,3.3150458126036284
0,-6.208306811240084,-4.731232477824328,-6.919291908026405,-12.394999203322001,3.320045881702576
0,-8.018123228000366,-5.130696245776275,-9.508837412874588,-8.154476014666525,3.325045950801531
0,-10.567939879675093,-8.980159537674156,-5.608383359175977,-8.00395341046362,3.330046019900479
0,-4.627756756963093,-5.539622350744237,-11.457929737168834,-7.553431386622614,3.3350460889994267
0,-1.3175738498232672,-0.1090846815957968,-8.707476536280836,-6.312909938261551,3.3400461580983816
0,3.0026088522751957,0.12145347361541675,-3.0770237450965814,-1.4023890598187325,3.3450462271973294
0,-6.667208639945529,-10.738007881009615,-9.23657135143789,-8.07186874518366,3.350046296296277
0,-4.327026315622973,2.7725312589067785,-5.656119342473634,-4.531348987772509,3.355046365395225
0,5.5531558363539855,0.2830708980625141,6.5843322951911025,-1.3008297805148457,3.36004643449418
0,-1.296662172727087,-9.596388958633387,-1.64521642474898,-5.940311115901472,3.3650465035931276
0,0.18351966839436828,-12.21584830597625,1.7752345113839474,-5.829792986036036,3.3700465726920754
0,6.073701370876476,-0.7653071381322406,6.71568511711687,0.9807246173893933,3.375046641791023
0,0.8338829457131989,9.335234551372181,7.676135405702128,0.551241703021828,3.380046710889978
0,-0.7759355963329626,0.2357767691651858,10.416585389863291,0.6117582796329637,3.385046779988926
0,0.5542457553364575,-4.843680478348588,4.867035081586303,-3.4577256440078528,3.3900468490878737
0,6.934427011232552,9.706862815063172,3.527484492106466,9.262789940853866,3.3950469181868215
0,5.994608181657894,16.817406655407993,11.907933632026019,8.123305042807862,3.4000469872857764
0,6.49478927646526,3.3179510480254373,-1.041617488650378,0.013819669986753769,3.405047056384724
0,9.344970304902343,1.7684959973422816,3.648831139536399,2.9143338300032746,3.410047125483672
0,8.285151275512932,2.2090415071398026,6.549279525643553,4.2348475301202235,3.4150471945826197
0,8.12533219605351,-3.8404124190797733,0.39972767838415846,-0.29463922265917025,3.4200472636815746
0,0.655513073509881,8.580134222083336,2.6001756061258927,5.625873578417269,3.4250473327805224
0,4.005693914269403,5.10068143386435,4.970623316945207,5.606385939819341,3.43004740187947
0,1.795874724341806,5.2812292191089485,-3.648929181323891,1.8568978676455057,3.435047470978425
0,9.576055509421264,7.661777580116642,10.571518118929086,4.967409367579348,3.440047540077373
0,5.726236274766528,5.5523265185957555,10.151965224992402,4.587920444914623,3.4450476091763207
0,8.536417025029237,1.89287603566859,5.442412143544949,8.478431104523821,3.4500476782752685
0,7.376597764151603,3.313426131970486,12.422858880453418,3.4789413507501155,3.4550477473742234
0,-0.17322150460884006,1.5739768077946807,-3.996694559204555,-1.5505488125900189,3.460047816473171
0,1.9369592214822933,2.9745280631771918,3.1137518290768926,-0.7600393819987511,3.465047885572119
0,1.5471399448810763,18.325079897820878,12.11419804946649,4.260469645934732,3.4700479546710667
0,4.477320667863543,2.255632310800705,3.7546441057237008,2.860978274543337,3.4750480237700216
0,3.7675013924748186,1.8761853003745916,1.5450900010100146,-1.1585134930288428,3.4800480928689694
0,-1.51231787953903,-12.213261135718612,-11.214464261930365,-5.7080056537796136,3.4850481619679172
0,2.717862853334805,-8.13270699962677,-5.684018680268669,-8.247498204569483,3.490048231066865
0,4.438043592450619,-4.822152292885332,-6.123573250651861,0.4230088581570063,3.49504830016582
0,-2.611775661014434,0.3884029836698523,5.3468720308623325,-0.4164844616042296,3.5000483692647677
0,-6.1615949060012065,-3.7310411703360526,1.6273171685061223,-2.4159781596123864,3.5050484383637155
0,4.108585858645968,-10.640484754968767,-5.632237833505729,-5.685472231477907,3.5100485074626704
0,1.638766634234112,-2.0599277698673544,2.2282070290132276,-4.66496667254925,3.515048576561618
0,-3.621052577932365,-1.8793702141306388,-3.5413482396503353,-7.294461477746774,3.520048645660566
0,-0.5408717765793227,-4.018812086431378,-1.6609036350661404,-2.583956641475452,3.5250487147595138
0,-6.810690960310842,-5.84825338512459,-9.760459152596356,-4.183452157637089,3.5300487838584687
0,-9.300510127410755,-12.047694108144755,-8.90001478717733,-10.942948019661413,3.5350488529574164
0,-7.520329275607207,-2.8371342527920858,-10.439570533045408,-5.6124442204210645,3.5400489220563642
0,-6.830148401893133,-8.336573815640884,-5.909126383575142,-4.601940752104645,3.545048991155312
0,-9.5899675024949,-5.416012792595991,-11.68868233126927,-0.3814376062908167,3.550049060254267
0,-1.8397865729062837,8.68454882096271,3.0117616321630067,-1.6909347741650873,3.5550491293532147
0,3.2903943919685106,5.4151110298296725,3.2022055155496547,0.3495677532836179,3.5600491984521625
0,1.6905753974756026,0.7856738385283156,2.162649327843128,6.350069985120308,3.5650492675511103
0,-2.0192435510835702,1.0562372511796583,-4.81690692215,4.050571930260754,3.570049336650065
0,-2.819062448472713,1.2568012716581864,1.0735367743136401,-0.6089264027046604,3.575049405749013
0,-4.048881289350194,6.0173659036807,5.49398042602099,3.0315749945061694,3.5800494748479608
0,-1.538700068123748,0.02793115074002614,-4.835575958280717,2.5020761299718486,3.5850495439469086
0,-4.148518778909074,3.8784970160490673,-0.09513236992208729,4.512577011560363,3.5900496130458635
0,-3.5183374155287552,1.769063502559227,0.495311199801285,5.303077646838852,3.5950496821448112
0,-5.098155971474447,3.9396306129765364,5.4357547596342854,-0.45642195699914945,3.600049751243759
0,3.1820255601073884,5.630198349717256,4.9361983181759355,1.3940782069253894,3.605049820342714
0,2.9722071862691406,1.6407667148401013,-2.363358116290956,0.6945781453135726,3.6100498894416617
0,4.962388913991889,1.4313357100421622,3.8970854642325206,0.6850778647717479,3.6150499585406095
0,-2.727429250002961,-1.6380946632243538,-7.072470932371173,-6.6144226281251095,3.6200500276395573
0,7.162752700753874,3.2624755963853054,-0.5320272981600289,6.066076673272136,3.625050096738512
0,11.302934772452943,11.563046490081705,12.43841637492235,6.6765757756424176,3.63005016583746
0,7.233116970736301,6.453618018666543,13.318860094717907,5.107074685408013,3.6350502349364078
0,4.003299300478023,7.904190182243531,5.249303868313295,6.207573408477883,3.6400503040353556
0,10.603481765803952,11.824762980115857,12.27974770180516,1.3980719502145347,3.6450503731343105
0,2.993664370174643,8.065336410732499,8.79019160034762,0.13857031555411292,3.6500504422332583
0,3.2638471164282166,9.305910471626127,3.0306355682037682,2.949068509179301,3.655050511332206
0,3.344030006910697,1.03648515946567,10.85107960884498,5.279566535589542,3.660050580431154
0,0.8642130436249863,-8.77293952966042,-3.818476274898356,1.2200643990300433,3.6650506495301087
0,-8.3056037716167,-8.592363599710758,-1.6680320806147362,-4.3994378965223655,3.6700507186290565
0,-5.665420436896541,0.7082129457988346,0.07241219400180648,-4.238940347149105,3.6750507877280043
0,-6.945236949856527,-13.981209896057893,-11.89714344858221,-2.0284429487170224,3.680050856826952
0,-3.9250533075412637,-9.0306321275747,-3.296699005530868,0.4220543032073508,3.685050925925907
0,0.17513049354175708,1.1899462497125357,1.1637455265097625,-1.6574485867368232,3.690050995024855
0,-2.9546855427530234,2.440525234890226,-2.9158098487089723,-0.7269516138081901,3.6950510641238026
0,0.7854985876245365,3.211104827227532,9.854634872687132,4.693545226789505,3.7000511332227575
0,1.9056828888234145,-0.948314974141629,2.435079694413574,9.934041939739313,3.7050512023217053
0,4.855867364959891,6.692265829714513,3.1255246198137185,9.494538529282153,3.710051271420653
0,4.846052019928539,1.4028472374978633,2.3959696518267144,10.205034998892284,3.715051340519601
0,5.3162368572486125,-0.9565707523589346,1.8064147930913463,10.385531351115105,3.7200514096185557
0,3.786421879975821,3.76401185836898,1.1268600460155247,10.146027587516906,3.7250514787175035
0,0.8766070907308863,10.35459506771193,6.367305412797458,7.6365237086861475,3.7300515478164513
0,3.706792491789403,3.055178873305456,1.817750895370871,5.287019714305307,3.735051616915399
0,1.1769780851762968,11.125763272181036,8.318196495302407,6.227515603301337,3.740051686014354
0,-1.0728361272872202,0.9863482607044252,5.418642213694806,0.5880113740051662,3.745051755113302
0,-12.90265014381394,-12.89306616524628,-14.800911948777225,-5.471492975634136,3.7500518242122496
0,-6.99246396227017,-6.272480009767783,-2.56046599147439,0.5090025522550552,3.7550518933111974
0,-1.5322775798557733,1.1581067235691949,5.299980086629662,1.5594979556712028,3.7600519624101523
0,3.207909006828002,5.58869403166806,5.0104262868231695,11.109993232616942,3.7650520315091
0,3.7780958013794703,5.369281911452658,8.440872610180497,2.0104883807782987,3.770052100608048
0,-2.811717192713458,2.879870359504724,-1.998680942715687,-6.419016602616592,3.7750521697069956
0,3.018470027880362,8.540459371943792,-2.9582343716757173,-0.9985217205321548,3.7800522388059505
0,0.708657466405743,11.141048944344696,-2.3977876765895494,-2.6680269757727078,3.7850523079048983
0,-2.6011548739597825,0.911639071589349,3.3426591427989396,0.4324676291000718,3.790052377003846
0,-1.6609669900469761,0.2922297479041909,1.9931060868227022,-4.657037908296642,3.795052446102801
0,-0.38077887858477283,7.382820967106924,0.9235531557143308,-1.5865435901676785,3.800052515201749
0,-7.730590536124402,-0.8365872772610092,-3.655999650431768,-0.8960494184978356,3.8050525843006966
0,-4.260401958934427,-7.90599499187096,-5.585552331501944,-0.7055553950783915,3.8100526533996444
0,-4.4902131428493695,-6.285402183315151,-7.495104887101694,-3.8950615215575675,3.8150527224985993
0,-11.580024083180216,-9.774808857708903,-8.184657316316876,-7.52456779938767,3.820052791597547
0,-2.9798347746202514,-3.8942150204787103,-1.0042096175956465,-4.274074229645311,3.825052860696495
0,-0.6096452112292639,1.3563793235943848,-2.1437617888332823,-5.993580812893239,3.8300529297954427
0,-3.5994553866108774,3.356974170094003,-3.743313827568154,-5.723087549151493,3.8350529988943975
0,4.2407347058559335,4.7475695145977355,0.13713426890451835,7.307405562025727,3.8400530679933453
0,-3.199074927124886,1.4781653524267726,-1.5524174965104611,2.4978985212720075,3.845053137092293
0,-9.64888427877702,-5.981238321360463,-3.861969120746702,-4.421608670906103,3.850053206191241
0,-7.888693342005563,-7.740641511703185,-1.7415206005580879,-11.361116014058243,3.855053275290196
0,-2.6385021091035243,-2.7900442231811255,-3.0410719324579163,-3.900623507377529,3.8600533443891436
0,-3.1583105717373745,2.940553540094886,-9.270623112663587,-2.240131149440396,3.8650534134880914
0,-11.358118721080043,-14.528848225641767,-17.850174136879296,-3.7396389383009065,3.8700534825870463
0,-1.517926547791505,-2.6482495237803008,-5.269724999920679,-3.619146871653697,3.875053551685994
0,-2.247734041972235,-0.017650357169496395,-2.7692756955610127,4.241345053083838,3.880053620784942
0,-6.547541193277989,-4.44705072819736,1.4411737831689004,0.17183683862669763,3.8850536898838897
0,-2.727347990999317,-3.52645063896947,-0.048376556459767295,4.922328487612878,3.8900537589828446
0,-0.31715442405626315,-2.4858500913105956,-3.9179267071019734,1.5428200024614027,3.8950538280817923
0,11.923039518840334,-0.1452490867469034,2.0425233386519923,3.1433113853265517,3.90005389718074
0,-2.376766151180199,-4.42464762657133,-6.557026411661753,5.853802638072899,3.905053966279688
0,-5.356571423306611,-14.114045711794242,-2.2965759503113743,0.10429376223918788,3.910054035378643
0,-7.176376286757648,-1.333443342895385,-3.206125269277855,0.6347847590574509,3.9150541044775906
0,-1.9561807303839,1.5171594802939883,-2.8856743602147077,4.47527562955213,3.9200541735765384
0,7.2640152573756955,1.0877627583179965,3.844776785486352,9.645766374517473,3.925054242675486
0,17.304211688078183,0.26836649175587124,15.235228176441705,12.38625699426073,3.930054311774441
0,16.454408572583645,9.458970681053689,12.89567982076942,9.146747488262863,3.935054380873389
0,9.364605920500054,1.9695753263699083,4.396131725613746,4.37723785504436,3.9400544499723367
0,4.284803740112427,-9.829819572483682,4.166583897120744,-4.802271907648268,3.9450545190712845
0,10.875002038687438,3.9507859842158473,3.297036340747954,-3.431781802387682,3.9500545881702394
0,0.11520082274312166,-3.148608003631774,-4.952510938435056,-7.201291831607184,3.955054657269187
0,-1.8245999017548868,-5.828001535931906,-3.7020579354649676,-3.7408019973250446,3.960054726368135
0,-0.8444001290861302,-2.1973946123561374,-6.401604645173463,-4.0103123010690265,3.96505479546709
0,1.9858001464764863,3.433212767723396,-1.4011510619909997,2.930177256046585,3.9700548645660376
0,1.316000930678824,4.853820605060301,-0.05069717996180659,-4.579333326855382,3.9750549336649854
0,-4.163797770782134,-10.745571099678207,-2.15024299288374,-6.678844050486195,3.980055002763933
0,-8.043595952149069,-6.004962345776177,-13.019788494350303,-6.468354915234147,3.985055071862888
0,-4.333393607335403,-2.2043531321041137,-0.3793336775453148,4.732134078978197,3.990055140961836
0,-5.073190729731017,-2.163743457013816,-3.4088785350954813,3.0326229325208653,3.9950552100607837
0,1.817012687767154,-0.32313331851033306,-1.1184230591940016,-15.626888354187523,4.0000552791597315
0,5.197216652525324,3.8774772855544044,1.3720327581989626,-9.186399780481569,4.005055348258686
0,11.867421171794453,3.528088357290302,-0.43751107478214196,-2.0259113449887955,4.010055417357634
0,5.20762625230246,2.338699898587829,7.792945449958335,-5.5354230455572715,4.015055486456582
0,4.297831900052674,6.079311911021176,10.15340234025484,-4.434934879480856,4.02005555555553
0,9.16803812037635,13.209924395740613,9.463859603352208,3.595553156340325,4.025055624654485
0,13.898244917942362,18.520537353162425,10.244317245646869,1.0060410652232727,4.030055693753432
0,12.388452296532646,12.561150782530229,4.594775272617067,6.746528850427222,4.03505576285238
0,1.9386602588593642,8.921764681692265,6.0752336889238165,0.20701651495043089,4.040055831951328
0,4.698868806712712,15.1123790471969,13.545692498524847,4.0275040614683,4.045055901050283
0,8.439077941258416,5.592993874446631,8.056151704602046,2.1279914923660384,4.050055970149231
0,9.569287663106007,12.193609157787,9.636611309411208,0.4284788097828527,4.0550560392481785
0,7.3294979721509765,6.43422489060069,1.8670713143014799,-2.231033984316058,4.060056108347133
0,5.619708867493622,-1.825158934548019,-5.922468280017895,2.2494531119820684,4.065056177446081
0,10.379920347482294,2.505457674367595,10.26799252689128,3.319940100573859,4.070056246545029
0,5.320132409737497,5.946074709113328,11.708453735259525,3.3004269832235376,4.075056315643977
0,3.7003450511666687,5.556692161189634,-1.3910846552026734,2.5509137614381174,4.080056384742932
0,0.7805582681024607,-7.7526899782579,1.3693773545993062,7.571400436400538,4.085056453841879
0,-1.4192279434623274,-9.592071718199596,2.7498397634120106,1.9918870089039913,4.090056522940827
0,-1.5790135876409124,-10.381453067197652,-5.209697430137336,-0.49762652066294666,4.095056592039775
0,-2.448798668482391,1.8591659669330072,0.4507657725737129,3.802859847805528,4.10005666113873
0,1.391416810101522,-3.6502146229856796,9.371229370215682,4.573346114217038,4.105056730237678
0,8.25163284425161,6.240405156162254,5.0116933612949595,15.773832278133764,4.1100567993366255
0,8.271849429877983,4.691025297463758,4.3021577438477925,15.034318338385274,4.115056868435573
0,0.6920665623615919,9.501645793682727,-0.7173774846044255,10.034804292662319,4.120056937534528
0,-6.197715763405143,-1.3177333629405574,6.5630876731011965,4.28529013742639,4.125057006633476
0,-3.3774975526365205,3.2528878193463524,-13.79644678605845,3.8057758681799516,4.130057075732424
0,-6.02727881026724,-2.726490667977581,-4.915980864986749,-0.9437385201517694,4.135057144831379
0,-7.367059540772453,-11.245868833443877,-9.075514566066133,-5.173253032894564,4.140057213930326
0,-11.406839748035416,-12.905246685202908,-7.045047890938117,-6.212767675294597,4.145057283029274
0,-1.816619435216272,-1.5346242306242457,-2.8345808405197976,-2.862282452240584,4.150057352128222
0,0.22360139520018854,9.425998523664388,-8.164113415101783,-0.5517973681893246,4.155057421227177
0,0.7338227411099029,12.08662157117089,-1.963645614435139,-0.6213124272928894,4.160057490326125
0,3.2440446004757795,0.5372449048776711,-4.173177437784038,-2.330827633546578,4.1650575594250725
0,-2.815733028822357,-6.662131482867481,-6.852708883984512,-0.8103429908305075,4.17005762852402
0,-2.2755101489597642,-2.9815075999077476,-6.062239951418021,2.31014149708421,4.175057697622975
0,-7.105286761993066,-2.4008834538423236,-4.7117706379249205,-4.339374173512834,4.180057766721923
0,-10.585062869611045,-0.42025905194158397,-2.9013009408004833,-7.7388900062296715,4.185057835820871
