labels,F4,F3,Fz,Cz,timestamps
0,-2085.08,-1186.34,-2099.6,-2513.47,-2.0000276395798657
0,-2087.53,-1182.62,-2097.0,-2518.6,-1.9950275704809144
0,-2086.96,-1178.37,-2104.76,-2512.2,-1.9900275013819666
0,-2085.79,-1171.85,-2098.76,-2508.97,-1.9850274322830153
0,-2086.22,-1171.19,-2088.39,-2508.03,-1.9800273631840675
0,-2078.78,-1171.81,-2083.72,-2498.75,-1.9750272940851161
0,-2078.8,-1177.88,-2081.78,-2500.11,-1.9700272249861683
0,-2076.19,-1165.88,-2083.52,-2499.18,-1.965027155887217
0,-2074.6,-1175.62,-2090.09,-2494.26,-1.9600270867882692
0,-2082.96,-1178.56,-2093.75,-2499.54,-1.9550270176893179
0,-2077.13,-1171.48,-2091.75,-2495.26,-1.95002694859037
0,-2074.97,-1167.82,-2083.1,-2496.09,-1.9450268794914187
0,-2072.68,-1163.09,-2075.02,-2495.29,-1.940026810392471
0,-2075.42,-1168.28,-2083.15,-2500.41,-1.9350267412935196
0,-2074.63,-1158.2,-2066.03,-2500.41,-1.9300266721945682
0,-2084.91,-1168.41,-2091.1,-2510.72,-1.9250266030956205
0,-2085.22,-1185.29,-2103.84,-2510.17,-1.9200265339966691
0,-2083.87,-1181.9,-2097.44,-2511.64,-1.9150264648977213
0,-2076.73,-1169.83,-2092.29,-2500.59,-1.91002639579877
0,-2084.94,-1170.27,-2099.03,-2510.57,-1.9050263266998222
0,-2086.74,-1165.38,-2092.17,-2509.09,-1.9000262576008708
0,-2090.17,-1173.35,-2096.58,-2509.28,-1.895026188501923
0,-2085.13,-1164.33,-2091.69,-2503.02,-1.8900261194029717
0,-2086.23,-1176.72,-2092.31,-2502.84,-1.885026050304024
0,-2080.4,-1176.74,-2091.5,-2501.32,-1.8800259812050726
0,-2080.14,-1174.12,-2089.62,-2496.6,-1.8750259121061248
0,-2081.34,-1170.19,-2087.28,-2495.95,-1.8700258430071734
0,-2087.42,-1162.7,-2086.58,-2493.93,-1.8650257739082257
0,-2086.55,-1173.8,-2086.44,-2496.39,-1.8600257048092743
0,-2079.32,-1173.91,-2089.08,-2502.45,-1.8550256357103265
0,-2074.25,-1162.02,-2079.55,-2496.14,-1.8500255666113752
0,-2072.5,-1154.03,-2077.57,-2494.43,-1.8450254975124274
0,-2077.35,-1161.71,-2085.48,-2500.7,-1.840025428413476
0,-2084.68,-1170.21,-2085.72,-2503.9,-1.8350253593145247
0,-2081.79,-1164.57,-2090.49,-2503.87,-1.830025290215577
0,-2081.48,-1163.59,-2078.82,-2496.71,-1.8250252211166256
0,-2078.1,-1171.82,-2084.53,-2505.5,-1.8200251520176778
0,-2075.04,-1163.71,-2090.7,-2497.39,-1.8150250829187264
0,-2086.56,-1179.72,-2100.08,-2503.24,-1.8100250138197786
0,-2087.26,-1173.25,-2092.26,-2506.47,-1.8050249447208273
0,-2080.21,-1157.15,-2082.63,-2494.2,-1.8000248756218795
0,-2084.72,-1165.38,-2095.84,-2500.75,-1.7950248065229282
0,-2085.35,-1177.37,-2094.61,-2500.63,-1.7900247374239804
0,-2084.29,-1174.08,-2091.09,-2499.82,-1.785024668325029
0,-2085.45,-1173.76,-2086.61,-2499.19,-1.7800245992260812
0,-2083.05,-1168.98,-2091.95,-2500.04,-1.77502453012713
0,-2071.65,-1169.34,-2077.51,-2496.03,-1.7700244610281821
0,-2073.65,-1170.28,-2076.91,-2496.03,-1.7650243919292308
0,-2082.96,-1179.75,-2092.33,-2501.57,-1.760024322830283
0,-2085.01,-1171.2,-2088.61,-2506.34,-1.7550242537313316
0,-2086.26,-1167.71,-2093.85,-2501.75,-1.7500241846323803
0,-2084.32,-1175.44,-2095.28,-2502.27,-1.7450241155334325
0,-2087.09,-1175.48,-2095.85,-2507.39,-1.7400240464344812
0,-2093.33,-1183.19,-2099.86,-2512.85,-1.7350239773355334
0,-2086.94,-1172.45,-2086.06,-2503.23,-1.730023908236582
0,-2087.5,-1168.97,-2096.6,-2502.74,-1.7250238391376342
0,-2086.22,-1165.04,-2089.47,-2499.67,-1.720023770038683
0,-2081.89,-1167.57,-2092.29,-2504.27,-1.715023700939735
0,-2084.64,-1175.38,-2091.41,-2505.99,-1.7100236318407838
0,-2085.02,-1168.84,-2083.95,-2502.89,-1.705023562741836
0,-2084.55,-1174.81,-2080.41,-2502.24,-1.7000234936428846
0,-2082.87,-1183.5,-2090.15,-2499.69,-1.6950234245439368
0,-2083.12,-1175.01,-2102.41,-2503.25,-1.6900233554449855
0,-2083.75,-1176.93,-2095.46,-2504.11,-1.6850232863460377
0,-2079.52,-1178.59,-2098.01,-2504.58,-1.6800232172470864
0,-2084.01,-1175.35,-2090.26,-2502.42,-1.6750231481481386
0,-2095.45,-1176.35,-2093.08,-2507.64,-1.6700230790491872
0,-2092.34,-1177.26,-2095.26,-2511.76,-1.6650230099502359
0,-2093.88,-1178.01,-2098.37,-2516.15,-1.660022940851288
0,-2089.35,-1175.02,-2098.97,-2508.67,-1.6550228717523368
0,-2080.53,-1157.2,-2083.97,-2497.08,-1.650022802653389
0,-2076.38,-1160.6,-2074.45,-2491.99,-1.6450227335544376
0,-2070.54,-1156.63,-2084.16,-2496.02,-1.6400226644554898
0,-2079.95,-1162.42,-2082.48,-2499.61,-1.6350225953565385
0,-2084.82,-1168.54,-2082.18,-2505.79,-1.6300225262575907
0,-2078.87,-1171.1,-2080.47,-2504.11,-1.6250224571586394
0,-2084.61,-1159.98,-2084.95,-2506.88,-1.6200223880596916
0,-2082.53,-1172.97,-2089.59,-2507.77,-1.6150223189607402
0,-2087.22,-1186.06,-2094.58,-2509.35,-1.6100222498617924
0,-2092.68,-1178.45,-2092.19,-2508.4,-1.605022180762841
0,-2084.98,-1173.81,-2086.98,-2512.29,-1.6000221116638933
0,-2090.32,-1181.45,-2096.57,-2511.9,-1.595022042564942
0,-2087.25,-1176.61,-2090.57,-2506.26,-1.5900219734659942
0,-2082.13,-1165.52,-2090.53,-2505.27,-1.5850219043670428
0,-2082.88,-1166.28,-2092.96,-2510.31,-1.580021835268095
0,-2083.98,-1167.3,-2095.96,-2513.33,-1.5750217661691437
0,-2088.09,-1177.25,-2102.79,-2508.02,-1.5700216970701923
0,-2081.25,-1166.45,-2088.44,-2502.59,-1.5650216279712446
0,-2076.49,-1163.11,-2075.65,-2498.86,-1.5600215588722932
0,-2077.19,-1168.69,-2080.02,-2506.94,-1.5550214897733454
0,-2075.55,-1167.42,-2084.59,-2498.48,-1.550021420674394
0,-2081.79,-1164.14,-2092.18,-2500.34,-1.5450213515754463
0,-2085.92,-1165.12,-2086.32,-2504.59,-1.540021282476495
0,-2088.12,-1169.36,-2091.19,-2503.16,-1.5350212133775472
0,-2083.88,-1171.04,-2087.32,-2504.06,-1.5300211442785958
0,-2085.42,-1180.53,-2085.5,-2501.74,-1.525021075179648
0,-2085.23,-1176.42,-2101.12,-2502.6,-1.5200210060806967
0,-2084.01,-1171.06,-2089.65,-2504.06,-1.515020936981749
0,-2086.04,-1173.09,-2085.27,-2506.88,-1.5100208678827975
0,-2088.92,-1176.75,-2095.09,-2504.75,-1.5050207987838498
0,-2078.25,-1170.42,-2095.94,-2504.72,-1.5000207296848984
0,-2073.53,-1165.53,-2085.78,-2505.33,-1.4950206605859506
0,-2071.71,-1158.86,-2081.14,-2499.58,-1.4900205914869993
0,-2088.15,-1166.92,-2095.79,-2502.41,-1.485020522388048
0,-2070.56,-1158.5,-2077.67,-2493.31,-1.4800204532891001
0,-2072.77,-1165.56,-2080.61,-2495.09,-1.4750203841901488
0,-2075.51,-1168.45,-2071.64,-2496.76,-1.470020315091201
0,-2079.91,-1166.07,-2086.07,-2499.07,-1.4650202459922497
0,-2079.07,-1165.25,-2079.21,-2499.93,-1.4600201768933019
0,-2084.13,-1178.49,-2092.53,-2504.47,-1.4550201077943505
0,-2076.99,-1160.44,-2094.97,-2503.63,-1.4500200386954027
0,-2080.33,-1176.27,-2089.23,-2504.6,-1.4450199695964514
0,-2080.45,-1165.56,-2082.68,-2502.9,-1.4400199004975036
0,-2085.28,-1171.79,-2095.41,-2505.88,-1.4350198313985523
0,-2089.05,-1177.78,-2101.05,-2508.13,-1.4300197622996045
0,-2087.48,-1179.64,-2096.56,-2514.25,-1.4250196932006531
0,-2085.88,-1178.43,-2095.37,-2515.22,-1.4200196241017053
0,-2083.97,-1167.74,-2091.17,-2512.76,-1.415019555002754
0,-2082.44,-1169.45,-2089.56,-2506.7,-1.4100194859038062
0,-2081.73,-1172.95,-2091.6,-2506.78,-1.4050194168048549
0,-2075.93,-1160.46,-2083.81,-2502.49,-1.400019347705907
0,-2074.59,-1164.85,-2080.06,-2506.13,-1.3950192786069557
0,-2081.22,-1168.28,-2086.1,-2506.68,-1.3900192095080044
0,-2081.79,-1169.38,-2091.49,-2501.51,-1.3850191404090566
0,-2077.92,-1166.29,-2082.61,-2500.58,-1.3800190713101053
0,-2085.59,-1172.24,-2086.73,-2503.47,-1.3750190022111575
0,-2086.22,-1175.54,-2091.85,-2503.83,-1.3700189331122061
0,-2093.7,-1181.64,-2101.4,-2507.77,-1.3650188640132583
0,-2082.36,-1171.03,-2083.96,-2499.44,-1.360018794914307
0,-2085.17,-1175.91,-2082.12,-2505.97,-1.3550187258153592
0,-2088.47,-1172.22,-2092.1,-2502.42,-1.3500186567164079
0,-2088.12,-1173.68,-2093.68,-2501.47,-1.34501858761746
0,-2075.77,-1174.59,-2093.56,-2499.91,-1.3400185185185087
0,-2082.44,-1179.42,-2093.33,-2505.01,-1.335018449419561
0,-2082.91,-1168.49,-2100.38,-2500.42,-1.3300183803206096
0,-2084.74,-1173.85,-2080.91,-2503.22,-1.3250183112216618
0,-2081.87,-1170.01,-2093.61,-2505.5,-1.3200182421227105
0,-2082.24,-1168.12,-2082.72,-2502.89,-1.3150181730237627
0,-2081.93,-1161.24,-2091.02,-2503.74,-1.3100181039248113
0,-2078.53,-1157.02,-2085.61,-2498.29,-1.30501803482586
0,-2075.22,-1160.27,-2083.55,-2500.12,-1.3000179657269122
0,-2077.16,-1163.9,-2084.98,-2502.58,-1.2950178966279609
0,-2075.58,-1181.8,-2084.95,-2502.8,-1.290017827529013
0,-2082.78,-1180.16,-2094.23,-2503.95,-1.2850177584300617
0,-2084.71,-1174.22,-2095.95,-2511.17,-1.280017689331114
0,-2083.74,-1170.95,-2092.68,-2513.04,-1.2750176202321626
0,-2080.92,-1173.43,-2094.95,-2506.95,-1.2700175511332148
0,-2086.24,-1168.6,-2089.35,-2514.24,-1.2650174820342635
0,-2086.69,-1166.42,-2093.34,-2512.24,-1.2600174129353157
0,-2085.53,-1180.9,-2095.09,-2512.42,-1.2550173438363643
0,-2085.75,-1176.82,-2089.43,-2509.47,-1.2500172747374165
0,-2087.36,-1163.04,-2092.91,-2509.3,-1.2450172056384652
0,-2080.66,-1168.77,-2096.16,-2504.67,-1.2400171365395174
0,-2078.0,-1155.43,-2082.92,-2497.2,-1.235017067440566
0,-2073.5,-1154.53,-2076.94,-2492.11,-1.2300169983416183
0,-2076.49,-1171.64,-2081.5,-2496.67,-1.225016929242667
0,-2075.97,-1163.37,-2078.78,-2492.29,-1.2200168601437156
0,-2072.89,-1165.05,-2077.69,-2492.16,-1.2150167910447678
0,-2068.91,-1159.4,-2075.4,-2490.86,-1.2100167219458164
0,-2075.39,-1167.75,-2076.39,-2495.56,-1.2050166528468687
0,-2077.57,-1169.57,-2088.29,-2501.32,-1.2000165837479173
0,-2078.28,-1164.34,-2089.93,-2501.34,-1.1950165146489695
0,-2076.61,-1167.91,-2082.73,-2500.15,-1.1900164455500182
0,-2080.13,-1163.06,-2086.69,-2507.07,-1.1850163764510704
0,-2082.93,-1159.53,-2084.72,-2503.24,-1.180016307352119
0,-2084.33,-1159.52,-2083.95,-2501.62,-1.1750162382531713
0,-2085.39,-1164.72,-2092.86,-2504.29,-1.17001616915422
0,-2084.58,-1166.18,-2095.96,-2502.52,-1.1650161000552721
0,-2077.17,-1173.41,-2091.01,-2504.66,-1.1600160309563208
0,-2083.86,-1179.47,-2102.84,-2504.4,-1.155015961857373
0,-2077.74,-1165.98,-2086.46,-2503.28,-1.1500158927584216
0,-2072.92,-1175.75,-2085.33,-2497.18,-1.1450158236594739
0,-2076.0,-1167.45,-2080.42,-2499.16,-1.1400157545605225
0,-2075.36,-1159.75,-2076.64,-2494.23,-1.1350156854615747
0,-2075.12,-1162.89,-2078.88,-2497.46,-1.1300156163626234
0,-2076.32,-1162.56,-2077.59,-2499.69,-1.125015547263672
0,-2080.29,-1158.79,-2090.13,-2500.47,-1.1200154781647242
0,-2079.0,-1162.62,-2091.21,-2503.1,-1.115015409065773
0,-2084.24,-1170.86,-2086.9,-2503.25,-1.110015339966825
0,-2090.53,-1179.71,-2093.03,-2504.74,-1.1050152708678738
0,-2093.08,-1185.65,-2105.12,-2509.5,-1.100015201768926
0,-2086.94,-1180.23,-2096.2,-2507.9,-1.0950151326699746
0,-2090.16,-1173.2,-2094.29,-2508.0,-1.0900150635710268
0,-2088.01,-1174.34,-2093.84,-2504.89,-1.0850149944720755
0,-2082.97,-1172.18,-2092.45,-2495.94,-1.0800149253731277
0,-2079.93,-1154.09,-2086.82,-2496.73,-1.0750148562741764
0,-2083.93,-1165.57,-2086.81,-2499.18,-1.0700147871752286
0,-2089.18,-1185.51,-2097.3,-2504.51,-1.0650147180762772
0,-2082.4,-1159.82,-2080.71,-2498.51,-1.0600146489773294
0,-2091.99,-1177.86,-2092.73,-2504.94,-1.055014579878378
0,-2086.31,-1185.69,-2103.82,-2509.03,-1.0500145107794303
0,-2082.25,-1175.35,-2084.82,-2502.77,-1.045014441680479
0,-2078.89,-1167.76,-2077.96,-2498.54,-1.0400143725815276
0,-2077.04,-1175.49,-2086.16,-2503.82,-1.0350143034825798
0,-2083.9,-1180.45,-2093.46,-2507.56,-1.0300142343836285
0,-2081.34,-1179.53,-2095.17,-2504.81,-1.0250141652846807
0,-2081.42,-1171.81,-2099.17,-2503.0,-1.0200140961857294
0,-2079.55,-1160.91,-2094.62,-2505.44,-1.0150140270867816
0,-2077.97,-1160.62,-2090.07,-2506.81,-1.0100139579878302
0,-2083.46,-1162.61,-2085.77,-2506.43,-1.0050138888888824
0,-2080.23,-1164.03,-2076.2,-2502.86,-1.000013819789931
0,-2085.39,-1175.89,-2085.55,-2503.32,-0.9950137506909833
0,-2079.11,-1177.99,-2094.78,-2510.59,-0.990013681592032
0,-2083.89,-1179.75,-2100.34,-2509.41,-0.9850136124930842
0,-2084.16,-1170.47,-2088.12,-2510.08,-0.9800135433941328
0,-2086.65,-1173.1,-2090.33,-2508.13,-0.975013474295185
0,-2083.48,-1178.09,-2100.65,-2512.83,-0.9700134051962337
0,-2082.2,-1179.47,-2096.11,-2515.31,-0.9650133360972859
0,-2087.97,-1181.65,-2102.14,-2518.73,-0.9600132669983346
0,-2085.58,-1176.74,-2093.5,-2516.75,-0.9550131978993868
0,-2087.08,-1175.03,-2091.82,-2515.26,-0.9500131288004354
0,-2082.9,-1176.18,-2087.65,-2511.41,-0.9450130597014841
0,-2079.81,-1184.91,-2089.91,-2504.83,-0.9400129906025363
0,-2078.37,-1170.22,-2089.29,-2497.44,-0.935012921503585
0,-2081.33,-1175.03,-2094.48,-2507.95,-0.9300128524046372
0,-2081.8,-1169.68,-2087.83,-2504.29,-0.9250127833056858
0,-2081.35,-1165.87,-2090.04,-2505.39,-0.920012714206738
0,-2084.55,-1177.71,-2095.67,-2506.33,-0.9150126451077867
0,-2085.04,-1186.53,-2099.36,-2509.08,-0.9100125760088389
0,-2090.18,-1171.13,-2098.16,-2507.68,-0.9050125069098875
0,-2084.0,-1162.27,-2086.93,-2495.76,-0.9000124378109398
0,-2080.37,-1171.09,-2088.95,-2497.68,-0.8950123687119884
0,-2089.0,-1166.09,-2089.82,-2501.68,-0.8900122996130406
0,-2086.74,-1180.36,-2096.25,-2506.81,-0.8850122305140893
0,-2085.88,-1173.28,-2087.31,-2507.69,-0.8800121614151415
0,-2076.29,-1166.26,-2082.49,-2500.66,-0.8750120923161901
0,-2082.78,-1169.91,-2087.67,-2502.49,-0.8700120232172424
0,-2084.11,-1169.52,-2096.54,-2506.73,-0.865011954118291
0,-2079.18,-1158.78,-2084.09,-2505.8,-0.8600118850193397
0,-2077.91,-1163.65,-2093.22,-2497.96,-0.8550118159203919
0,-2085.04,-1171.91,-2080.92,-2503.6,-0.8500117468214405
0,-2078.54,-1177.65,-2083.72,-2502.42,-0.8450116777224927
0,-2078.45,-1165.45,-2089.87,-2498.87,-0.8400116086235414
0,-2082.49,-1157.25,-2092.52,-2504.69,-0.8350115395245936
0,-2080.04,-1168.51,-2080.76,-2500.58,-0.8300114704256423
0,-2083.42,-1166.52,-2084.29,-2503.32,-0.8250114013266945
0,-2087.21,-1174.66,-2096.32,-2510.81,-0.8200113322277431
0,-2092.11,-1174.82,-2094.55,-2511.89,-0.8150112631287953
0,-2088.67,-1183.49,-2090.46,-2514.27,-0.810011194029844
0,-2094.66,-1183.9,-2097.56,-2516.01,-0.8050111249308962
0,-2097.58,-1174.77,-2092.9,-2507.37,-0.8000110558319449
0,-2093.58,-1179.43,-2102.89,-2511.41,-0.7950109867329971
0,-2088.24,-1174.27,-2095.02,-2509.57,-0.7900109176340457
0,-2085.03,-1180.52,-2096.09,-2510.58,-0.785010848535098
0,-2085.37,-1167.87,-2091.8,-2500.73,-0.7800107794361466
0,-2083.97,-1162.88,-2091.54,-2499.24,-0.7750107103371988
0,-2085.5,-1174.93,-2081.03,-2505.37,-0.7700106412382475
0,-2082.24,-1176.32,-2091.8,-2497.35,-0.7650105721392961
0,-2069.17,-1158.42,-2076.72,-2484.06,-0.7600105030403483
0,-2064.61,-1160.93,-2071.72,-2487.03,-0.755010433941397
0,-2071.62,-1156.38,-2077.94,-2493.66,-0.7500103648424492
0,-2075.68,-1155.89,-2079.04,-2499.26,-0.7450102957434979
0,-2068.24,-1147.87,-2075.19,-2495.64,-0.7400102266445501
0,-2072.57,-1162.37,-2080.17,-2501.83,-0.7350101575455987
0,-2078.36,-1180.87,-2095.62,-2507.7,-0.7300100884466509
0,-2085.47,-1178.3,-2092.94,-2507.52,-0.7250100193476996
0,-2078.86,-1172.02,-2089.32,-2507.13,-0.7200099502487518
0,-2084.6,-1173.9,-2094.64,-2507.81,-0.7150098811498005
0,-2083.63,-1170.82,-2093.17,-2510.22,-0.7100098120508527
0,-2081.39,-1169.78,-2091.85,-2505.54,-0.7050097429519013
0,-2076.98,-1159.71,-2086.65,-2502.43,-0.7000096738529535
0,-2076.25,-1155.75,-2078.54,-2500.8,-0.6950096047540022
0,-2080.91,-1180.15,-2092.79,-2493.16,-0.6900095356550544
0,-2073.14,-1164.67,-2086.47,-2491.76,-0.6850094665561031
0,-2077.39,-1165.98,-2093.53,-2496.33,-0.6800093974571517
0,-2073.73,-1152.62,-2078.89,-2491.21,-0.6750093283582039
0,-2071.65,-1155.85,-2073.81,-2487.14,-0.6700092592592526
0,-2081.46,-1170.59,-2088.4,-2502.38,-0.6650091901603048
0,-2080.28,-1163.7,-2090.84,-2499.53,-0.6600091210613535
0,-2082.5,-1173.82,-2085.03,-2501.79,-0.6550090519624057
0,-2077.16,-1169.55,-2082.31,-2499.13,-0.6500089828634543
0,-2077.29,-1167.97,-2086.67,-2499.2,-0.6450089137645065
0,-2073.48,-1164.23,-2083.62,-2501.99,-0.6400088446655552
0,-2082.38,-1170.12,-2091.52,-2500.87,-0.6350087755666074
0,-2089.22,-1173.25,-2093.33,-2503.7,-0.630008706467656
0,-2087.2,-1175.41,-2097.67,-2506.57,-0.6250086373687083
0,-2083.11,-1172.81,-2086.28,-2508.88,-0.6200085682697569
0,-2081.76,-1160.11,-2086.5,-2507.41,-0.6150084991708091
0,-2084.71,-1169.14,-2089.79,-2502.71,-0.6100084300718578
0,-2081.85,-1169.73,-2086.05,-2500.91,-0.60500836097291
0,-2078.77,-1161.35,-2082.96,-2495.39,-0.6000082918739587
0,-2077.54,-1172.69,-2087.71,-2503.69,-0.5950082227750073
0,-2083.42,-1177.05,-2093.07,-2503.85,-0.5900081536760595
0,-2087.35,-1177.74,-2096.9,-2506.9,-0.5850080845771082
0,-2075.15,-1172.95,-2083.29,-2499.16,-0.5800080154781604
0,-2080.69,-1158.16,-2080.83,-2507.48,-0.575007946379209
0,-2084.19,-1167.13,-2089.51,-2500.71,-0.5700078772802613
0,-2085.08,-1165.27,-2089.39,-2509.6,-0.5650078081813099
0,-2082.69,-1180.31,-2093.22,-2510.59,-0.5600077390823621
0,-2084.23,-1180.2,-2097.67,-2510.27,-0.5550076699834108
0,-2080.95,-1173.02,-2089.99,-2506.42,-0.550007600884463
0,-2083.94,-1159.93,-2085.46,-2502.86,-0.5450075317855116
0,-2083.38,-1177.89,-2089.41,-2504.2,-0.5400074626865639
0,-2079.93,-1171.09,-2101.57,-2511.13,-0.5350073935876125
0,-2080.57,-1165.76,-2090.74,-2509.25,-0.5300073244886647
0,-2083.48,-1173.75,-2085.48,-2507.37,-0.5250072553897134
0,-2087.13,-1173.22,-2101.11,-2510.3,-0.5200071862907656
0,-2078.31,-1170.54,-2092.24,-2505.79,-0.5150071171918142
0,-2075.1,-1166.26,-2079.77,-2496.76,-0.5100070480928665
0,-2078.79,-1167.52,-2082.7,-2496.0,-0.5050069789939151
0,-2073.91,-1159.01,-2073.06,-2497.43,-0.5000069098949638
0,-2075.19,-1163.97,-2085.39,-2499.85,-0.495006840796016
0,-2081.42,-1165.91,-2083.6,-2498.21,-0.49000677169706464
0,-2078.0,-1172.43,-2087.31,-2499.76,-0.48500670259811685
0,-2079.88,-1169.12,-2086.18,-2504.08,-0.4800066334991655
0,-2075.18,-1163.45,-2088.98,-2504.93,-0.4750065644002177
0,-2071.43,-1166.06,-2085.09,-2505.66,-0.47000649530126637
0,-2080.73,-1179.99,-2085.09,-2507.43,-0.4650064262023186
0,-2080.07,-1158.97,-2082.94,-2500.08,-0.46000635710336724
0,-2085.69,-1168.69,-2091.28,-2507.67,-0.45500628800441945
0,-2089.02,-1181.09,-2096.52,-2516.02,-0.4500062189054681
0,-2087.04,-1180.25,-2098.48,-2509.88,-0.4450061498065203
0,-2080.73,-1164.02,-2089.99,-2506.25,-0.44000608070756897
0,-2079.76,-1168.88,-2087.05,-2500.95,-0.4350060116086212
0,-2080.86,-1167.21,-2086.23,-2502.93,-0.43000594250966984
0,-2079.38,-1162.31,-2085.1,-2501.18,-0.42500587341072205
0,-2082.86,-1166.73,-2085.29,-2509.1,-0.4200058043117707
0,-2077.91,-1165.59,-2082.05,-2501.04,-0.41500573521281936
0,-2081.93,-1161.39,-2088.96,-2499.32,-0.41000566611387157
0,-2080.31,-1173.31,-2091.8,-2493.71,-0.4050055970149202
0,-2086.67,-1178.02,-2093.76,-2499.52,-0.40000552791597244
0,-2081.13,-1171.96,-2091.48,-2497.77,-0.3950054588170211
0,-2075.92,-1166.82,-2080.44,-2499.41,-0.3900053897180733
0,-2078.64,-1159.4,-2083.49,-2504.53,-0.38500532061912196
0,-2083.22,-1158.64,-2083.41,-2499.09,-0.38000525152017417
0,-2083.34,-1175.09,-2086.15,-2505.04,-0.3750051824212228
0,-2088.29,-1178.55,-2093.27,-2510.73,-0.37000511332227504
0,-2098.66,-1173.32,-2096.94,-2519.88,-0.3650050442233237
0,-2091.04,-1177.9,-2094.0,-2511.47,-0.3600049751243759
0,-2083.75,-1161.81,-2087.89,-2502.2,-0.35500490602542456
0,-2084.82,-1175.18,-2094.73,-2503.44,-0.35000483692647677
0,-2072.65,-1161.6,-2088.8,-2500.21,-0.3450047678275254
0,-2077.15,-1167.07,-2091.82,-2506.04,-0.34000469872857764
0,-2081.46,-1171.73,-2089.33,-2507.04,-0.3350046296296263
0,-2084.34,-1176.89,-2096.97,-2509.01,-0.3300045605306785
0,-2085.84,-1167.46,-2092.67,-2504.58,-0.32500449143172716
0,-2087.66,-1167.99,-2093.09,-2506.14,-0.3200044223327758
0,-2090.16,-1179.21,-2096.83,-2506.61,-0.315004353233828
0,-2089.38,-1165.24,-2092.12,-2501.62,-0.3100042841348767
0,-2088.72,-1173.89,-2093.41,-2506.85,-0.3050042150359289
0,-2085.73,-1163.28,-2095.83,-2502.21,-0.30000414593697755
0,-2082.87,-1176.05,-2095.94,-2499.79,-0.29500407683802976
0,-2086.35,-1186.86,-2092.38,-2511.48,-0.2900040077390784
0,-2084.52,-1180.61,-2091.2,-2507.24,-0.2850039386401306
0,-2079.93,-1168.47,-2086.93,-2502.8,-0.2800038695411793
0,-2079.37,-1169.25,-2081.79,-2508.35,-0.2750038004422315
0,-2076.13,-1165.63,-2082.36,-2502.41,-0.27000373134328015
0,-2093.05,-1176.58,-2094.18,-2508.01,-0.26500366224433236
0,-2080.18,-1170.52,-2089.62,-2500.06,-0.260003593145381
0,-2082.85,-1180.22,-2095.19,-2504.92,-0.2550035240464332
0,-2083.31,-1171.69,-2091.28,-2509.28,-0.2500034549474819
0,-2084.49,-1169.73,-2083.36,-2505.58,-0.2450033858485341
0,-2082.48,-1153.8,-2087.08,-2501.96,-0.24000331674958275
0,-2075.66,-1169.77,-2088.18,-2505.03,-0.2350032476506314
0,-2082.77,-1183.05,-2089.21,-2504.26,-0.23000317855168362
0,-2076.7,-1159.44,-2087.49,-2492.86,-0.22500310945273228
0,-2076.77,-1163.98,-2084.57,-2499.61,-0.22000304035378448
0,-2076.7,-1165.64,-2082.4,-2500.24,-0.21500297125483314
0,-2070.28,-1163.66,-2084.61,-2501.62,-0.21000290215588535
0,-2081.61,-1169.42,-2087.84,-2506.7,-0.205002833056934
0,-2082.49,-1167.62,-2079.49,-2502.57,-0.20000276395798622
0,-2079.42,-1166.91,-2088.11,-2505.29,-0.19500269485903488
0,-2088.08,-1172.42,-2084.42,-2509.09,-0.19000262576008708
0,-2084.47,-1171.85,-2088.52,-2507.29,-0.18500255666113574
0,-2088.29,-1172.56,-2101.49,-2509.3,-0.18000248756218795
0,-2089.87,-1171.18,-2097.59,-2509.3,-0.1750024184632366
0,-2080.37,-1169.39,-2087.64,-2497.76,-0.17000234936428882
0,-2082.31,-1165.67,-2093.51,-2502.5,-0.16500228026533748
0,-2081.79,-1181.87,-2084.69,-2511.05,-0.16000221116638969
0,-2088.35,-1175.99,-2094.89,-2513.0,-0.15500214206743834
0,-2082.98,-1175.72,-2088.93,-2511.05,-0.15000207296849055
0,-2082.96,-1165.61,-2091.06,-2508.15,-0.1450020038695392
0,-2086.61,-1165.97,-2101.36,-2511.77,-0.14000193477058787
0,-2091.2,-1182.33,-2102.41,-2517.12,-0.13500186567164008
0,-2093.71,-1184.51,-2098.94,-2517.67,-0.13000179657268873
0,-2082.37,-1170.94,-2083.86,-2503.67,-0.12500172747374094
0,-2081.41,-1173.21,-2089.86,-2501.04,-0.1200016583747896
0,-2084.67,-1175.67,-2094.95,-2499.92,-0.11500158927584181
0,-2079.64,-1168.88,-2095.07,-2500.79,-0.11000152017689047
0,-2077.26,-1171.04,-2087.95,-2497.59,-0.10500145107794268
0,-2081.12,-1154.16,-2077.84,-2498.2,-0.10000138197899133
0,-2075.73,-1164.78,-2084.07,-2498.18,-0.09500131288004354
0,-2080.24,-1168.94,-2089.13,-2502.77,-0.0900012437810922
0,-2080.66,-1166.18,-2090.54,-2500.87,-0.08500117468214441
0,-2081.11,-1164.77,-2089.81,-2499.25,-0.08000110558319307
0,-2073.74,-1157.49,-2082.56,-2498.78,-0.07500103648424528
0,-2076.07,-1164.78,-2080.94,-2496.61,-0.07000096738529393
0,-2073.59,-1172.5,-2084.34,-2500.42,-0.06500089828634614
0,-2074.33,-1162.53,-2083.61,-2500.82,-0.0600008291873948
0,-2077.71,-1168.73,-2085.25,-2505.64,-0.05500076008844346
0,-2075.57,-1169.29,-2082.06,-2502.76,-0.050000690989495666
0,-2080.85,-1180.73,-2088.64,-2500.38,-0.04500062189054432
0,-2084.94,-1175.49,-2088.2,-2498.6,-0.04000055279159653
0,-2078.56,-1170.57,-2091.54,-2494.2,-0.03500048369264519
0,-2090.07,-1173.14,-2093.25,-2496.0,-0.0300004145936974
0,-2084.01,-1172.53,-2084.44,-2501.8,-0.025000345494746057
0,-2081.26,-1171.11,-2087.52,-2501.81,-0.020000276395798267
0,-2081.66,-1166.54,-2087.15,-2505.95,-0.015000207296846924
0,-2077.5,-1163.58,-2082.26,-2503.93,-0.010000138197899133
0,-2072.84,-1155.56,-2082.15,-2492.35,-0.00500006909894779
0,-2082.92,-1164.37,-2081.35,-2503.04,0.0
0,-2083.04,-1178.09,-2093.75,-2502.82,0.005000069098951343
0,-2075.67,-1173.53,-2085.99,-2504.29,0.010000138197899133
0,-2080.96,-1172.42,-2090.04,-2500.13,0.015000207296850476
0,-2088.62,-1172.17,-2097.07,-2507.75,0.020000276395798267
0,-2087.65,-1187.43,-2095.43,-2508.25,0.02500034549474961
0,-2082.78,-1170.39,-2091.68,-2501.51,0.030000414593700953
0,-2080.31,-1166.16,-2092.69,-2503.34,0.03500048369264874
0,-2085.07,-1163.16,-2087.29,-2506.18,0.040000552791600086
0,-2082.28,-1168.66,-2089.08,-2502.18,0.045000621890547876
0,-2084.55,-1159.84,-2086.12,-2504.55,0.05000069098949922
0,-2085.02,-1179.64,-2084.66,-2506.81,0.05500076008844701
0,-2081.82,-1171.97,-2088.88,-2506.89,0.06000082918739835
0,-2080.53,-1175.44,-2091.47,-2503.79,0.06500089828634614
0,-2082.65,-1173.29,-2093.99,-2504.32,0.07000096738529749
0,-2083.14,-1163.45,-2086.49,-2506.53,0.07500103648424528
0,-2079.23,-1170.99,-2088.24,-2504.35,0.08000110558319662
0,-2083.68,-1177.25,-2095.73,-2507.92,0.08500117468214441
0,-2077.31,-1168.42,-2086.6,-2495.56,0.09000124378109575
0,-2069.3,-1156.57,-2074.13,-2488.71,0.09500131288004354
0,-2081.1,-1172.94,-2087.71,-2498.56,0.10000138197899489
0,-2078.61,-1175.79,-2089.67,-2498.55,0.10500145107794268
0,-2076.41,-1160.16,-2088.28,-2499.26,0.11000152017689402
0,-2078.69,-1168.92,-2088.25,-2507.91,0.11500158927584181
0,-2079.64,-1167.02,-2087.05,-2500.76,0.12000165837479315
0,-2078.12,-1161.78,-2083.72,-2498.21,0.1250017274737445
0,-2081.21,-1160.19,-2081.53,-2493.12,0.13000179657269229
0,-2077.52,-1158.27,-2081.13,-2496.99,0.13500186567164363
0,-2077.17,-1167.42,-2083.68,-2493.83,0.14000193477059142
0,-2074.38,-1162.75,-2085.45,-2497.84,0.14500200386954276
0,-2080.34,-1167.88,-2086.61,-2497.58,0.15000207296849055
0,-2081.71,-1162.21,-2089.21,-2500.84,0.1550021420674419
0,-2076.83,-1184.17,-2088.45,-2502.71,0.16000221116638969
0,-2077.72,-1177.33,-2078.69,-2499.43,0.16500228026534103
0,-2080.65,-1177.09,-2096.19,-2504.04,0.17000234936428882
0,-2076.7,-1156.72,-2088.99,-2501.62,0.17500241846324016
0,-2077.88,-1164.01,-2076.56,-2504.41,0.18000248756218795
0,-2082.91,-1169.2,-2089.04,-2504.28,0.1850025566611393
0,-2085.31,-1172.14,-2098.23,-2509.07,0.19000262576008708
0,-2082.78,-1175.93,-2091.88,-2504.59,0.19500269485903843
0,-2080.9,-1162.19,-2088.0,-2495.47,0.20000276395798622
0,-2080.22,-1170.66,-2087.45,-2499.73,0.20500283305693756
0,-2073.87,-1169.79,-2088.46,-2499.82,0.2100029021558889
0,-2081.04,-1175.9,-2091.2,-2504.8,0.2150029712548367
0,-2086.82,-1176.69,-2094.84,-2505.29,0.22000304035378804
0,-2082.95,-1168.54,-2097.06,-2503.32,0.22500310945273583
0,-2082.83,-1165.89,-2089.05,-2502.84,0.23000317855168717
0,-2085.26,-1171.71,-2087.39,-2504.78,0.23500324765063496
0,-2081.12,-1174.54,-2089.39,-2503.18,0.2400033167495863
0,-2081.15,-1173.09,-2090.83,-2500.64,0.2450033858485341
0,-2079.32,-1178.88,-2090.76,-2502.87,0.25000345494748544
0,-2086.97,-1171.83,-2092.81,-2508.37,0.2550035240464332
0,-2080.66,-1176.42,-2097.84,-2503.49,0.26000359314538457
0,-2091.25,-1170.17,-2101.89,-2509.93,0.26500366224433236
0,-2085.93,-1167.3,-2092.11,-2498.5,0.2700037313432837
0,-2089.29,-1163.34,-2092.8,-2512.57,0.2750038004422315
0,-2090.42,-1162.21,-2089.63,-2515.46,0.28000386954118284
0,-2085.14,-1171.89,-2088.27,-2510.79,0.2850039386401306
0,-2083.89,-1175.79,-2075.93,-2501.01,0.29000400773908197
0,-2091.77,-1182.21,-2100.05,-2509.16,0.29500407683802976
0,-2093.41,-1180.88,-2100.76,-2504.49,0.3000041459369811
0,-2091.97,-1173.89,-2095.68,-2502.28,0.30500421503593245
0,-2080.76,-1173.32,-2088.15,-2500.4,0.31000428413488024
0,-2076.15,-1168.57,-2080.9,-2495.08,0.3150043532338316
0,-2078.56,-1172.7,-2082.95,-2498.35,0.32000442233277937
0,-2086.52,-1168.88,-2086.97,-2502.05,0.3250044914317307
0,-2080.67,-1151.6,-2087.87,-2500.41,0.3300045605306785
0,-2074.48,-1163.07,-2084.03,-2503.06,0.33500462962962985
0,-2077.88,-1163.98,-2086.87,-2506.39,0.34000469872857764
0,-2083.3,-1163.22,-2088.84,-2503.77,0.345004767827529
0,-2083.91,-1168.17,-2095.7,-2510.06,0.35000483692647677
0,-2078.58,-1161.62,-2084.44,-2500.92,0.3550049060254281
0,-2083.81,-1177.23,-2085.78,-2502.0,0.3600049751243759
0,-2081.01,-1173.68,-2090.14,-2508.47,0.36500504422332725
0,-2082.64,-1171.29,-2085.84,-2510.13,0.37000511332227504
0,-2084.34,-1173.0,-2095.44,-2509.76,0.3750051824212264
0,-2092.95,-1190.55,-2104.79,-2519.1,0.38000525152017417
0,-2088.25,-1191.97,-2100.18,-2513.31,0.3850053206191255
0,-2092.2,-1185.21,-2100.99,-2517.25,0.39000538971807686
0,-2084.94,-1170.84,-2092.56,-2510.0,0.39500545881702465
0,-2084.3,-1176.23,-2090.79,-2513.74,0.400005527915976
0,-2087.23,-1168.83,-2094.72,-2512.23,0.4050055970149238
0,-2079.03,-1150.94,-2082.2,-2500.82,0.4100056661138751
0,-2078.21,-1159.2,-2086.76,-2504.32,0.4150057352128229
0,-2078.89,-1167.37,-2078.08,-2502.46,0.42000580431177426
0,-2085.09,-1177.41,-2098.25,-2513.52,0.42500587341072205
0,-2087.42,-1185.15,-2096.37,-2512.21,0.4300059425096734
0,-2085.06,-1191.5,-2098.54,-2516.57,0.4350060116086212
0,-2086.62,-1178.14,-2101.04,-2510.04,0.4400060807075725
0,-2084.4,-1167.79,-2094.54,-2508.04,0.44500614980652387
0,-2088.11,-1174.34,-2097.78,-2511.92,0.45000621890547166
0,-2079.2,-1164.65,-2080.87,-2504.54,0.45500628800441945
0,-2087.43,-1166.91,-2088.87,-2505.38,0.46000635710336724
0,-2075.01,-1171.13,-2088.05,-2505.41,0.46500642620232213
0,-2084.63,-1164.44,-2095.28,-2509.39,0.4700064953012699
0,-2087.34,-1172.06,-2101.11,-2510.27,0.4750065644002177
0,-2093.97,-1174.55,-2090.34,-2505.18,0.4800066334991726
0,-2091.76,-1182.53,-2102.84,-2512.36,0.4850067025981204
0,-2087.62,-1186.68,-2091.26,-2507.22,0.4900067716970682
0,-2082.81,-1180.19,-2087.89,-2505.75,0.495006840796016
0,-2087.42,-1175.99,-2100.94,-2508.5,0.5000069098949709
0,-2088.06,-1167.58,-2097.21,-2508.11,0.5050069789939187
0,-2073.38,-1161.69,-2080.33,-2497.45,0.5100070480928665
0,-2073.12,-1170.67,-2080.37,-2498.27,0.5150071171918142
0,-2072.4,-1164.07,-2081.12,-2499.88,0.5200071862907691
0,-2072.04,-1152.25,-2072.37,-2492.02,0.5250072553897169
0,-2081.07,-1159.5,-2087.51,-2500.27,0.5300073244886647
0,-2080.16,-1154.84,-2078.73,-2494.32,0.5350073935876125
0,-2070.97,-1157.84,-2074.16,-2489.63,0.5400074626865674
0,-2072.86,-1162.55,-2075.86,-2489.81,0.5450075317855152
0,-2071.05,-1163.32,-2087.23,-2495.24,0.550007600884463
0,-2076.53,-1164.03,-2086.25,-2490.03,0.5550076699834108
0,-2071.31,-1160.23,-2078.68,-2485.02,0.5600077390823657
0,-2076.54,-1162.1,-2091.31,-2497.42,0.5650078081813135
0,-2077.32,-1164.68,-2078.99,-2488.77,0.5700078772802613
0,-2077.6,-1161.8,-2079.43,-2493.7,0.5750079463792162
0,-2071.63,-1160.81,-2072.3,-2497.31,0.5800080154781639
0,-2071.72,-1156.28,-2075.36,-2496.89,0.5850080845771117
0,-2076.63,-1155.6,-2086.74,-2501.29,0.5900081536760595
0,-2083.61,-1160.17,-2091.04,-2511.38,0.5950082227750144
0,-2079.91,-1164.88,-2086.54,-2503.75,0.6000082918739622
0,-2072.79,-1162.11,-2089.69,-2503.5,0.60500836097291
0,-2073.43,-1157.45,-2084.43,-2507.26,0.6100084300718578
0,-2077.18,-1167.29,-2085.08,-2508.09,0.6150084991708127
0,-2080.26,-1173.5,-2088.56,-2509.09,0.6200085682697605
0,-2086.23,-1174.01,-2094.01,-2505.81,0.6250086373687083
0,-2076.59,-1167.73,-2085.49,-2500.35,0.630008706467656
0,-2078.3,-1166.1,-2084.67,-2501.15,0.635008775566611
0,-2069.15,-1166.09,-2075.97,-2498.51,0.6400088446655587
0,-2074.02,-1163.61,-2091.82,-2496.38,0.6450089137645065
0,-2077.24,-1154.4,-2083.85,-2495.17,0.6500089828634543
0,-2071.75,-1169.73,-2096.08,-2501.06,0.6550090519624092
0,-2077.26,-1177.13,-2090.39,-2503.54,0.660009121061357
0,-2080.05,-1176.45,-2085.69,-2503.29,0.6650091901603048
0,-2084.56,-1175.15,-2091.4,-2502.37,0.6700092592592597
0,-2086.98,-1178.64,-2091.98,-2510.14,0.6750093283582075
0,-2081.24,-1161.4,-2087.32,-2498.4,0.6800093974571553
0,-2073.28,-1158.29,-2083.37,-2493.03,0.6850094665561031
0,-2078.64,-1160.23,-2088.46,-2491.39,0.690009535655058
0,-2080.63,-1169.5,-2072.47,-2495.67,0.6950096047540057
0,-2080.61,-1175.31,-2085.84,-2498.87,0.7000096738529535
0,-2081.47,-1180.43,-2104.48,-2503.55,0.7050097429519013
0,-2072.11,-1168.44,-2081.17,-2496.86,0.7100098120508562
0,-2082.95,-1173.9,-2086.32,-2503.37,0.715009881149804
0,-2089.22,-1173.24,-2090.89,-2508.23,0.7200099502487518
0,-2084.49,-1172.57,-2095.34,-2505.6,0.7250100193476996
0,-2080.81,-1169.81,-2091.92,-2500.33,0.7300100884466545
0,-2077.83,-1164.08,-2083.38,-2498.26,0.7350101575456023
0,-2082.3,-1164.1,-2082.89,-2500.32,0.7400102266445501
0,-2072.36,-1157.59,-2084.61,-2501.76,0.745010295743505
0,-2082.48,-1159.83,-2086.17,-2499.83,0.7500103648424528
0,-2084.15,-1173.1,-2085.41,-2498.91,0.7550104339414005
0,-2086.53,-1180.47,-2091.83,-2501.75,0.7600105030403483
0,-2086.68,-1182.49,-2108.13,-2508.0,0.7650105721393032
0,-2092.07,-1185.66,-2098.32,-2508.92,0.770010641238251
0,-2091.97,-1180.39,-2094.63,-2508.41,0.7750107103371988
0,-2087.88,-1180.11,-2091.42,-2508.81,0.7800107794361466
0,-2082.36,-1166.01,-2086.66,-2500.34,0.7850108485351015
0,-2078.32,-1158.96,-2078.09,-2498.12,0.7900109176340493
0,-2076.76,-1152.48,-2073.17,-2495.9,0.7950109867329971
0,-2075.76,-1159.41,-2075.67,-2502.53,0.8000110558319449
0,-2078.39,-1167.98,-2080.67,-2505.6,0.8050111249308998
0,-2077.82,-1161.66,-2084.38,-2497.54,0.8100111940298476
0,-2079.57,-1160.27,-2088.95,-2498.63,0.8150112631287953
0,-2077.46,-1171.18,-2095.13,-2498.42,0.8200113322277431
0,-2070.49,-1163.45,-2077.73,-2494.74,0.825011401326698
0,-2078.05,-1163.29,-2081.72,-2498.7,0.8300114704256458
0,-2078.4,-1156.78,-2086.17,-2497.58,0.8350115395245936
0,-2069.77,-1167.1,-2084.03,-2503.1,0.8400116086235485
0,-2072.38,-1168.09,-2076.3,-2506.8,0.8450116777224963
0,-2078.37,-1172.71,-2087.6,-2516.95,0.8500117468214441
0,-2078.14,-1174.46,-2093.06,-2511.89,0.8550118159203919
0,-2077.6,-1172.42,-2095.63,-2509.61,0.8600118850193468
0,-2073.32,-1179.88,-2084.43,-2514.53,0.8650119541182946
0,-2067.78,-1162.85,-2080.75,-2509.74,0.8700120232172424
0,-2072.12,-1164.57,-2071.9,-2504.94,0.8750120923161901
0,-2073.0,-1161.59,-2080.5,-2502.78,0.880012161415145
0,-2076.26,-1162.42,-2083.46,-2496.52,0.8850122305140928
0,-2067.19,-1158.72,-2072.03,-2493.18,0.8900122996130406
0,-2077.65,-1172.31,-2090.26,-2504.38,0.8950123687119884
0,-2080.6,-1157.77,-2090.31,-2507.56,0.9000124378109433
0,-2081.23,-1163.12,-2089.19,-2505.36,0.9050125069098911
0,-2078.24,-1179.02,-2085.66,-2497.28,0.9100125760088389
0,-2074.31,-1179.88,-2093.11,-2501.31,0.9150126451077867
0,-2073.99,-1177.91,-2081.09,-2497.86,0.9200127142067416
0,-2079.44,-1171.92,-2084.46,-2495.2,0.9250127833056894
0,-2081.64,-1172.83,-2100.99,-2500.32,0.9300128524046372
0,-2082.77,-1169.97,-2091.26,-2499.53,0.935012921503592
0,-2078.06,-1160.66,-2081.78,-2497.41,0.9400129906025398
0,-2075.16,-1174.95,-2087.29,-2495.96,0.9450130597014876
0,-2079.66,-1185.69,-2084.82,-2495.1,0.9500131288004354
0,-2073.27,-1163.34,-2077.35,-2494.99,0.9550131978993903
0,-2079.45,-1169.9,-2076.99,-2498.86,0.9600132669983381
0,-2088.29,-1174.18,-2095.1,-2503.34,0.9650133360972859
0,-2088.19,-1169.36,-2090.0,-2498.18,0.9700134051962337
0,-2089.19,-1178.17,-2098.51,-2505.84,0.9750134742951886
0,-2087.35,-1171.56,-2091.64,-2499.36,0.9800135433941364
0,-2081.56,-1169.39,-2081.38,-2500.34,0.9850136124930842
0,-2079.92,-1167.54,-2082.85,-2494.96,0.990013681592032
0,-2086.64,-1168.33,-2085.13,-2500.61,0.9950137506909869
0,-2081.94,-1161.9,-2088.37,-2493.87,1.0000138197899346
0,-2077.15,-1165.52,-2089.04,-2500.04,1.0050138888888824
0,-2077.18,-1170.47,-2090.47,-2500.95,1.0100139579878302
0,-2077.63,-1166.79,-2091.58,-2499.71,1.0150140270867851
0,-2087.88,-1167.3,-2090.81,-2507.38,1.020014096185733
0,-2088.31,-1170.07,-2098.49,-2508.18,1.0250141652846807
0,-2088.7,-1171.3,-2094.2,-2514.89,1.0300142343836356
0,-2085.81,-1169.39,-2089.48,-2511.79,1.0350143034825834
0,-2090.83,-1175.59,-2104.64,-2512.8,1.0400143725815312
0,-2089.41,-1167.02,-2095.07,-2509.34,1.045014441680479
0,-2079.6,-1160.72,-2090.68,-2498.4,1.0500145107794339
0,-2083.42,-1171.64,-2090.05,-2505.34,1.0550145798783817
0,-2084.91,-1176.77,-2093.72,-2508.7,1.0600146489773294
0,-2084.95,-1186.54,-2091.73,-2506.55,1.0650147180762772
0,-2083.15,-1175.46,-2085.85,-2504.17,1.0700147871752321
0,-2080.13,-1168.78,-2089.63,-2502.44,1.07501485627418
0,-2072.39,-1167.6,-2078.54,-2509.3,1.0800149253731277
0,-2066.18,-1161.54,-2073.55,-2489.45,1.0850149944720755
0,-2078.21,-1158.56,-2074.29,-2486.06,1.0900150635710304
0,-2095.04,-1181.43,-2091.91,-2512.28,1.0950151326699782
0,-2101.49,-1184.02,-2110.55,-2520.47,1.100015201768926
0,-2090.22,-1178.11,-2100.72,-2517.19,1.1050152708678809
0,-2090.0,-1174.58,-2101.68,-2510.71,1.1100153399668287
0,-2091.6,-1177.03,-2104.94,-2515.36,1.1150154090657765
0,-2099.88,-1178.32,-2104.1,-2522.65,1.1200154781647242
0,-2093.93,-1162.3,-2094.74,-2515.51,1.1250155472636791
0,-2092.32,-1163.73,-2089.03,-2508.15,1.130015616362627
0,-2084.57,-1166.33,-2090.17,-2500.61,1.1350156854615747
0,-2082.22,-1163.64,-2090.74,-2505.36,1.1400157545605225
0,-2085.55,-1172.43,-2087.06,-2508.67,1.1450158236594774
0,-2086.58,-1170.65,-2095.13,-2504.62,1.1500158927584252
0,-2081.9,-1167.76,-2085.53,-2501.97,1.155015961857373
0,-2080.89,-1160.56,-2087.17,-2503.73,1.1600160309563208
0,-2081.68,-1162.45,-2087.05,-2500.15,1.1650161000552757
0,-2079.62,-1160.93,-2079.04,-2501.25,1.1700161691542235
0,-2081.57,-1167.92,-2090.48,-2504.08,1.1750162382531713
0,-2084.66,-1173.17,-2099.82,-2506.09,1.180016307352119
0,-2084.43,-1173.81,-2088.75,-2508.74,1.185016376451074
0,-2076.82,-1169.45,-2085.81,-2504.79,1.1900164455500217
0,-2083.21,-1184.96,-2097.33,-2504.98,1.1950165146489695
0,-2093.45,-1181.98,-2102.56,-2515.92,1.2000165837479244
0,-2091.15,-1180.21,-2099.85,-2514.21,1.2050166528468722
0,-2087.16,-1182.2,-2090.34,-2511.26,1.21001672194582
0,-2094.83,-1185.87,-2109.37,-2518.09,1.2150167910447678
0,-2086.41,-1171.95,-2093.44,-2507.88,1.2200168601437227
0,-2081.21,-1172.65,-2092.71,-2504.67,1.2250169292426705
0,-2083.57,-1171.75,-2095.57,-2506.46,1.2300169983416183
0,-2085.3,-1176.16,-2098.11,-2508.71,1.235017067440566
0,-2081.27,-1172.32,-2102.13,-2508.23,1.240017136539521
0,-2085.39,-1176.88,-2095.4,-2509.22,1.2450172056384687
0,-2086.02,-1176.04,-2098.28,-2513.29,1.2500172747374165
0,-2084.98,-1170.5,-2093.61,-2507.83,1.2550173438363643
0,-2084.57,-1170.76,-2087.16,-2506.52,1.2600174129353192
0,-2091.16,-1177.42,-2100.8,-2508.61,1.265017482034267
0,-2086.71,-1166.68,-2091.19,-2507.72,1.2700175511332148
0,-2078.0,-1174.09,-2102.08,-2505.6,1.2750176202321626
0,-2090.38,-1180.28,-2095.21,-2513.77,1.2800176893311175
0,-2091.18,-1182.08,-2100.81,-2516.74,1.2850177584300653
0,-2086.22,-1175.53,-2096.46,-2514.39,1.290017827529013
0,-2084.76,-1174.36,-2098.13,-2511.85,1.295017896627968
0,-2087.42,-1172.71,-2100.83,-2510.77,1.3000179657269157
0,-2090.38,-1169.58,-2094.5,-2516.61,1.3050180348258635
0,-2091.52,-1174.04,-2100.12,-2515.49,1.3100181039248113
0,-2085.17,-1184.82,-2096.65,-2516.87,1.3150181730237662
0,-2087.56,-1166.56,-2099.09,-2504.13,1.320018242122714
0,-2078.39,-1164.93,-2082.6,-2502.19,1.3250183112216618
0,-2088.54,-1179.34,-2095.84,-2508.91,1.3300183803206096
0,-2094.47,-1186.64,-2108.96,-2512.31,1.3350184494195645
0,-2091.01,-1182.79,-2104.04,-2515.45,1.3400185185185123
0,-2094.69,-1185.03,-2097.06,-2515.93,1.34501858761746
0,-2087.1,-1171.83,-2087.08,-2509.57,1.3500186567164079
0,-2093.25,-1173.78,-2091.85,-2507.55,1.3550187258153628
0,-2087.22,-1163.09,-2096.97,-2505.67,1.3600187949143105
0,-2084.12,-1165.98,-2095.35,-2504.85,1.3650188640132583
0,-2089.47,-1179.48,-2100.19,-2508.02,1.3700189331122132
0,-2083.98,-1178.15,-2103.26,-2504.11,1.375019002211161
0,-2080.65,-1173.91,-2088.65,-2508.41,1.3800190713101088
0,-2081.95,-1168.78,-2090.62,-2511.01,1.3850191404090566
0,-2085.6,-1170.54,-2092.36,-2509.29,1.3900192095080115
0,-2084.44,-1164.86,-2093.83,-2506.17,1.3950192786069593
0,-2087.5,-1162.32,-2079.72,-2505.29,1.400019347705907
0,-2080.37,-1170.04,-2092.3,-2507.86,1.4050194168048549
0,-2074.47,-1152.04,-2076.82,-2503.08,1.4100194859038098
0,-2072.19,-1158.11,-2069.8,-2496.25,1.4150195550027576
0,-2070.16,-1161.66,-2077.04,-2495.94,1.4200196241017053
0,-2073.94,-1168.51,-2084.98,-2498.29,1.4250196932006531
0,-2078.18,-1172.64,-2087.32,-2501.26,1.430019762299608
0,-2079.6,-1176.93,-2108.27,-2510.56,1.4350198313985558
0,-2079.17,-1172.47,-2088.0,-2504.85,1.4400199004975036
0,-2074.58,-1166.1,-2076.97,-2504.9,1.4450199695964514
0,-2077.33,-1165.63,-2078.77,-2503.74,1.4500200386954063
0,-2075.02,-1163.96,-2075.3,-2506.0,1.455020107794354
0,-2077.84,-1160.01,-2085.6,-2498.83,1.4600201768933019
0,-2080.61,-1162.81,-2083.19,-2503.24,1.4650202459922568
0,-2078.94,-1169.01,-2079.14,-2497.89,1.4700203150912046
0,-2076.01,-1160.14,-2078.87,-2494.87,1.4750203841901524
0,-2082.41,-1164.46,-2082.22,-2503.8,1.4800204532891001
0,-2083.3,-1164.55,-2087.68,-2500.61,1.485020522388055
0,-2078.15,-1165.91,-2084.94,-2493.5,1.4900205914870028
0,-2079.48,-1170.03,-2091.36,-2496.8,1.4950206605859506
0,-2071.55,-1160.15,-2079.63,-2490.43,1.5000207296848984
0,-2074.98,-1163.87,-2071.27,-2496.07,1.5050207987838533
0,-2077.23,-1162.31,-2088.38,-2494.3,1.510020867882801
0,-2072.3,-1154.24,-2080.29,-2498.21,1.515020936981749
0,-2074.55,-1162.54,-2087.23,-2498.07,1.5200210060806967
0,-2080.9,-1157.74,-2086.2,-2498.06,1.5250210751796516
0,-2077.93,-1168.3,-2081.77,-2496.39,1.5300211442785994
0,-2078.94,-1168.11,-2075.75,-2492.95,1.5350212133775472
0,-2079.05,-1176.86,-2079.44,-2496.7,1.540021282476495
0,-2078.53,-1175.48,-2096.86,-2505.19,1.5450213515754498
0,-2079.97,-1172.35,-2089.34,-2504.15,1.5500214206743976
0,-2075.99,-1173.86,-2083.15,-2499.89,1.5550214897733454
0,-2078.46,-1165.48,-2092.55,-2501.43,1.5600215588723003
0,-2071.82,-1149.64,-2073.6,-2497.0,1.565021627971248
0,-2077.86,-1165.41,-2086.52,-2506.51,1.570021697070196
0,-2076.96,-1164.55,-2082.45,-2501.74,1.5750217661691437
0,-2081.27,-1161.45,-2075.97,-2505.24,1.5800218352680986
0,-2077.94,-1162.81,-2074.71,-2501.08,1.5850219043670464
0,-2077.07,-1173.81,-2083.79,-2500.78,1.5900219734659942
0,-2078.78,-1170.25,-2085.84,-2499.0,1.595022042564942
0,-2079.15,-1169.04,-2090.43,-2502.08,1.6000221116638969
0,-2078.91,-1166.76,-2096.73,-2501.08,1.6050221807628446
0,-2077.02,-1160.71,-2084.26,-2501.57,1.6100222498617924
0,-2078.24,-1163.28,-2099.49,-2506.08,1.6150223189607402
0,-2087.74,-1167.82,-2093.25,-2508.78,1.6200223880596951
0,-2081.38,-1171.93,-2093.07,-2503.37,1.625022457158643
0,-2079.65,-1170.16,-2099.88,-2501.85,1.6300225262575907
0,-2081.41,-1174.75,-2102.29,-2503.71,1.6350225953565456
0,-2081.19,-1175.41,-2084.33,-2510.52,1.6400226644554934
0,-2077.79,-1171.9,-2096.88,-2506.4,1.6450227335544412
0,-2077.12,-1165.99,-2085.19,-2497.49,1.650022802653389
0,-2079.21,-1171.25,-2086.28,-2500.61,1.6550228717523439
0,-2079.06,-1163.5,-2082.86,-2501.0,1.6600229408512917
0,-2087.96,-1173.29,-2091.14,-2507.27,1.6650230099502394
0,-2090.3,-1174.23,-2102.26,-2509.22,1.6700230790491872
0,-2082.84,-1180.69,-2090.36,-2504.74,1.6750231481481421
0,-2082.76,-1169.53,-2091.73,-2504.34,1.68002321724709
0,-2085.33,-1165.87,-2089.71,-2497.03,1.6850232863460377
0,-2087.04,-1167.46,-2094.15,-2499.25,1.6900233554449855
0,-2080.01,-1167.67,-2086.48,-2496.8,1.6950234245439404
0,-2080.77,-1170.24,-2086.45,-2501.51,1.7000234936428882
0,-2082.43,-1171.23,-2084.34,-2493.73,1.705023562741836
0,-2084.81,-1172.66,-2088.2,-2497.56,1.7100236318407838
0,-2083.95,-1170.1,-2086.33,-2501.39,1.7150237009397387
0,-2076.86,-1172.1,-2085.45,-2499.05,1.7200237700386865
0,-2074.28,-1166.05,-2070.46,-2497.16,1.7250238391376342
0,-2077.61,-1166.74,-2084.87,-2496.01,1.7300239082365891
0,-2084.99,-1166.37,-2085.44,-2498.43,1.735023977335537
0,-2086.02,-1165.18,-2092.25,-2501.22,1.7400240464344847
0,-2080.68,-1164.2,-2083.99,-2499.21,1.7450241155334325
0,-2079.53,-1165.05,-2082.78,-2500.79,1.7500241846323874
0,-2075.17,-1162.34,-2085.59,-2505.54,1.7550242537313352
0,-2074.48,-1156.55,-2089.99,-2503.15,1.760024322830283
0,-2080.03,-1164.69,-2085.23,-2508.02,1.7650243919292308
0,-2079.25,-1166.11,-2082.14,-2505.89,1.7700244610281857
0,-2083.82,-1178.26,-2084.21,-2505.5,1.7750245301271335
0,-2086.08,-1176.8,-2093.67,-2511.58,1.7800245992260812
0,-2083.42,-1170.84,-2094.49,-2514.84,1.785024668325029
0,-2083.08,-1172.8,-2092.82,-2514.35,1.790024737423984
0,-2086.93,-1172.18,-2092.93,-2509.92,1.7950248065229317
0,-2092.83,-1179.94,-2098.49,-2515.14,1.8000248756218795
0,-2094.0,-1178.41,-2098.4,-2511.65,1.8050249447208273
0,-2090.62,-1183.55,-2095.16,-2510.18,1.8100250138197822
0,-2089.86,-1185.29,-2099.43,-2506.44,1.81502508291873
0,-2087.17,-1171.27,-2095.41,-2504.8,1.8200251520176778
0,-2088.17,-1178.0,-2088.76,-2507.23,1.8250252211166327
0,-2088.49,-1180.25,-2101.69,-2510.16,1.8300252902155805
0,-2087.53,-1174.91,-2095.48,-2505.98,1.8350253593145283
0,-2080.26,-1169.78,-2096.31,-2503.66,1.840025428413476
0,-2092.5,-1172.7,-2096.3,-2506.0,1.845025497512431
0,-2089.76,-1180.51,-2094.67,-2508.38,1.8500255666113787
0,-2083.67,-1175.53,-2095.27,-2506.87,1.8550256357103265
0,-2078.43,-1170.22,-2088.72,-2499.54,1.8600257048092743
0,-2079.96,-1168.84,-2076.28,-2509.75,1.8650257739082292
0,-2080.31,-1166.7,-2086.23,-2501.57,1.870025843007177
0,-2084.29,-1169.22,-2092.34,-2506.2,1.8750259121061248
0,-2084.96,-1165.89,-2097.81,-2514.18,1.8800259812050726
0,-2081.73,-1157.87,-2079.22,-2506.15,1.8850260503040275
0,-2080.86,-1167.26,-2080.9,-2510.1,1.8900261194029753
0,-2074.43,-1164.48,-2079.0,-2502.05,1.895026188501923
0,-2078.71,-1167.19,-2085.76,-2504.17,1.9000262576008708
0,-2078.03,-1168.7,-2099.52,-2510.76,1.9050263266998257
0,-2075.58,-1160.78,-2090.71,-2502.55,1.9100263957987735
0,-2075.81,-1159.59,-2092.65,-2499.42,1.9150264648977213
0,-2078.06,-1165.1,-2088.12,-2503.07,1.9200265339966762
0,-2075.84,-1166.77,-2082.44,-2504.34,1.925026603095624
0,-2079.93,-1171.99,-2088.69,-2504.99,1.9300266721945718
0,-2083.08,-1179.64,-2087.85,-2507.36,1.9350267412935196
0,-2086.62,-1180.65,-2102.79,-2512.51,1.9400268103924745
0,-2087.92,-1176.56,-2098.78,-2512.54,1.9450268794914223
0,-2089.09,-1176.51,-2092.87,-2508.52,1.95002694859037
0,-2084.01,-1176.35,-2093.24,-2505.5,1.9550270176893179
0,-2082.25,-1169.14,-2091.1,-2503.29,1.9600270867882728
0,-2082.31,-1160.48,-2088.72,-2500.89,1.9650271558872205
0,-2085.53,-1166.5,-2083.13,-2506.16,1.9700272249861683
0,-2073.25,-1156.13,-2078.4,-2481.06,1.9750272940851161
0,-2080.0,-1167.91,-2098.59,-2501.79,1.980027363184071
0,-2091.06,-1172.42,-2099.25,-2517.22,1.9850274322830188
0,-2094.81,-1189.43,-2103.18,-2518.57,1.9900275013819666
0,-2086.92,-1180.76,-2087.01,-2503.78,1.9950275704809215
0,-2080.08,-1179.14,-2094.85,-2498.75,2.0000276395798693
0,-2081.92,-1157.99,-2085.32,-2502.24,2.005027708678817
0,-2078.03,-1165.59,-2078.82,-2499.62,2.010027777777765
0,-2076.45,-1158.67,-2091.58,-2496.63,2.0150278468767198
0,-2080.06,-1161.54,-2090.88,-2500.03,2.0200279159756676
0,-2072.29,-1159.64,-2075.05,-2503.37,2.0250279850746153
0,-2074.98,-1162.27,-2079.17,-2502.93,2.030028054173563
0,-2082.7,-1176.33,-2097.12,-2508.4,2.035028123272518
0,-2090.21,-1180.18,-2104.03,-2516.15,2.040028192371466
0,-2090.83,-1181.43,-2093.92,-2514.54,2.0450282614704136
0,-2090.51,-1176.63,-2098.27,-2509.32,2.0500283305693614
0,-2088.15,-1184.73,-2096.61,-2510.17,2.0550283996683163
0,-2085.76,-1174.51,-2107.16,-2510.02,2.060028468767264
0,-2089.66,-1171.09,-2091.72,-2507.51,2.065028537866212
0,-2087.83,-1175.4,-2092.39,-2505.44,2.0700286069651597
0,-2085.82,-1172.15,-2095.84,-2505.19,2.0750286760641146
0,-2083.48,-1176.67,-2087.99,-2502.47,2.0800287451630624
0,-2082.31,-1166.01,-2092.18,-2497.11,2.08502881426201
0,-2081.6,-1164.75,-2084.28,-2496.4,2.090028883360965
0,-2087.6,-1175.25,-2096.07,-2502.48,2.095028952459913
0,-2086.74,-1172.9,-2090.26,-2503.01,2.1000290215588606
0,-2079.15,-1164.21,-2084.91,-2503.52,2.1050290906578084
0,-2078.65,-1163.55,-2074.11,-2503.1,2.1100291597567633
0,-2083.08,-1167.24,-2089.64,-2499.25,2.115029228855711
0,-2080.81,-1169.81,-2084.35,-2508.18,2.120029297954659
0,-2077.11,-1163.61,-2082.0,-2506.73,2.1250293670536067
0,-2076.0,-1164.82,-2079.64,-2509.42,2.1300294361525616
0,-2079.35,-1172.57,-2091.09,-2510.76,2.1350295052515094
0,-2079.11,-1165.71,-2094.52,-2508.72,2.140029574350457
0,-2081.89,-1168.14,-2081.82,-2507.14,2.145029643449405
0,-2077.92,-1166.84,-2082.69,-2502.68,2.15002971254836
0,-2078.65,-1168.74,-2083.69,-2503.67,2.1550297816473076
0,-2079.4,-1160.99,-2088.05,-2498.6,2.1600298507462554
0,-2085.8,-1168.92,-2085.13,-2501.78,2.165029919845203
0,-2086.04,-1169.53,-2094.71,-2499.8,2.170029988944158
0,-2085.05,-1169.51,-2080.04,-2496.89,2.175030058043106
0,-2083.34,-1170.73,-2086.8,-2495.8,2.1800301271420537
0,-2084.96,-1177.45,-2097.94,-2500.82,2.1850301962410086
0,-2084.81,-1169.17,-2096.98,-2500.37,2.1900302653399564
0,-2085.75,-1172.87,-2096.94,-2504.33,2.195030334438904
0,-2086.17,-1173.37,-2087.8,-2501.83,2.200030403537852
0,-2084.5,-1172.08,-2086.52,-2502.55,2.205030472636807
0,-2081.18,-1179.14,-2099.0,-2508.28,2.2100305417357546
0,-2092.41,-1181.54,-2100.11,-2510.22,2.2150306108347024
0,-2091.77,-1181.36,-2095.57,-2510.44,2.22003067993365
0,-2092.72,-1180.99,-2090.73,-2510.4,2.225030749032605
0,-2085.49,-1168.48,-2088.69,-2510.13,2.230030818131553
0,-2083.95,-1167.22,-2086.42,-2507.31,2.2350308872305007
0,-2072.63,-1153.44,-2086.03,-2500.04,2.2400309563294485
0,-2079.58,-1165.61,-2078.28,-2497.62,2.2450310254284034
0,-2089.93,-1173.66,-2086.92,-2506.69,2.250031094527351
0,-2093.13,-1171.24,-2107.06,-2508.53,2.255031163626299
0,-2083.36,-1158.98,-2091.88,-2506.12,2.260031232725254
0,-2076.58,-1169.2,-2088.46,-2504.7,2.2650313018242016
0,-2089.96,-1176.77,-2094.21,-2515.66,2.2700313709231494
0,-2089.69,-1176.21,-2099.21,-2512.55,2.2750314400220972
0,-2083.9,-1172.16,-2098.01,-2514.32,2.280031509121052
0,-2084.58,-1178.55,-2095.28,-2519.7,2.28503157822
0,-2089.74,-1171.63,-2104.29,-2522.03,2.2900316473189477
0,-2084.26,-1173.92,-2094.56,-2520.25,2.2950317164178955
0,-2083.02,-1174.45,-2097.74,-2513.82,2.3000317855168504
0,-2083.76,-1162.9,-2088.1,-2513.22,2.305031854615798
0,-2078.69,-1169.24,-2084.61,-2511.61,2.310031923714746
0,-2082.54,-1170.39,-2100.61,-2511.83,2.3150319928136938
0,-2085.76,-1176.88,-2093.7,-2510.31,2.3200320619126487
0,-2087.66,-1172.28,-2083.03,-2500.9,2.3250321310115964
0,-2084.15,-1168.44,-2086.42,-2503.51,2.3300322001105442
0,-2085.63,-1173.84,-2104.3,-2506.17,2.335032269209492
0,-2083.03,-1176.43,-2103.24,-2498.88,2.340032338308447
0,-2083.58,-1183.24,-2087.27,-2503.79,2.3450324074073947
0,-2088.7,-1178.84,-2093.98,-2512.17,2.3500324765063425
0,-2084.75,-1180.1,-2088.55,-2507.71,2.3550325456052974
0,-2091.42,-1175.33,-2098.48,-2508.05,2.360032614704245
0,-2089.18,-1175.38,-2100.74,-2508.05,2.365032683803193
0,-2087.17,-1166.57,-2083.53,-2500.68,2.3700327529021408
0,-2081.51,-1164.22,-2078.74,-2504.73,2.3750328220010957
0,-2086.22,-1178.06,-2092.45,-2508.92,2.3800328911000435
0,-2090.49,-1178.48,-2098.01,-2511.19,2.3850329601989912
0,-2085.96,-1179.06,-2097.83,-2512.8,2.390033029297939
0,-2087.72,-1176.27,-2106.3,-2515.89,2.395033098396894
0,-2091.55,-1174.88,-2100.21,-2518.96,2.4000331674958417
0,-2086.92,-1165.91,-2088.1,-2512.8,2.4050332365947895
0,-2081.72,-1167.87,-2086.74,-2507.17,2.4100333056937373
0,-2080.97,-1173.44,-2091.08,-2497.31,2.415033374792692
0,-2081.85,-1172.34,-2098.74,-2504.41,2.42003344389164
0,-2076.76,-1167.01,-2090.78,-2502.49,2.425033512990588
0,-2076.69,-1165.51,-2078.26,-2502.0,2.4300335820895356
0,-2078.42,-1172.23,-2081.46,-2507.86,2.4350336511884905
0,-2077.36,-1161.33,-2080.05,-2502.57,2.4400337202874383
0,-2084.93,-1163.81,-2092.64,-2509.29,2.445033789386386
0,-2085.21,-1174.61,-2089.41,-2509.42,2.450033858485341
0,-2081.97,-1168.11,-2086.47,-2505.53,2.4550339275842887
0,-2073.48,-1157.27,-2071.87,-2496.74,2.4600339966832365
0,-2079.13,-1167.35,-2087.0,-2504.23,2.4650340657821843
0,-2078.83,-1166.0,-2090.11,-2510.52,2.470034134881139
0,-2084.14,-1173.32,-2086.85,-2507.87,2.475034203980087
0,-2083.8,-1177.51,-2091.05,-2512.42,2.480034273079035
0,-2082.47,-1162.68,-2084.5,-2503.44,2.4850343421779826
0,-2081.23,-1174.39,-2090.1,-2505.79,2.4900344112769375
0,-2080.21,-1176.66,-2095.26,-2509.09,2.4950344803758853
0,-2079.9,-1175.95,-2092.75,-2504.15,2.500034549474833
0,-2083.31,-1170.38,-2083.46,-2503.01,2.505034618573781
0,-2085.43,-1169.96,-2101.23,-2506.17,2.5100346876727357
0,-2082.25,-1169.2,-2084.11,-2500.27,2.5150347567716835
0,-2082.93,-1164.56,-2087.67,-2502.6,2.5200348258706313
0,-2081.59,-1170.66,-2086.97,-2502.14,2.525034894969579
0,-2081.11,-1170.23,-2085.19,-2502.02,2.530034964068534
0,-2084.66,-1170.18,-2087.37,-2502.4,2.535035033167482
0,-2082.55,-1171.09,-2096.83,-2500.11,2.5400351022664296
0,-2080.8,-1160.3,-2094.07,-2498.27,2.5450351713653845
0,-2082.74,-1170.07,-2094.34,-2502.93,2.5500352404643323
0,-2085.44,-1172.57,-2092.57,-2503.34,2.55503530956328
0,-2080.48,-1156.8,-2095.12,-2499.6,2.560035378662228
0,-2080.94,-1159.07,-2090.22,-2501.52,2.5650354477611828
0,-2078.94,-1154.19,-2073.85,-2494.91,2.5700355168601305
0,-2084.45,-1169.29,-2083.32,-2500.28,2.5750355859590783
0,-2083.36,-1174.72,-2089.26,-2502.79,2.580035655058026
0,-2081.5,-1170.93,-2091.56,-2507.17,2.585035724156981
0,-2082.16,-1174.78,-2093.31,-2504.73,2.590035793255929
0,-2085.19,-1173.14,-2096.59,-2503.4,2.5950358623548766
0,-2084.62,-1177.12,-2092.99,-2506.17,2.6000359314538244
0,-2084.63,-1175.56,-2094.01,-2504.45,2.6050360005527793
0,-2079.92,-1170.01,-2090.95,-2503.03,2.610036069651727
0,-2078.08,-1168.37,-2088.27,-2501.95,2.615036138750675
0,-2077.19,-1168.74,-2094.27,-2505.9,2.6200362078496298
0,-2082.78,-1170.6,-2088.5,-2506.14,2.6250362769485776
0,-2086.62,-1174.31,-2092.08,-2506.93,2.6300363460475253
0,-2093.31,-1175.94,-2101.43,-2515.05,2.635036415146473
0,-2090.86,-1174.4,-2098.96,-2515.83,2.640036484245428
0,-2088.38,-1178.25,-2097.33,-2512.26,2.645036553344376
0,-2085.93,-1174.72,-2100.6,-2512.06,2.6500366224433236
0,-2090.29,-1170.34,-2095.24,-2512.99,2.6550366915422714
0,-2083.82,-1164.14,-2094.57,-2501.49,2.6600367606412263
0,-2079.91,-1165.89,-2090.5,-2498.08,2.665036829740174
0,-2087.98,-1174.89,-2087.55,-2503.55,2.670036898839122
0,-2091.2,-1175.31,-2087.29,-2507.29,2.6750369679380697
0,-2084.67,-1166.71,-2089.87,-2496.26,2.6800370370370246
0,-2079.78,-1167.16,-2087.04,-2496.33,2.6850371061359724
0,-2078.57,-1173.7,-2091.59,-2494.23,2.69003717523492
0,-2081.34,-1172.17,-2085.88,-2498.98,2.695037244333868
0,-2082.25,-1167.77,-2092.74,-2491.32,2.700037313432823
0,-2078.48,-1161.39,-2083.9,-2491.63,2.7050373825317706
0,-2069.53,-1156.02,-2084.79,-2487.23,2.7100374516307184
0,-2075.47,-1164.94,-2079.58,-2495.25,2.7150375207296733
0,-2071.85,-1169.87,-2087.16,-2490.78,2.720037589828621
0,-2073.1,-1165.93,-2083.14,-2493.96,2.725037658927569
0,-2070.16,-1166.18,-2088.06,-2494.0,2.7300377280265167
0,-2068.86,-1157.84,-2080.67,-2492.5,2.7350377971254716
0,-2075.59,-1160.11,-2083.27,-2495.25,2.7400378662244194
0,-2079.73,-1173.72,-2084.84,-2496.64,2.745037935323367
0,-2080.92,-1180.93,-2089.5,-2503.09,2.750038004422315
0,-2081.42,-1171.18,-2085.04,-2508.93,2.75503807352127
0,-2075.93,-1173.29,-2084.68,-2502.61,2.7600381426202176
0,-2075.86,-1169.72,-2081.18,-2496.8,2.7650382117191654
0,-2079.83,-1168.26,-2076.58,-2499.77,2.770038280818113
0,-2074.06,-1168.0,-2083.98,-2496.27,2.775038349917068
0,-2081.32,-1167.15,-2090.69,-2497.64,2.780038419016016
0,-2082.47,-1170.38,-2085.26,-2500.97,2.7850384881149637
0,-2074.92,-1164.52,-2080.49,-2500.91,2.7900385572139115
0,-2070.09,-1158.83,-2076.94,-2492.91,2.7950386263128664
0,-2068.86,-1162.14,-2081.53,-2491.32,2.800038695411814
0,-2078.85,-1167.97,-2080.62,-2489.94,2.805038764510762
0,-2079.89,-1169.48,-2088.68,-2504.08,2.810038833609717
0,-2082.35,-1165.2,-2091.61,-2508.32,2.8150389027086646
0,-2084.59,-1164.33,-2093.58,-2507.93,2.8200389718076124
0,-2081.7,-1160.15,-2086.56,-2501.99,2.82503904090656
0,-2084.22,-1160.16,-2088.63,-2502.19,2.830039110005515
0,-2081.97,-1171.6,-2088.47,-2502.96,2.835039179104463
0,-2085.57,-1166.25,-2091.06,-2507.87,2.8400392482034107
0,-2084.63,-1170.67,-2095.61,-2505.88,2.8450393173023585
0,-2088.98,-1178.22,-2095.98,-2508.84,2.8500393864013134
0,-2095.71,-1184.24,-2106.4,-2508.15,2.855039455500261
0,-2090.4,-1188.08,-2109.89,-2519.2,2.860039524599209
0,-2095.11,-1182.62,-2107.58,-2514.76,2.8650395936981568
0,-2084.69,-1175.69,-2089.47,-2508.44,2.8700396627971116
0,-2082.54,-1172.96,-2091.17,-2500.09,2.8750397318960594
0,-2084.12,-1165.5,-2087.26,-2497.49,2.8800398009950072
0,-2093.77,-1169.12,-2090.57,-2503.47,2.885039870093962
0,-2085.21,-1166.95,-2089.93,-2497.19,2.89003993919291
0,-2084.49,-1165.2,-2085.24,-2502.77,2.8950400082918577
0,-2078.43,-1163.35,-2080.91,-2497.83,2.9000400773908055
0,-2076.89,-1169.97,-2081.65,-2500.81,2.9050401464897604
0,-2071.48,-1158.85,-2074.13,-2491.87,2.910040215588708
0,-2070.94,-1161.92,-2078.86,-2495.81,2.915040284687656
0,-2072.08,-1145.75,-2077.18,-2495.77,2.9200403537866038
0,-2076.88,-1152.11,-2079.27,-2500.98,2.9250404228855587
0,-2079.36,-1158.85,-2087.48,-2501.87,2.9300404919845064
0,-2076.83,-1168.91,-2076.91,-2502.64,2.9350405610834542
0,-2074.49,-1161.86,-2081.48,-2502.68,2.940040630182402
0,-2076.86,-1159.79,-2089.78,-2500.83,2.945040699281357
0,-2081.44,-1163.37,-2089.18,-2506.07,2.9500407683803047
0,-2086.14,-1174.7,-2095.88,-2512.91,2.9550408374792525
0,-2088.38,-1171.89,-2086.38,-2505.39,2.9600409065782003
0,-2087.68,-1171.57,-2095.22,-2510.16,2.965040975677155
0,-2085.37,-1167.85,-2091.42,-2509.4,2.970041044776103
0,-2084.44,-1166.6,-2095.38,-2501.37,2.9750411138750508
0,-2082.45,-1168.9,-2092.7,-2498.91,2.9800411829740057
0,-2082.87,-1165.48,-2086.61,-2501.26,2.9850412520729535
0,-2076.52,-1165.05,-2084.55,-2505.66,2.9900413211719012
0,-2079.56,-1160.24,-2094.22,-2506.64,2.995041390270849
0,-2085.61,-1172.16,-2089.89,-2511.51,3.000041459369804
0,-2081.91,-1178.64,-2091.79,-2510.81,3.0050415284687517
0,-2084.81,-1176.0,-2086.17,-2513.31,3.0100415975676995
0,-2083.27,-1182.72,-2091.87,-2513.48,3.0150416666666473
0,-2087.63,-1190.31,-2101.01,-2512.23,3.020041735765602
0,-2090.34,-1182.46,-2097.13,-2512.19,3.02504180486455
0,-2085.13,-1170.24,-2095.65,-2506.3,3.030041873963498
0,-2085.08,-1172.3,-2085.91,-2504.36,3.0350419430624456
0,-2077.19,-1160.77,-2085.88,-2498.3,3.0400420121614005
0,-2076.13,-1157.45,-2084.86,-2490.27,3.0450420812603483
0,-2083.77,-1177.49,-2089.52,-2502.28,3.050042150359296
0,-2082.39,-1168.67,-2089.61,-2504.5,3.055042219458244
0,-2082.39,-1169.93,-2095.78,-2497.68,3.0600422885571987
0,-2085.74,-1172.94,-2091.02,-2503.69,3.0650423576561465
0,-2085.0,-1180.45,-2091.19,-2509.44,3.0700424267550943
0,-2090.31,-1176.49,-2097.73,-2507.74,3.075042495854049
0,-2082.28,-1169.43,-2087.19,-2504.05,3.080042564952997
0,-2086.91,-1179.33,-2095.05,-2510.4,3.085042634051945
0,-2075.33,-1168.19,-2082.43,-2497.58,3.0900427031508926
0,-2076.21,-1162.36,-2069.61,-2501.03,3.0950427722498475
0,-2073.78,-1164.58,-2086.09,-2497.47,3.1000428413487953
0,-2077.06,-1161.05,-2087.32,-2500.12,3.105042910447743
0,-2070.3,-1150.82,-2075.37,-2503.07,3.110042979546691
0,-2077.93,-1166.26,-2085.8,-2503.99,3.1150430486456457
0,-2085.41,-1173.32,-2090.51,-2508.16,3.1200431177445935
0,-2074.71,-1177.53,-2089.86,-2507.13,3.1250431868435413
0,-2081.23,-1172.09,-2080.56,-2507.22,3.130043255942489
0,-2083.97,-1169.07,-2092.41,-2503.74,3.135043325041444
0,-2078.25,-1166.78,-2091.45,-2503.23,3.140043394140392
0,-2079.95,-1174.53,-2099.25,-2506.02,3.1450434632393396
0,-2084.23,-1181.12,-2084.79,-2511.01,3.1500435323382874
0,-2079.01,-1171.46,-2089.47,-2506.57,3.1550436014372423
0,-2088.24,-1167.02,-2098.31,-2505.71,3.16004367053619
0,-2086.57,-1169.98,-2091.57,-2509.53,3.165043739635138
0,-2080.81,-1170.55,-2085.55,-2502.27,3.1700438087340927
0,-2081.92,-1179.35,-2088.39,-2504.28,3.1750438778330405
0,-2081.17,-1168.64,-2092.68,-2496.99,3.1800439469319883
0,-2089.57,-1180.41,-2092.07,-2503.07,3.185044016030936
0,-2086.87,-1166.36,-2096.66,-2500.67,3.190044085129891
0,-2082.73,-1172.69,-2095.51,-2509.82,3.195044154228839
0,-2094.19,-1173.41,-2098.53,-2511.75,3.2000442233277866
0,-2084.86,-1177.94,-2088.91,-2504.35,3.2050442924267344
0,-2089.73,-1180.97,-2098.23,-2503.44,3.2100443615256893
0,-2095.82,-1180.78,-2099.97,-2512.42,3.215044430624637
0,-2094.09,-1178.55,-2100.69,-2509.27,3.220044499723585
0,-2086.98,-1171.0,-2084.47,-2498.48,3.2250445688225327
0,-2088.8,-1178.42,-2085.8,-2503.42,3.2300446379214875
0,-2093.36,-1180.22,-2089.58,-2505.66,3.2350447070204353
0,-2089.73,-1172.52,-2097.28,-2505.4,3.240044776119383
0,-2085.35,-1174.57,-2097.18,-2505.65,3.245044845218338
0,-2083.72,-1168.3,-2093.56,-2505.36,3.250044914317286
0,-2082.28,-1166.9,-2098.55,-2506.54,3.2550449834162336
0,-2077.79,-1167.95,-2096.51,-2504.12,3.2600450525151814
0,-2084.8,-1177.6,-2093.24,-2501.12,3.2650451216141363
0,-2084.24,-1180.21,-2086.6,-2508.26,3.270045190713084
0,-2084.48,-1171.45,-2106.55,-2499.49,3.275045259812032
0,-2079.23,-1165.81,-2079.59,-2498.23,3.2800453289109797
0,-2070.32,-1168.08,-2088.99,-2504.22,3.2850453980099346
0,-2080.35,-1170.6,-2092.77,-2506.51,3.2900454671088823
0,-2083.56,-1172.62,-2090.79,-2510.84,3.29504553620783
0,-2086.75,-1175.31,-2093.08,-2508.31,3.300045605306778
0,-2080.38,-1165.66,-2084.0,-2504.85,3.305045674405733
0,-2072.8,-1159.96,-2082.85,-2499.69,3.3100457435046806
0,-2084.46,-1180.74,-2100.32,-2512.62,3.3150458126036284
0,-2088.44,-1174.89,-2096.61,-2516.76,3.320045881702576
0,-2090.25,-1175.29,-2099.2,-2512.52,3.325045950801531
0,-2092.8,-1179.14,-2095.3,-2512.37,3.330046019900479
0,-2086.86,-1175.7,-2101.15,-2511.92,3.3350460889994267
0,-2083.55,-1170.27,-2098.4,-2510.68,3.3400461580983816
0,-2079.23,-1170.04,-2092.77,-2505.77,3.3450462271973294
0,-2088.9,-1180.9,-2098.93,-2512.44,3.350046296296277
0,-2086.56,-1167.39,-2095.35,-2508.9,3.355046365395225
0,-2076.68,-1169.88,-2083.11,-2505.67,3.36004643449418
0,-2083.53,-1179.76,-2091.34,-2510.31,3.3650465035931276
0,-2082.05,-1182.38,-2087.92,-2510.2,3.3700465726920754
0,-2076.16,-1170.93,-2082.98,-2503.39,3.375046641791023
0,-2081.4,-1160.83,-2082.02,-2503.82,3.380046710889978
0,-2083.01,-1169.93,-2079.28,-2503.76,3.385046779988926
0,-2081.68,-1175.01,-2084.83,-2507.83,3.3900468490878737
0,-2075.3,-1160.46,-2086.17,-2495.11,3.3950469181868215
0,-2076.24,-1153.35,-2077.79,-2496.25,3.4000469872857764
0,-2075.74,-1166.85,-2090.74,-2504.36,3.405047056384724
0,-2072.89,-1168.4,-2086.05,-2501.46,3.410047125483672
0,-2073.95,-1167.96,-2083.15,-2500.14,3.4150471945826197
0,-2074.11,-1174.01,-2089.3,-2504.67,3.4200472636815746
0,-2081.58,-1161.59,-2087.1,-2498.75,3.4250473327805224
0,-2078.23,-1165.07,-2084.73,-2498.77,3.43004740187947
0,-2080.44,-1164.89,-2093.35,-2502.52,3.435047470978425
0,-2072.66,-1162.51,-2079.13,-2499.41,3.440047540077373
0,-2076.51,-1164.62,-2079.55,-2499.79,3.4450476091763207
0,-2073.7,-1168.28,-2084.26,-2495.9,3.4500476782752685
0,-2074.86,-1166.86,-2077.28,-2500.9,3.4550477473742234
0,-2082.41,-1168.6,-2093.7,-2505.93,3.460047816473171
0,-2080.3,-1167.2,-2086.59,-2505.14,3.465047885572119
0,-2080.69,-1151.85,-2077.59,-2500.12,3.4700479546710667
0,-2077.76,-1167.92,-2085.95,-2501.52,3.4750480237700216
0,-2078.47,-1168.3,-2088.16,-2505.54,3.4800480928689694
0,-2083.75,-1182.39,-2100.92,-2510.09,3.4850481619679172
0,-2079.52,-1178.31,-2095.39,-2512.63,3.490048231066865
0,-2077.8,-1175.0,-2095.83,-2503.96,3.49504830016582
0,-2084.85,-1169.79,-2084.36,-2504.8,3.5000483692647677
0,-2088.4,-1173.91,-2088.08,-2506.8,3.5050484383637155
0,-2078.13,-1180.82,-2095.34,-2510.07,3.5100485074626704
0,-2080.6,-1172.24,-2087.48,-2509.05,3.515048576561618
0,-2085.86,-1172.06,-2093.25,-2511.68,3.520048645660566
0,-2082.78,-1174.2,-2091.37,-2506.97,3.5250487147595138
0,-2089.05,-1176.03,-2099.47,-2508.57,3.5300487838584687
0,-2091.54,-1182.23,-2098.61,-2515.33,3.5350488529574164
0,-2089.76,-1173.02,-2100.15,-2510.0,3.5400489220563642
0,-2089.07,-1178.52,-2095.62,-2508.99,3.545048991155312
0,-2091.83,-1175.6,-2101.4,-2504.77,3.550049060254267
0,-2084.08,-1161.5,-2086.7,-2506.08,3.5550491293532147
0,-2078.95,-1164.77,-2086.51,-2504.04,3.5600491984521625
0,-2080.55,-1169.4,-2087.55,-2498.04,3.5650492675511103
0,-2084.26,-1169.13,-2094.53,-2500.34,3.570049336650065
0,-2085.06,-1168.93,-2088.64,-2505.0,3.575049405749013
0,-2086.29,-1164.17,-2084.22,-2501.36,3.5800494748479608
0,-2083.78,-1170.16,-2094.55,-2501.89,3.5850495439469086
0,-2086.39,-1166.31,-2089.81,-2499.88,3.5900496130458635
0,-2085.76,-1168.42,-2089.22,-2499.09,3.5950496821448112
0,-2087.34,-1166.25,-2084.28,-2504.85,3.600049751243759
0,-2079.06,-1164.56,-2084.78,-2503.0,3.605049820342714
0,-2079.27,-1168.55,-2092.08,-2503.7,3.6100498894416617
0,-2077.28,-1168.76,-2085.82,-2503.71,3.6150499585406095
0,-2084.97,-1171.83,-2096.79,-2511.01,3.6200500276395573
0,-2075.08,-1166.93,-2090.25,-2498.33,3.625050096738512
0,-2070.94,-1158.63,-2077.28,-2497.72,3.63005016583746
0,-2075.01,-1163.74,-2076.4,-2499.29,3.6350502349364078
0,-2078.24,-1162.29,-2084.47,-2498.19,3.6400503040353556
0,-2071.64,-1158.37,-2077.44,-2503.0,3.6450503731343105
0,-2079.25,-1162.13,-2080.93,-2504.26,3.6500504422332583
0,-2078.98,-1160.89,-2086.69,-2501.45,3.655050511332206
0,-2078.9,-1169.16,-2078.87,-2499.12,3.660050580431154
0,-2081.38,-1178.97,-2093.54,-2503.18,3.6650506495301087
0,-2090.55,-1178.79,-2091.39,-2508.8,3.6700507186290565
0,-2087.91,-1169.49,-2089.65,-2508.64,3.6750507877280043
0,-2089.19,-1184.18,-2101.62,-2506.43,3.680050856826952
0,-2086.17,-1179.23,-2093.02,-2503.98,3.685050925925907
0,-2082.07,-1169.01,-2088.56,-2506.06,3.690050995024855
0,-2085.2,-1167.76,-2092.64,-2505.13,3.6950510641238026
0,-2081.46,-1166.99,-2079.87,-2499.71,3.7000511332227575
0,-2080.34,-1171.15,-2087.29,-2494.47,3.7050512023217053
0,-2077.39,-1163.51,-2086.6,-2494.91,3.710051271420653
0,-2077.4,-1168.8,-2087.33,-2494.2,3.715051340519601
0,-2076.93,-1171.16,-2087.92,-2494.02,3.7200514096185557
0,-2078.46,-1166.44,-2088.6,-2494.26,3.7250514787175035
0,-2081.37,-1159.85,-2083.36,-2496.77,3.7300515478164513
0,-2078.54,-1167.15,-2087.91,-2499.12,3.735051616915399
0,-2081.07,-1159.08,-2081.41,-2498.18,3.740051686014354
0,-2083.32,-1169.22,-2084.31,-2503.82,3.745051755113302
0,-2095.15,-1183.1,-2104.53,-2509.88,3.7500518242122496
0,-2089.24,-1176.48,-2092.29,-2503.9,3.7550518933111974
0,-2083.78,-1169.05,-2084.43,-2502.85,3.7600519624101523
0,-2079.04,-1164.62,-2084.72,-2493.3,3.7650520315091
0,-2078.47,-1164.84,-2081.29,-2502.4,3.770052100608048
0,-2085.06,-1167.33,-2091.73,-2510.83,3.7750521697069956
0,-2079.23,-1161.67,-2092.69,-2505.41,3.7800522388059505
0,-2081.54,-1159.07,-2092.13,-2507.08,3.7850523079048983
0,-2084.85,-1169.3,-2086.39,-2503.98,3.790052377003846
0,-2083.91,-1169.92,-2087.74,-2509.07,3.795052446102801
0,-2082.63,-1162.83,-2088.81,-2506.0,3.800052515201749
0,-2089.98,-1171.05,-2093.39,-2505.31,3.8050525843006966
0,-2086.51,-1178.12,-2095.32,-2505.12,3.8100526533996444
0,-2086.74,-1176.5,-2097.23,-2508.31,3.8150527224985993
0,-2093.83,-1179.99,-2097.92,-2511.94,3.820052791597547
0,-2085.23,-1174.11,-2090.74,-2508.69,3.825052860696495
0,-2082.86,-1168.86,-2091.88,-2510.41,3.8300529297954427
0,-2085.85,-1166.86,-2093.48,-2510.14,3.8350529988943975
0,-2078.01,-1165.47,-2089.6,-2497.11,3.8400530679933453
0,-2085.45,-1168.74,-2091.29,-2501.92,3.845053137092293
0,-2091.9,-1176.2,-2093.6,-2508.84,3.850053206191241
0,-2090.14,-1177.96,-2091.48,-2515.78,3.855053275290196
0,-2084.89,-1173.01,-2092.78,-2508.32,3.8600533443891436
0,-2085.41,-1167.28,-2099.01,-2506.66,3.8650534134880914
0,-2093.61,-1184.75,-2107.59,-2508.16,3.8700534825870463
0,-2083.77,-1172.87,-2095.01,-2508.04,3.875053551685994
0,-2084.5,-1170.24,-2092.51,-2500.18,3.880053620784942
0,-2088.8,-1174.67,-2088.3,-2504.25,3.8850536898838897
0,-2084.98,-1173.75,-2089.79,-2499.5,3.8900537589828446
0,-2082.57,-1172.71,-2093.66,-2502.88,3.8950538280817923
0,-2070.33,-1170.37,-2087.7,-2501.28,3.90005389718074
0,-2084.63,-1174.65,-2096.3,-2498.57,3.905053966279688
0,-2087.61,-1184.34,-2092.04,-2504.32,3.910054035378643
0,-2089.43,-1171.56,-2092.95,-2503.79,3.9150541044775906
0,-2084.21,-1168.71,-2092.63,-2499.95,3.9200541735765384
0,-2074.99,-1169.14,-2085.9,-2494.78,3.925054242675486
0,-2064.95,-1169.96,-2074.51,-2492.04,3.930054311774441
0,-2065.8,-1160.77,-2076.85,-2495.28,3.935054380873389
0,-2072.89,-1168.26,-2085.35,-2500.05,3.9400544499723367
0,-2077.97,-1180.06,-2085.58,-2509.23,3.9450545190712845
0,-2071.38,-1166.28,-2086.45,-2507.86,3.9500545881702394
0,-2082.14,-1173.38,-2094.7,-2511.63,3.955054657269187
0,-2084.08,-1176.06,-2093.45,-2508.17,3.960054726368135
0,-2083.1,-1172.43,-2096.15,-2508.44,3.96505479546709
0,-2080.27,-1166.8,-2091.15,-2501.5,3.9700548645660376
0,-2080.94,-1165.38,-2089.8,-2509.01,3.9750549336649854
0,-2086.42,-1180.98,-2091.9,-2511.11,3.980055002763933
0,-2090.3,-1176.24,-2102.77,-2510.9,3.985055071862888
0,-2086.59,-1172.44,-2090.13,-2499.7,3.990055140961836
0,-2087.33,-1172.4,-2093.16,-2501.4,3.9950552100607837
0,-2080.44,-1170.56,-2090.87,-2520.06,4.0000552791597315
0,-2077.06,-1166.36,-2088.38,-2513.62,4.005055348258686
0,-2070.39,-1166.71,-2090.19,-2506.46,4.010055417357634
0,-2077.05,-1167.9,-2081.96,-2509.97,4.015055486456582
0,-2077.96,-1164.16,-2079.6,-2508.87,4.02005555555553
0,-2073.09,-1157.03,-2080.29,-2500.84,4.025055624654485
0,-2068.36,-1151.72,-2079.51,-2503.43,4.030055693753432
0,-2069.87,-1157.68,-2085.16,-2497.69,4.03505576285238
0,-2080.32,-1161.32,-2083.68,-2504.23,4.040055831951328
0,-2077.56,-1155.13,-2076.21,-2500.41,4.045055901050283
0,-2073.82,-1164.65,-2081.7,-2502.31,4.050055970149231
0,-2072.69,-1158.05,-2080.12,-2504.01,4.0550560392481785
0,-2074.93,-1163.81,-2087.89,-2506.67,4.060056108347133
0,-2076.64,-1172.07,-2095.68,-2502.19,4.065056177446081
0,-2071.88,-1167.74,-2079.49,-2501.12,4.070056246545029
0,-2076.94,-1164.3,-2078.05,-2501.14,4.075056315643977
0,-2078.56,-1164.69,-2091.15,-2501.89,4.080056384742932
0,-2081.48,-1178.0,-2088.39,-2496.87,4.085056453841879
0,-2083.68,-1179.84,-2087.01,-2502.45,4.090056522940827
0,-2083.84,-1180.63,-2094.97,-2504.94,4.095056592039775
0,-2084.71,-1168.39,-2089.31,-2500.64,4.10005666113873
0,-2080.87,-1173.9,-2080.39,-2499.87,4.105056730237678
0,-2074.01,-1164.01,-2084.75,-2488.67,4.1100567993366255
0,-2073.99,-1165.56,-2085.46,-2489.41,4.115056868435573
0,-2081.57,-1160.75,-2090.48,-2494.41,4.120056937534528
0,-2088.46,-1171.57,-2083.2,-2500.16,4.125057006633476
0,-2085.64,-1167.0,-2103.56,-2500.64,4.130057075732424
0,-2088.29,-1172.98,-2094.68,-2505.39,4.135057144831379
0,-2089.63,-1181.5,-2098.84,-2509.62,4.140057213930326
0,-2093.67,-1183.16,-2096.81,-2510.66,4.145057283029274
0,-2084.08,-1171.79,-2092.6,-2507.31,4.150057352128222
0,-2082.04,-1160.83,-2097.93,-2505.0,4.155057421227177
0,-2081.53,-1158.17,-2091.73,-2505.07,4.160057490326125
0,-2079.02,-1169.72,-2093.94,-2506.78,4.1650575594250725
0,-2085.08,-1176.92,-2096.62,-2505.26,4.17005762852402
0,-2084.54,-1173.24,-2095.83,-2502.14,4.175057697622975
0,-2089.37,-1172.66,-2094.48,-2508.79,4.180057766721923
0,-2092.85,-1170.68,-2092.67,-2512.19,4.185057835820871
0,-2087.08,-1173.44,-2101.1,-2504.48,4.1900579049198186
0,-2081.79,-1170.35,-2092.73,-2502.72,4.1950579740187735
0,-2081.42,-1175.9,-2088.85,-2501.14,4.200058043117721
0,-2078.87,-1163.58,-2092.49,-2505.51,4.205058112216669
0,-2088.56,-1170.2,-2082.84,-2508.89,4.210058181315617
0,-2086.63,-1181.62,-2090.55,-2515.77,4.215058250414572
0,-2084.02,-1172.22,-2097.8,-2513.09,4.2200583195135195
0,-2076.41,-1165.79,-2079.14,-2505.56,4.225058388612467
0,-2070.52,-1162.45,-2073.28,-2506.9,4.230058457711422
0,-2073.35,-1163.04,-2082.94,-2505.76,4.23505852681037
0,-2057.55,-1150.36,-2069.22,-2500.27,4.240058595909318
0,-2050.84,-1141.41,-2060.46,-2497.87,4.245058665008266
0,-2047.0,-1127.99,-2061.08,-2497.15,4.2500587341072205
0,-2035.23,-1124.06,-2047.92,-2490.38,4.255058803206168
0,-2023.63,-1115.11,-2044.21,-2485.39,4.260058872305116
0,-2018.12,-1098.7,-2029.87,-2482.06,4.265058941404064
0,-2021.06,-1109.61,-2037.19,-2483.32,4.270059010503019
0,-2031.64,-1121.08,-2042.28,-2483.72,4.2750590796019665
0,-2032.51,-1131.86,-2054.22,-2490.9,4.280059148700914
0,-2048.26,-1141.51,-2065.6,-2495.41,4.285059217799862
0,-2061.88,-1160.17,-2073.0,-2501.79,4.290059286898817
0,-2064.51,-1161.34,-2080.5,-2501.33,4.295059355997765
0,-2072.56,-1165.93,-2088.18,-2508.13,4.300059425096713
0,-2084.03,-1181.37,-2100.45,-2512.98,4.30505949419566
0,-2092.27,-1181.92,-2099.31,-2519.69,4.310059563294615
0,-2094.09,-1178.0,-2105.82,-2515.53,4.315059632393563
0,-2089.98,-1174.75,-2097.54,-2510.14,4.320059701492511
0,-2091.92,-1182.12,-2103.62,-2508.97,4.325059770591466
0,-2104.71,-1194.19,-2115.59,-2512.58,4.3300598396904135
0,-2104.41,-1189.71,-2109.28,-2512.11,4.335059908789361
0,-2097.4,-1184.73,-2101.74,-2504.27,4.340059977888309
0,-2099.79,-1189.63,-2105.81,-2507.11,4.345060046987264
0,-2105.8,-1196.42,-2102.64,-2512.06,4.350060116086212
0,-2102.82,-1198.82,-2100.38,-2510.64,4.35506018518516
0,-2099.53,-1188.39,-2100.35,-2503.19,4.360060254284107
0,-2096.4,-1184.16,-2099.61,-2503.89,4.365060323383062
0,-2097.88,-1181.92,-2102.99,-2503.91,4.37006039248201
0,-2101.97,-1187.76,-2102.54,-2498.35,4.375060461580958
0,-2104.16,-1190.44,-2109.08,-2512.7,4.380060530679906
0,-2109.83,-1195.93,-2111.95,-2509.91,4.3850605997788605
0,-2108.28,-1193.66,-2113.05,-2506.61,4.390060668877808
0,-2111.66,-1189.6,-2100.33,-2509.47,4.395060737976756
0,-2105.19,-1187.78,-2108.61,-2515.82,4.400060807075704
0,-2102.37,-1182.74,-2100.45,-2510.2,4.405060876174659
0,-2093.21,-1179.82,-2092.79,-2502.53,4.410060945273607
0,-2096.32,-1182.37,-2093.54,-2505.18,4.415061014372554
0,-2090.36,-1181.04,-2092.44,-2507.54,4.420061083471509
0,-2092.32,-1183.85,-2088.43,-2506.13,4.425061152570457
0,-2086.02,-1171.0,-2091.81,-2502.83,4.430061221669405
0,-2083.11,-1165.25,-2087.86,-2502.0,4.435061290768353
0,-2090.03,-1171.12,-2095.35,-2511.69,4.4400613598673075
0,-2084.08,-1160.92,-2085.21,-2506.37,4.445061428966255
0,-2087.95,-1168.73,-2095.36,-2512.52,4.450061498065203
0,-2091.45,-1178.49,-2093.44,-2510.86,4.455061567164151
0,-2091.71,-1184.37,-2095.54,-2516.79,4.460061636263106
0,-2093.48,-1192.74,-2112.4,-2522.86,4.465061705362054
0,-2095.19,-1190.26,-2112.51,-2525.15,4.470061774461001
0,-2099.67,-1183.07,-2108.73,-2517.89,4.475061843559949
0,-2096.27,-1183.78,-2105.09,-2517.16,4.480061912658904
0,-2088.22,-1177.41,-2098.12,-2510.49,4.485061981757852
0,-2091.26,-1175.56,-2102.01,-2506.54,4.4900620508568
0,-2089.94,-1169.19,-2092.99,-2506.15,4.4950621199557546
0,-2081.53,-1168.63,-2081.15,-2498.02,4.500062189054702
0,-2083.04,-1164.29,-2075.97,-2498.79,4.50506225815365
0,-2079.98,-1167.8,-2087.8,-2505.29,4.510062327252598
0,-2085.38,-1177.49,-2093.86,-2503.88,4.515062396351553
0,-2084.09,-1173.61,-2095.71,-2499.88,4.520062465450501
0,-2088.2,-1175.17,-2096.55,-2495.58,4.525062534549448
0,-2085.13,-1174.22,-2081.1,-2498.68,4.530062603648396
0,-2078.1,-1163.79,-2086.79,-2495.39,4.535062672747351
0,-2085.36,-1168.52,-2083.36,-2500.08,4.540062741846299
0,-2082.05,-1170.8,-2088.87,-2502.38,4.545062810945247
0,-2082.49,-1173.64,-2098.63,-2503.68,4.5500628800441945
0,-2087.38,-1181.91,-2099.34,-2506.26,4.555062949143149
0,-2086.95,-1173.95,-2093.01,-2505.91,4.560063018242097
0,-2083.83,-1168.97,-2087.82,-2499.4,4.565063087341045
0,-2085.19,-1168.52,-2083.96,-2503.54,4.570063156439993
0,-2082.42,-1176.47,-2085.95,-2501.7,4.575063225538948
0,-2085.3,-1182.32,-2098.22,-2509.39,4.580063294637895
0,-2085.65,-1174.23,-2100.82,-2512.24,4.585063363736843
0,-2081.8,-1177.19,-2092.19,-2503.91,4.590063432835798
0,-2083.09,-1176.03,-2092.14,-2504.83,4.595063501934746
0,-2081.99,-1176.71,-2097.24,-2505.81,4.600063571033694
0,-2077.65,-1166.04,-2089.56,-2502.55,4.6050636401326415
0,-2070.01,-1159.81,-2079.38,-2494.62,4.610063709231596
0,-2076.32,-1163.7,-2081.48,-2506.24,4.615063778330544
0,-2084.57,-1161.34,-2088.81,-2510.74,4.620063847429492
0,-2076.79,-1167.55,-2092.41,-2505.57,4.62506391652844
0,-2081.3,-1172.32,-2087.69,-2505.06,4.630063985627395
0,-2082.08,-1165.33,-2086.21,-2501.19,4.635064054726342
0,-2089.86,-1181.89,-2090.28,-2505.69,4.64006412382529
0,-2089.78,-1175.27,-2096.78,-2506.2,4.645064192924238
0,-2089.49,-1176.08,-2096.59,-2513.19,4.650064262023193
0,-2080.43,-1173.28,-2094.76,-2504.77,4.655064331122141
0,-2079.35,-1170.95,-2092.92,-2504.87,4.6600644002210885
0,-2089.03,-1177.11,-2094.66,-2504.71,4.665064469320036
0,-2089.1,-1169.66,-2093.98,-2506.28,4.670064538418991
0,-2086.29,-1169.58,-2093.12,-2504.71,4.675064607517939
0,-2082.21,-1176.69,-2097.57,-2504.42,4.680064676616887
0,-2080.47,-1172.9,-2087.07,-2500.81,4.685064745715842
0,-2077.46,-1166.57,-2085.65,-2497.19,4.690064814814789
0,-2075.22,-1149.56,-2074.16,-2496.62,4.695064883913737
0,-2073.76,-1164.27,-2080.71,-2502.97,4.700064953012685
0,-2075.81,-1173.67,-2087.84,-2503.45,4.70506502211164
0,-2079.87,-1172.78,-2089.44,-2500.84,4.710065091210588
0,-2079.91,-1165.48,-2089.21,-2500.75,4.7150651603095355
0,-2086.59,-1178.07,-2095.58,-2509.21,4.720065229408483
0,-2087.4,-1180.59,-2079.85,-2502.59,4.725065298507438
0,-2080.63,-1169.63,-2082.34,-2502.55,4.730065367606386
0,-2068.92,-1167.7,-2084.63,-2496.05,4.735065436705334
0,-2074.5,-1166.08,-2081.48,-2500.57,4.7400655058042815
0,-2073.42,-1167.02,-2089.25,-2496.11,4.745065574903236
0,-2080.94,-1167.99,-2089.08,-2498.5,4.750065644002184
0,-2085.37,-1166.97,-2088.93,-2500.41,4.755065713101132
0,-2081.47,-1161.88,-2078.08,-2492.81,4.760065782200087
0,-2083.23,-1170.83,-2093.25,-2514.42,4.765065851299035
0,-2081.46,-1170.51,-2092.62,-2503.45,4.7700659203979825
0,-2082.05,-1169.46,-2094.87,-2502.97,4.77506598949693
0,-2084.03,-1172.85,-2092.3,-2503.23,4.780066058595885
0,-2080.62,-1170.54,-2092.65,-2501.98,4.785066127694833
0,-2078.02,-1162.99,-2086.51,-2495.68,4.790066196793781
0,-2079.68,-1170.19,-2091.96,-2501.42,4.7950662658927286
0,-2083.41,-1178.48,-2084.0,-2507.2,4.8000663349916834
0,-2080.19,-1169.23,-2082.35,-2503.52,4.805066404090631
0,-2073.68,-1167.37,-2094.73,-2506.04,4.810066473189579
0,-2087.27,-1183.76,-2095.63,-2506.41,4.815066542288527
0,-2087.25,-1170.33,-2096.6,-2509.66,4.820066611387482
0,-2089.82,-1173.23,-2094.34,-2508.77,4.8250666804864295
0,-2096.62,-1179.59,-2093.02,-2510.48,4.830066749585377
0,-2097.52,-1186.93,-2093.34,-2509.63,4.835066818684325
0,-2091.63,-1177.45,-2098.99,-2512.63,4.84006688778328
0,-2087.05,-1170.15,-2105.18,-2505.87,4.845066956882228
0,-2087.83,-1176.7,-2094.38,-2502.82,4.850067025981176
0,-2083.46,-1183.53,-2093.41,-2498.18,4.8550670950801305
0,-2085.19,-1163.19,-2091.47,-2502.63,4.860067164179078
0,-2074.64,-1167.97,-2091.7,-2505.89,4.865067233278026
0,-2076.01,-1167.88,-2084.91,-2505.66,4.870067302376974
0,-2091.66,-1171.4,-2102.14,-2506.88,4.875067371475929
0,-2087.29,-1191.28,-2087.57,-2505.45,4.8800674405748765
0,-2081.37,-1183.36,-2098.45,-2507.53,4.885067509673824
0,-2088.69,-1177.45,-2088.52,-2508.95,4.890067578772772
0,-2082.05,-1172.71,-2089.93,-2500.65,4.895067647871727
0,-2087.65,-1168.69,-2083.65,-2502.18,4.900067716970675
0,-2079.53,-1164.03,-2087.98,-2499.62,4.905067786069623
0,-2074.37,-1157.82,-2086.77,-2498.54,4.91006785516857
0,-2070.7,-1163.4,-2079.85,-2502.03,4.915067924267525
0,-2072.63,-1154.28,-2086.5,-2499.73,4.920067993366473
0,-2076.96,-1168.25,-2096.74,-2504.72,4.925068062465421
0,-2077.31,-1170.41,-2079.87,-2500.9,4.930068131564369
0,-2085.02,-1176.07,-2092.93,-2504.48,4.9350682006633235
0,-2080.97,-1175.52,-2087.08,-2506.71,4.940068269762271
0,-2080.85,-1169.83,-2084.64,-2506.63,4.945068338861219
0,-2084.27,-1171.97,-2091.4,-2510.5,4.950068407960174
0,-2072.4,-1164.17,-2091.67,-2507.64,4.955068477059122
0,-2060.45,-1160.83,-2077.74,-2505.75,4.96006854615807
0,-2061.35,-1153.07,-2076.91,-2502.97,4.965068615257017
0,-2048.43,-1138.66,-2070.74,-2500.68,4.970068684355972
0,-2041.0,-1133.48,-2058.73,-2505.23,4.97506875345492
0,-2031.29,-1121.46,-2044.26,-2492.96,4.980068822553868
0,-2033.82,-1125.29,-2044.54,-2493.17,4.985068891652816
0,-2021.17,-1108.18,-2031.39,-2492.33,4.9900689607517705
0,-2023.95,-1113.01,-2050.77,-2487.89,4.995069029850718
0,-2034.6,-1124.61,-2053.61,-2481.6,5.000069098949666
0,-2051.54,-1153.42,-2074.41,-2495.37,5.005069168048614
0,-2053.46,-1161.02,-2081.82,-2496.92,5.010069237147569
0,-2059.34,-1164.31,-2074.84,-2510.36,5.015069306246517
0,-2078.64,-1168.36,-2103.58,-2512.73,5.020069375345464
0,-2091.86,-1181.08,-2090.37,-2514.77,5.025069444444412
0,-2094.05,-1180.78,-2106.29,-2511.98,5.030069513543367
0,-2096.18,-1184.08,-2106.23,-2517.49,5.035069582642315
0,-2091.07,-1175.19,-2093.78,-2510.79,5.040069651741263
0,-2094.85,-1178.84,-2098.76,-2507.97,5.0450697208402175
0,-2104.17,-1185.7,-2113.76,-2509.07,5.050069789939165
0,-2099.09,-1186.82,-2103.52,-2509.16,5.055069859038113
0,-2096.38,-1186.64,-2094.33,-2503.9,5.060069928137061
0,-2092.21,-1187.91,-2097.48,-2500.7,5.065069997236016
0,-2099.79,-1188.21,-2100.73,-2507.54,5.070070066334964
0,-2100.35,-1185.26,-2093.68,-2508.46,5.075070135433911
0,-2106.29,-1186.36,-2105.59,-2507.11,5.080070204532859
0,-2101.16,-1181.2,-2100.52,-2506.23,5.085070273631814
0,-2094.03,-1179.83,-2097.5,-2501.15,5.090070342730762
0,-2090.37,-1180.77,-2096.04,-2500.44,5.09507041182971
0,-2089.51,-1173.8,-2096.36,-2502.61,5.1000704809286574
0,-2095.82,-1181.28,-2095.53,-2509.9,5.105070550027612
0,-2101.16,-1192.79,-2099.76,-2517.55,5.11007061912656
0,-2100.54,-1186.69,-2104.68,-2504.7,5.115070688225508
0,-2092.5,-1174.75,-2100.27,-2505.11,5.120070757324463
0,-2088.66,-1185.27,-2100.12,-2504.71,5.125070826423411
0,-2092.66,-1184.64,-2096.95,-2503.33,5.130070895522358
0,-2097.16,-1181.23,-2092.41,-2507.64,5.135070964621306
0,-2094.4,-1177.76,-2095.91,-2506.22,5.140071033720261
0,-2101.92,-1180.41,-2103.96,-2506.53,5.145071102819209
0,-2104.64,-1185.05,-2098.13,-2507.77,5.150071171918157
0,-2103.0,-1184.21,-2105.23,-2509.73,5.1550712410171045
0,-2093.73,-1177.91,-2097.81,-2504.63,5.160071310116059
0,-2088.52,-1183.12,-2091.93,-2501.54,5.165071379215007
0,-2087.33,-1179.89,-2097.6,-2504.97,5.170071448313955
0,-2085.12,-1173.89,-2088.49,-2500.42,5.175071517412903
0,-2085.74,-1171.19,-2087.58,-2501.32,5.180071586511858
0,-2083.62,-1172.94,-2083.84,-2501.06,5.185071655610805
0,-2078.08,-1165.03,-2080.92,-2496.39,5.190071724709753
0,-2080.9,-1158.69,-2086.6,-2499.7,5.195071793808701
0,-2080.2,-1162.54,-2086.47,-2497.35,5.200071862907656
0,-2083.93,-1178.31,-2092.05,-2499.26,5.205071932006604
0,-2083.55,-1178.05,-2090.66,-2501.39,5.2100720011055515
0,-2083.8,-1169.88,-2087.77,-2498.23,5.215072070204506
0,-2079.92,-1171.04,-2099.83,-2497.76,5.220072139303454
0,-2082.27,-1169.78,-2093.43,-2494.72,5.225072208402402
0,-2081.27,-1169.4,-2087.76,-2494.49,5.23007227750135
0,-2080.2,-1169.54,-2085.44,-2500.19,5.235072346600305
0,-2079.8,-1166.07,-2086.4,-2496.41,5.240072415699252
0,-2073.63,-1170.36,-2078.61,-2498.8,5.2450724847982
0,-2076.0,-1166.66,-2085.4,-2501.28,5.250072553897148
0,-2082.11,-1171.94,-2084.3,-2506.82,5.255072622996103
0,-2076.4,-1165.79,-2086.99,-2505.4,5.260072692095051
0,-2075.39,-1156.45,-2078.41,-2505.36,5.2650727611939985
0,-2081.56,-1157.11,-2085.72,-2507.88,5.270072830292946
0,-2082.31,-1172.84,-2083.35,-2509.76,5.275072899391901
0,-2079.16,-1170.67,-2091.06,-2505.71,5.280072968490849
0,-2089.03,-1174.03,-2093.83,-2508.34,5.285073037589797
0,-2086.58,-1173.71,-2094.29,-2511.6,5.2900731066887445
0,-2080.79,-1164.26,-2086.93,-2507.83,5.295073175787699
0,-2078.91,-1165.41,-2086.77,-2506.5,5.300073244886647
0,-2077.69,-1159.31,-2078.09,-2500.3,5.305073313985595
0,-2079.27,-1156.25,-2081.6,-2496.48,5.31007338308455
0,-2085.7,-1164.16,-2085.42,-2501.45,5.315073452183498
0,-2089.24,-1170.72,-2088.8,-2504.78,5.3200735212824455
0,-2094.46,-1171.46,-2087.24,-2505.0,5.325073590381393
0,-2090.42,-1171.99,-2089.93,-2506.51,5.330073659480348
0,-2086.44,-1172.59,-2092.91,-2496.33,5.335073728579296
0,-2083.97,-1166.66,-2093.77,-2504.1,5.340073797678244
0,-2085.37,-1177.13,-2094.44,-2503.8,5.3450738667771915
0,-2090.55,-1178.99,-2098.34,-2509.92,5.350073935876146
0,-2091.3,-1180.21,-2102.68,-2508.97,5.355074004975094
0,-2093.09,-1176.84,-2092.86,-2507.89,5.360074074074042
0,-2091.17,-1189.29,-2097.38,-2511.75,5.36507414317299
0,-2092.81,-1180.48,-2096.11,-2513.86,5.370074212271945
0,-2089.4,-1181.01,-2103.03,-2514.5,5.3750742813708925
0,-2086.07,-1175.61,-2101.94,-2509.66,5.38007435046984
0,-2078.66,-1170.39,-2088.52,-2504.92,5.385074419568795
0,-2083.76,-1171.54,-2095.4,-2509.15,5.390074488667743
0,-2077.57,-1167.7,-2087.88,-2507.43,5.395074557766691
0,-2077.02,-1171.6,-2097.33,-2508.7,5.4000746268656385
0,-2080.87,-1172.3,-2090.05,-2511.12,5.4050746959645934
0,-2082.5,-1170.01,-2088.91,-2500.63,5.410074765063541
0,-2078.4,-1170.8,-2087.91,-2492.85,5.415074834162489
0,-2074.58,-1161.33,-2085.83,-2492.48,5.420074903261437
0,-2076.99,-1167.27,-2080.15,-2513.7,5.425074972360392
0,-2072.07,-1166.69,-2084.15,-2502.74,5.4300750414593395
0,-2079.94,-1177.11,-2091.1,-2504.52,5.435075110558287
0,-2071.2,-1172.26,-2082.67,-2502.78,5.440075179657235
0,-2074.42,-1170.8,-2084.48,-2501.9,5.44507524875619
0,-2077.16,-1161.95,-2084.15,-2498.72,5.450075317855138
0,-2075.98,-1165.25,-2086.7,-2505.13,5.455075386954086
0,-2081.56,-1167.91,-2092.4,-2506.04,5.460075456053033
0,-2081.33,-1180.81,-2090.56,-2513.92,5.465075525151988
0,-2076.89,-1170.01,-2089.63,-2502.44,5.470075594250936
0,-2079.68,-1171.01,-2087.08,-2504.65,5.475075663349884
0,-2079.1,-1162.76,-2082.99,-2493.84,5.480075732448839
0,-2077.17,-1166.56,-2086.9,-2500.85,5.4850758015477865
0,-2082.87,-1181.33,-2093.18,-2509.32,5.490075870646734
0,-2082.39,-1181.68,-2102.99,-2507.22,5.495075939745682
0,-2085.82,-1174.61,-2098.24,-2512.56,5.500076008844637
0,-2086.65,-1174.74,-2093.47,-2511.13,5.505076077943585
0,-2075.88,-1160.63,-2078.31,-2505.48,5.510076147042533
0,-2082.2,-1168.74,-2085.17,-2508.67,5.51507621614148
0,-2081.52,-1167.86,-2083.37,-2503.62,5.520076285240435
0,-2080.75,-1167.59,-2092.16,-2500.46,5.525076354339383
0,-2074.76,-1165.63,-2077.78,-2497.8,5.530076423438331
0,-2078.33,-1167.62,-2085.13,-2498.79,5.535076492537279
0,-2078.41,-1157.93,-2081.45,-2494.73,5.5400765616362335
0,-2076.91,-1163.2,-2075.13,-2494.49,5.545076630735181
0,-2071.81,-1165.52,-2082.88,-2501.17,5.550076699834129
0,-2073.11,-1160.45,-2074.82,-2495.47,5.555076768933077
0,-2074.14,-1160.2,-2080.9,-2496.19,5.560076838032032
0,-2071.51,-1162.17,-2077.83,-2492.09,5.56507690713098
0,-2065.61,-1153.63,-2073.86,-2487.55,5.570076976229927
0,-2070.59,-1161.06,-2081.69,-2491.38,5.575077045328882
0,-2069.51,-1154.16,-2075.05,-2497.71,5.58007711442783
0,-2066.31,-1159.57,-2081.37,-2494.57,5.585077183526778
0,-2066.24,-1155.96,-2079.4,-2497.12,5.590077252625726
0,-2071.53,-1168.32,-2075.66,-2499.54,5.5950773217246805
0,-2079.05,-1161.22,-2084.27,-2494.59,5.600077390823628
0,-2080.66,-1168.24,-2081.22,-2493.98,5.605077459922576
0,-2092.36,-1175.07,-2097.18,-2500.08,5.610077529021524
0,-2095.43,-1181.06,-2100.26,-2522.24,5.615077598120479
0,-2090.35,-1181.68,-2100.97,-2515.64,5.620077667219427
0,-2095.25,-1178.69,-2099.7,-2515.73,5.625077736318374
0,-2092.11,-1173.99,-2097.41,-2514.97,5.630077805417322
0,-2095.0,-1172.89,-2097.47,-2520.97,5.635077874516277
0,-2091.36,-1185.58,-2100.76,-2515.89,5.640077943615225
0,-2086.32,-1173.24,-2090.48,-2505.84,5.645078012714173
0,-2090.85,-1179.37,-2094.84,-2510.51,5.6500780818131275
0,-2088.07,-1176.04,-2106.35,-2518.68,5.655078150912075
0,-2098.04,-1177.97,-2099.95,-2515.49,5.660078220011023
0,-2094.42,-1168.32,-2100.44,-2517.67,5.665078289109971
0,-2089.88,-1173.21,-2101.29,-2515.28,5.670078358208926
0,-2084.11,-1172.42,-2100.63,-2510.25,5.675078427307874
0,-2092.26,-1171.14,-2094.03,-2506.62,5.680078496406821
0,-2095.51,-1179.85,-2100.04,-2506.99,5.685078565505769
0,-2094.33,-1180.5,-2101.38,-2511.4,5.690078634604724
0,-2084.85,-1162.57,-2087.76,-2505.29,5.695078703703672
0,-2096.29,-1177.82,-2102.63,-2511.33,5.70007877280262
0,-2094.35,-1180.01,-2105.42,-2514.17,5.705078841901567
0,-2094.18,-1177.55,-2095.43,-2508.68,5.710078911000522
0,-2090.91,-1177.09,-2094.25,-2511.0,5.71507898009947
0,-2086.78,-1175.48,-2099.53,-2510.29,5.720079049198418
0,-2090.73,-1180.7,-2095.86,-2515.2,5.725079118297366
0,-2086.59,-1181.13,-2093.47,-2509.56,5.730079187396321
0,-2085.54,-1175.8,-2094.75,-2506.14,5.735079256495268
0,-2093.5,-1173.8,-2097.84,-2513.43,5.740079325594216
0,-2086.68,-1181.28,-2097.59,-2513.43,5.745079394693171
0,-2081.17,-1171.75,-2097.71,-2512.29,5.750079463792119
0,-2086.21,-1176.36,-2096.23,-2513.28,5.755079532891067
0,-2083.07,-1173.51,-2093.7,-2511.76,5.7600796019900145
0,-2085.2,-1174.49,-2093.59,-2515.71,5.765079671088969
0,-2075.41,-1165.98,-2083.86,-2500.44,5.770079740187917
0,-2067.29,-1157.64,-2078.0,-2498.95,5.775079809286865
0,-2071.5,-1165.42,-2081.45,-2499.51,5.780079878385813
0,-2076.11,-1165.18,-2080.19,-2500.54,5.785079947484768
0,-2078.15,-1158.05,-2083.4,-2497.87,5.790080016583715
0,-2084.12,-1168.71,-2087.0,-2504.56,5.795080085682663
0,-2088.99,-1176.21,-2094.07,-2511.51,5.800080154781611
0,-2084.2,-1179.25,-2093.09,-2506.92,5.805080223880566
0,-2088.01,-1178.53,-2094.85,-2510.52,5.810080292979514
0,-2085.94,-1174.46,-2089.38,-2509.01,5.8150803620784615
0,-2084.97,-1172.87,-2093.06,-2505.53,5.820080431177409
0,-2086.96,-1174.64,-2092.46,-2504.87,5.825080500276364
0,-2082.52,-1177.61,-2084.55,-2504.52,5.830080569375312
0,-2085.82,-1170.02,-2086.9,-2505.29,5.83508063847426
0,-2087.78,-1166.38,-2091.17,-2506.97,5.840080707573215
0,-2082.99,-1168.93,-2091.97,-2505.6,5.845080776672162
0,-2083.63,-1170.62,-2094.99,-2507.8,5.85008084577111
0,-2081.39,-1163.97,-2091.16,-2507.71,5.855080914870058
0,-2084.25,-1173.99,-2085.74,-2503.36,5.860080983969013
0,-2083.81,-1178.32,-2094.33,-2503.58,5.865081053067961
0,-2084.02,-1173.98,-2089.33,-2502.83,5.8700811221669085
0,-2079.99,-1168.46,-2088.46,-2505.45,5.875081191265856
0,-2076.36,-1170.27,-2099.84,-2498.48,5.880081260364811
0,-2082.64,-1168.44,-2093.78,-2501.45,5.885081329463759
0,-2092.58,-1169.98,-2091.04,-2495.75,5.890081398562707
0,-2085.72,-1171.99,-2105.34,-2505.04,5.8950814676616545
0,-2087.91,-1173.84,-2096.08,-2515.71,5.900081536760609
0,-2082.99,-1173.92,-2084.66,-2511.65,5.905081605859557
0,-2080.5,-1175.65,-2095.02,-2506.81,5.910081674958505
0,-2077.45,-1170.63,-2085.25,-2505.97,5.915081744057453
0,-2075.21,-1164.11,-2079.0,-2497.23,5.920081813156408
0,-2078.23,-1162.1,-2088.75,-2504.05,5.9250818822553555
0,-2080.41,-1160.58,-2090.54,-2504.77,5.930081951354303
0,-2067.58,-1161.69,-2091.72,-2499.18,5.935082020453258
0,-2075.08,-1160.91,-2083.03,-2498.25,5.940082089552206
0,-2073.57,-1165.01,-2091.52,-2495.81,5.945082158651154
0,-2077.04,-1160.78,-2090.57,-2499.19,5.9500822277501015
0,-2074.8,-1158.18,-2084.48,-2496.13,5.955082296849056
0,-2075.08,-1160.17,-2076.43,-2497.35,5.960082365948004
0,-2078.99,-1171.07,-2089.5,-2497.6,5.965082435046952
0,-2075.94,-1173.55,-2087.64,-2504.29,5.9700825041459
0,-2072.84,-1169.52,-2087.6,-2498.38,5.975082573244855
0,-2079.83,-1164.97,-2084.14,-2502.06,5.9800826423438025
0,-2081.72,-1169.06,-2094.86,-2503.54,5.98508271144275
0,-2078.63,-1170.05,-2079.08,-2506.88,5.990082780541698
0,-2076.65,-1169.63,-2087.93,-2508.9,5.995082849640653
0,-2082.93,-1175.67,-2083.88,-2507.09,6.000082918739601
0,-2083.37,-1180.02,-2088.22,-2507.91,6.0050829878385485
0,-2080.42,-1177.93,-2095.21,-2505.36,6.010083056937503
0,-2087.43,-1181.66,-2092.68,-2510.15,6.015083126036451
0,-2082.52,-1166.63,-2090.15,-2511.18,6.020083195135399
0,-2086.82,-1164.43,-2088.83,-2511.49,6.025083264234347
0,-2087.22,-1182.6,-2100.22,-2506.25,6.030083333333302
0,-2089.07,-1187.87,-2105.92,-2505.44,6.0350834024322495
0,-2083.98,-1172.25,-2087.54,-2494.98,6.040083471531197
0,-2081.44,-1179.9,-2079.93,-2503.57,6.045083540630145
0,-2082.91,-1167.7,-2092.29,-2502.72,6.0500836097291
0,-2081.93,-1172.26,-2094.06,-2503.64,6.055083678828048
0,-2090.42,-1168.88,-2092.83,-2505.11,6.060083747926996
0,-2089.5,-1177.33,-2096.19,-2509.35,6.065083817025943
0,-2091.11,-1176.76,-2099.02,-2505.64,6.070083886124898
0,-2086.89,-1167.25,-2094.04,-2500.2,6.075083955223846
0,-2082.83,-1161.76,-2101.7,-2498.18,6.080084024322794
0,-2080.16,-1166.98,-2092.5,-2500.81,6.085084093421742
0,-2081.8,-1167.51,-2092.66,-2508.66,6.0900841625206965
0,-2078.17,-1168.61,-2092.45,-2505.48,6.095084231619644
0,-2077.22,-1166.93,-2086.53,-2501.42,6.100084300718592
0,-2084.61,-1173.86,-2091.72,-2504.44,6.105084369817547
0,-2088.44,-1175.67,-2092.46,-2511.54,6.110084438916495
0,-2084.18,-1165.35,-2087.1,-2503.8,6.115084508015443
0,-2080.64,-1166.61,-2083.59,-2491.86,6.12008457711439
0,-2094.3,-1173.5,-2095.48,-2513.03,6.125084646213345
0,-2100.14,-1182.92,-2109.3,-2524.62,6.130084715312293
0,-2091.02,-1175.74,-2103.55,-2518.18,6.135084784411241
0,-2089.97,-1178.0,-2094.11,-2515.12,6.140084853510189
0,-2083.22,-1170.87,-2087.78,-2516.94,6.1450849226091435
0,-2083.11,-1171.66,-2086.47,-2514.15,6.150084991708091
0,-2088.32,-1174.58,-2086.12,-2509.74,6.155085060807039
0,-2082.44,-1174.21,-2086.16,-2508.2,6.160085129905987
0,-2096.94,-1177.79,-2100.86,-2519.06,6.165085199004942
0,-2094.68,-1177.37,-2090.97,-2515.28,6.17008526810389
0,-2088.49,-1174.1,-2090.13,-2510.39,6.175085337202837
0,-2091.38,-1169.67,-2095.69,-2507.91,6.180085406301785
0,-2093.02,-1176.55,-2097.58,-2507.99,6.18508547540074
0,-2090.41,-1173.44,-2093.2,-2511.81,6.190085544499688
0,-2094.04,-1171.05,-2103.1,-2509.83,6.195085613598636
0,-2090.75,-1174.13,-2095.8,-2503.23,6.2000856826975905
0,-2098.39,-1180.13,-2098.22,-2505.06,6.205085751796538
0,-2090.36,-1171.36,-2093.45,-2505.89,6.210085820895486
0,-2085.54,-1169.18,-2094.18,-2501.6,6.215085889994434
0,-2082.05,-1171.18,-2089.7,-2501.13,6.220085959093389
0,-2079.7,-1168.8,-2087.91,-2499.21,6.225086028192337
0,-2080.75,-1169.17,-2084.37,-2497.34,6.230086097291284
0,-2083.75,-1170.62,-2089.8,-2498.53,6.235086166390232
0,-2083.45,-1170.19,-2082.41,-2495.23,6.240086235489187
0,-2078.47,-1165.5,-2080.12,-2493.22,6.245086304588135
0,-2078.47,-1165.53,-2080.6,-2493.8,6.250086373687083
0,-2077.19,-1165.19,-2083.58,-2499.8,6.25508644278603
0,-2073.66,-1166.27,-2091.22,-2504.63,6.260086511884985
0,-2079.39,-1172.53,-2085.85,-2501.49,6.265086580983933
0,-2079.07,-1167.76,-2090.12,-2506.0,6.270086650082881
0,-2087.92,-1177.27,-2093.56,-2512.46,6.275086719181836
0,-2077.86,-1168.53,-2082.62,-2504.33,6.280086788280784
0,-2081.2,-1172.97,-2085.94,-2506.11,6.285086857379731
0,-2083.94,-1172.73,-2089.07,-2503.82,6.290086926478679
0,-2081.85,-1169.64,-2094.38,-2505.42,6.295086995577634
0,-2086.44,-1169.86,-2097.9,-2511.27,6.300087064676582
0,-2087.62,-1173.2,-2093.56,-2512.74,6.30508713377553
0,-2090.09,-1178.29,-2100.58,-2515.54,6.310087202874477
0,-2100.23,-1182.69,-2109.57,-2521.78,6.315087271973432
0,-2100.65,-1186.49,-2116.16,-2525.2,6.32008734107238
0,-2091.53,-1182.76,-2098.16,-2517.59,6.325087410171328
0,-2086.97,-1177.73,-2090.93,-2512.25,6.330087479270276
0,-2085.26,-1179.47,-2095.49,-2513.35,6.335087548369231
0,-2092.62,-1180.07,-2095.59,-2513.43,6.340087617468178
0,-2088.27,-1170.62,-2096.99,-2505.36,6.345087686567126
0,-2085.96,-1167.49,-2087.33,-2506.08,6.350087755666074
0,-2089.17,-1173.71,-2090.79,-2512.55,6.355087824765029
0,-2090.5,-1175.03,-2097.31,-2509.49,6.360087893863977
0,-2084.15,-1174.87,-2093.7,-2507.7,6.3650879629629245
0,-2086.27,-1168.93,-2090.32,-2501.98,6.370088032061879
0,-2089.08,-1167.12,-2087.43,-2495.85,6.375088101160827
0,-2082.91,-1163.94,-2088.64,-2497.47,6.380088170259775
0,-2091.8,-1173.97,-2092.38,-2497.63,6.385088239358723
0,-2086.41,-1170.55,-2094.2,-2500.51,6.390088308457678
0,-2085.2,-1172.61,-2099.97,-2498.09,6.395088377556625
0,-2083.37,-1167.03,-2083.77,-2498.26,6.400088446655573
0,-2086.07,-1173.06,-2090.0,-2500.27,6.405088515754521
0,-2087.6,-1174.98,-2094.56,-2505.26,6.410088584853476
0,-2084.4,-1170.76,-2096.66,-2500.4,6.415088653952424
0,-2084.4,-1166.8,-2095.55,-2503.1,6.4200887230513715
0,-2086.88,-1171.46,-2095.89,-2501.96,6.425088792150319
0,-2088.87,-1174.44,-2090.89,-2508.82,6.430088861249274
0,-2086.94,-1174.35,-2094.69,-2507.09,6.435088930348222
0,-2084.5,-1173.3,-2095.34,-2513.41,6.44008899944717
0,-2080.96,-1173.49,-2083.96,-2510.74,6.4450890685461175
0,-2078.03,-1161.06,-2087.02,-2502.75,6.450089137645072
0,-2078.29,-1165.3,-2075.22,-2498.81,6.45508920674402
0,-2072.95,-1168.11,-2089.51,-2502.17,6.460089275842968
0,-2070.59,-1168.81,-2074.77,-2497.54,6.465089344941923
0,-2066.02,-1160.51,-2070.18,-2499.82,6.470089414040871
0,-2066.41,-1147.66,-2077.47,-2498.66,6.4750894831398185
0,-2064.11,-1140.91,-2069.15,-2494.97,6.480089552238766
0,-2064.35,-1173.2,-2065.76,-2492.44,6.485089621337721
0,-2076.66,-1185.53,-2086.21,-2497.09,6.490089690436669
0,-2082.74,-1182.4,-2102.14,-2510.02,6.495089759535617
0,-2082.77,-1174.6,-2087.67,-2507.47,6.5000898286345645
0,-2080.62,-1171.51,-2096.99,-2510.49,6.505089897733519
0,-2087.26,-1175.66,-2092.69,-2509.37,6.510089966832467
0,-2096.6,-1179.72,-2112.05,-2517.09,6.515090035931415
0,-2088.21,-1179.85,-2105.31,-2518.74,6.520090105030363
0,-2090.2,-1175.23,-2095.23,-2513.93,6.525090174129318
0,-2083.56,-1178.63,-2102.01,-2510.21,6.5300902432282655
0,-2085.51,-1170.58,-2088.47,-2508.29,6.535090312327213
0,-2082.95,-1169.03,-2101.07,-2505.09,6.540090381426161
0,-2082.76,-1173.22,-2092.06,-2509.88,6.545090450525116
0,-2082.95,-1170.22,-2085.79,-2505.31,6.550090519624064
0,-2089.1,-1170.76,-2094.08,-2503.8,6.5550905887230115
0,-2078.25,-1159.02,-2090.67,-2508.14,6.560090657821966
0,-2073.2,-1168.6,-2084.37,-2503.74,6.565090726920914
0,-2075.48,-1156.05,-2080.78,-2503.26,6.570090796019862
0,-2074.8,-1158.39,-2079.9,-2502.02,6.57509086511881
0,-2079.98,-1175.21,-2091.85,-2504.06,6.580090934217765
0,-2079.8,-1176.04,-2097.2,-2502.84,6.5850910033167125
0,-2077.08,-1160.44,-2095.85,-2504.41,6.59009107241566
0,-2071.24,-1153.59,-2078.6,-2500.11,6.595091141514608
0,-2070.16,-1160.44,-2077.1,-2494.6,6.600091210613563
0,-2078.55,-1183.9,-2086.32,-2498.63,6.605091279712511
0,-2084.28,-1179.7,-2091.0,-2498.39,6.6100913488114585
0,-2082.28,-1175.59,-2088.74,-2501.0,6.615091417910406
0,-2075.5,-1164.62,-2087.22,-2496.31,6.620091487009361
0,-2075.2,-1165.18,-2086.86,-2503.63,6.625091556108309
0,-2087.15,-1169.71,-2084.18,-2501.2,6.630091625207257
0,-2081.53,-1167.48,-2080.2,-2505.43,6.635091694306212
0,-2088.13,-1171.11,-2084.8,-2511.08,6.6400917634051595
0,-2081.09,-1165.34,-2082.57,-2507.35,6.645091832504107
0,-2081.78,-1171.11,-2084.39,-2507.16,6.650091901603055
0,-2087.5,-1170.47,-2089.8,-2506.23,6.65509197070201
0,-2087.29,-1174.15,-2094.05,-2505.77,6.660092039800958
0,-2086.51,-1172.43,-2098.33,-2504.72,6.6650921088999056
0,-2081.4,-1168.91,-2089.68,-2500.64,6.670092177998853
0,-2081.76,-1169.11,-2092.55,-2506.13,6.675092247097808
0,-2081.71,-1170.52,-2085.28,-2504.72,6.680092316196756
0,-2081.81,-1170.76,-2092.64,-2501.93,6.685092385295704
0,-2088.25,-1171.58,-2091.99,-2508.7,6.690092454394652
0,-2079.95,-1167.88,-2087.0,-2502.48,6.6950925234936065
0,-2083.56,-1164.64,-2096.57,-2502.33,6.700092592592554
0,-2087.95,-1160.38,-2091.52,-2503.97,6.705092661691502
0,-2089.59,-1172.32,-2101.58,-2510.07,6.71009273079045
0,-2094.73,-1180.72,-2101.47,-2511.72,6.715092799889405
0,-2086.94,-1175.24,-2089.23,-2503.32,6.720092868988353
0,-2076.71,-1168.28,-2089.77,-2503.44,6.7250929380873
0,-2085.28,-1172.41,-2092.72,-2507.44,6.730093007186255
0,-2088.37,-1171.31,-2091.47,-2500.73,6.735093076285203
0,-2079.97,-1163.42,-2085.45,-2503.26,6.740093145384151
0,-2075.12,-1166.63,-2091.44,-2501.61,6.745093214483099
0,-2077.5,-1164.28,-2085.14,-2499.55,6.7500932835820535
0,-2074.51,-1155.94,-2082.31,-2494.78,6.755093352681001
0,-2076.75,-1167.47,-2084.72,-2500.78,6.760093421779949
0,-2080.63,-1169.71,-2091.97,-2497.22,6.765093490878897
0,-2075.77,-1169.57,-2083.9,-2497.43,6.770093559977852
0,-2073.9,-1160.53,-2075.38,-2495.55,6.7750936290768
0,-2074.15,-1158.7,-2075.7,-2495.14,6.780093698175747
0,-2084.94,-1175.44,-2089.94,-2510.58,6.785093767274695
0,-2089.11,-1187.27,-2106.17,-2511.85,6.79009383637365
0,-2085.7,-1185.53,-2104.15,-2511.87,6.795093905472598
0,-2085.27,-1177.33,-2099.34,-2504.12,6.800093974571546
0,-2085.03,-1175.11,-2095.52,-2504.74,6.805094043670493
0,-2090.66,-1175.35,-2093.94,-2501.62,6.810094112769448
0,-2089.15,-1167.99,-2090.48,-2501.87,6.815094181868396
0,-2086.18,-1175.14,-2094.62,-2504.77,6.820094250967344
0,-2081.01,-1169.75,-2080.33,-2500.5,6.825094320066299
0,-2082.54,-1175.62,-2089.49,-2498.29,6.830094389165247
0,-2076.26,-1167.97,-2079.8,-2492.48,6.835094458264194
0,-2074.74,-1159.66,-2072.71,-2488.51,6.840094527363142
0,-2073.07,-1158.89,-2071.06,-2492.31,6.845094596462097
0,-2076.88,-1165.61,-2081.16,-2497.86,6.850094665561045
0,-2078.76,-1166.47,-2090.1,-2496.71,6.855094734659993
0,-2086.61,-1177.08,-2089.72,-2504.27,6.86009480375894
0,-2082.16,-1167.97,-2084.57,-2502.27,6.865094872857895
0,-2085.44,-1160.54,-2093.1,-2505.7,6.870094941956843
0,-2076.24,-1151.78,-2084.86,-2506.12,6.875095011055791
0,-2077.39,-1156.22,-2089.01,-2500.76,6.880095080154739
0,-2071.73,-1175.26,-2078.18,-2505.93,6.885095149253694
0,-2080.22,-1177.85,-2094.82,-2508.68,6.890095218352641
0,-2080.74,-1173.26,-2092.59,-2506.98,6.895095287451589
0,-2088.94,-1183.31,-2105.94,-2508.81,6.900095356550544
0,-2089.1,-1176.61,-2100.92,-2510.44,6.905095425649492
0,-2092.33,-1181.71,-2106.86,-2518.15,6.91009549474844
0,-2095.1,-1179.19,-2101.81,-2515.38,6.915095563847387
0,-2094.55,-1177.29,-2105.44,-2519.06,6.920095632946342
0,-2086.62,-1172.63,-2094.93,-2509.96,6.92509570204529
0,-2082.88,-1177.15,-2092.23,-2508.0,6.930095771144238
0,-2086.1,-1181.34,-2096.88,-2508.75,6.935095840243186
0,-2087.0,-1178.92,-2092.82,-2508.74,6.940095909342141
0,-2085.59,-1180.25,-2092.19,-2507.89,6.945095978441088
0,-2088.55,-1176.51,-2098.08,-2518.17,6.950096047540036
0,-2086.87,-1174.84,-2090.48,-2511.67,6.955096116638984
0,-2086.71,-1176.06,-2095.37,-2514.07,6.960096185737939
0,-2087.37,-1184.0,-2093.45,-2510.93,6.965096254836887
0,-2090.59,-1184.49,-2093.2,-2509.53,6.9700963239358344
0,-2085.14,-1167.77,-2107.36,-2507.66,6.975096393034782
0,-2083.51,-1164.59,-2087.17,-2507.02,6.980096462133737
0,-2079.58,-1163.89,-2082.19,-2497.28,6.985096531232685
0,-2079.46,-1167.31,-2085.24,-2506.71,6.990096600331633
0,-2079.46,-1161.12,-2088.72,-2502.8,6.995096669430588
0,-2083.83,-1180.18,-2093.62,-2507.06,7.000096738529535
0,-2082.95,-1173.86,-2086.22,-2508.99,7.005096807628483
0,-2086.22,-1171.65,-2092.0,-2501.71,7.010096876727431
0,-2083.16,-1169.55,-2088.67,-2507.26,7.015096945826386
0,-2085.31,-1172.44,-2087.14,-2508.55,7.020097014925334
0,-2083.75,-1171.27,-2089.36,-2508.81,7.0250970840242815
0,-2083.33,-1170.9,-2085.74,-2512.78,7.030097153123229
0,-2092.89,-1171.41,-2089.47,-2510.48,7.035097222222184
0,-2087.17,-1167.1,-2090.33,-2505.52,7.040097291321132
0,-2073.06,-1162.04,-2084.04,-2498.93,7.04509736042008
0,-2077.49,-1180.73,-2088.72,-2503.07,7.0500974295190275
0,-2085.77,-1180.08,-2097.65,-2504.38,7.055097498617982
0,-2079.43,-1175.99,-2091.87,-2504.82,7.06009756771693
0,-2086.48,-1179.65,-2094.33,-2504.6,7.065097636815878
0,-2081.03,-1167.9,-2085.21,-2496.26,7.070097705914826
0,-2081.94,-1167.46,-2090.17,-2493.7,7.075097775013781
0,-2082.54,-1171.46,-2085.44,-2501.3,7.0800978441127285
0,-2077.88,-1160.42,-2078.01,-2498.09,7.085097913211676
0,-2084.82,-1165.24,-2086.35,-2503.22,7.090097982310631
0,-2081.45,-1167.24,-2083.98,-2498.19,7.095098051409579
0,-2083.59,-1174.73,-2091.01,-2503.34,7.100098120508527
0,-2081.64,-1162.4,-2085.45,-2500.67,7.1050981896074745
0,-2076.96,-1159.54,-2081.4,-2505.22,7.110098258706429
0,-2083.28,-1166.56,-2079.68,-2499.13,7.115098327805377
0,-2084.87,-1169.13,-2083.61,-2501.16,7.120098396904325
0,-2082.16,-1172.37,-2094.36,-2503.64,7.125098466003273
0,-2079.23,-1169.23,-2097.2,-2503.11,7.130098535102228
0,-2082.6,-1164.84,-2090.69,-2503.89,7.1350986042011755
0,-2082.12,-1156.38,-2082.2,-2502.01,7.140098673300123
0,-2080.71,-1169.29,-2086.37,-2498.87,7.145098742399071
0,-2081.95,-1173.49,-2099.05,-2498.03,7.150098811498026
0,-2085.94,-1171.37,-2096.31,-2504.67,7.155098880596974
0,-2080.03,-1172.35,-2096.89,-2505.56,7.1600989496959215
0,-2079.04,-1169.21,-2089.08,-2503.41,7.165099018794869
0,-2084.08,-1176.3,-2094.58,-2507.71,7.170099087893824
0,-2082.75,-1181.62,-2100.01,-2505.47,7.175099156992772
0,-2081.43,-1174.98,-2099.94,-2504.05,7.18009922609172
0,-2082.15,-1167.64,-2093.75,-2501.6,7.185099295190675
0,-2088.24,-1184.12,-2101.54,-2507.62,7.1900993642896225
0,-2086.17,-1180.62,-2104.89,-2511.9,7.19509943338857
0,-2087.56,-1175.49,-2090.99,-2509.0,7.200099502487518
0,-2079.57,-1169.55,-2084.57,-2504.04,7.205099571586473
0,-2082.04,-1164.11,-2087.31,-2495.28,7.210099640685421
0,-2077.17,-1160.03,-2092.46,-2502.21,7.2150997097843685
0,-2077.34,-1168.27,-2089.23,-2501.73,7.220099778883316
0,-2077.58,-1160.89,-2090.52,-2499.39,7.225099847982271
0,-2080.79,-1173.79,-2087.31,-2506.59,7.230099917081219
0,-2081.72,-1166.6,-2083.63,-2510.95,7.235099986180167
0,-2090.83,-1172.37,-2085.81,-2512.41,7.240100055279115
0,-2091.66,-1174.08,-2094.02,-2508.35,7.2451001243780695
0,-2091.91,-1185.23,-2098.02,-2511.39,7.250100193477017
0,-2087.47,-1178.98,-2095.36,-2507.29,7.255100262575965
0,-2085.65,-1178.33,-2082.3,-2505.21,7.26010033167492
0,-2077.45,-1167.4,-2083.84,-2501.33,7.265100400773868
0,-2078.59,-1164.61,-2089.5,-2500.41,7.2701004698728156
0,-2075.51,-1160.09,-2092.6,-2501.78,7.275100538971763
0,-2077.29,-1169.35,-2080.52,-2499.79,7.280100608070718
0,-2078.89,-1170.84,-2085.81,-2504.02,7.285100677169666
0,-2084.77,-1169.53,-2093.51,-2507.21,7.290100746268614
0,-2079.02,-1168.35,-2091.63,-2506.44,7.295100815367562
0,-2083.6,-1172.72,-2095.44,-2510.48,7.3001008844665165
0,-2083.33,-1175.65,-2087.43,-2506.91,7.305100953565464
0,-2079.19,-1168.49,-2089.01,-2507.2,7.310101022664412
0,-2079.92,-1166.49,-2087.76,-2507.4,7.31510109176336
0,-2087.05,-1178.77,-2091.11,-2512.92,7.320101160862315
0,-2090.66,-1177.13,-2096.71,-2509.83,7.325101229961263
0,-2089.59,-1177.37,-2094.72,-2510.73,7.33010129906021
0,-2090.12,-1176.84,-2100.79,-2510.68,7.335101368159158
0,-2085.72,-1176.98,-2101.96,-2505.33,7.340101437258113
0,-2086.49,-1178.09,-2097.15,-2509.99,7.345101506357061
0,-2081.01,-1171.28,-2088.24,-2510.43,7.350101575456009
0,-2085.89,-1166.17,-2098.9,-2508.01,7.3551016445549635
0,-2081.47,-1167.44,-2082.64,-2504.09,7.360101713653911
0,-2083.67,-1179.79,-2083.66,-2501.96,7.365101782752859
0,-2078.48,-1175.56,-2081.38,-2496.86,7.370101851851807
0,-2080.49,-1168.7,-2087.86,-2506.24,7.375101920950762
0,-2080.5,-1159.75,-2088.36,-2502.4,7.38010199004971
0,-2076.58,-1155.28,-2074.72,-2495.08,7.385102059148657
0,-2071.52,-1157.21,-2082.52,-2495.65,7.390102128247605
0,-2074.33,-1164.23,-2088.12,-2496.04,7.39510219734656
0,-2077.1,-1169.59,-2079.95,-2500.14,7.400102266445508
0,-2079.67,-1168.28,-2093.18,-2498.14,7.405102335544456
0,-2080.91,-1170.52,-2092.91,-2499.52,7.410102404643403
0,-2084.51,-1167.07,-2073.28,-2496.88,7.415102473742358
0,-2082.53,-1170.11,-2078.02,-2491.8,7.420102542841306
0,-2080.43,-1165.25,-2093.65,-2504.45,7.425102611940254
0,-2082.12,-1171.09,-2090.24,-2504.52,7.430102681039202
0,-2081.42,-1173.59,-2096.63,-2507.49,7.435102750138157
0,-2079.84,-1172.32,-2093.99,-2495.55,7.440102819237104
0,-2087.36,-1180.38,-2096.7,-2507.19,7.445102888336052
0,-2078.06,-1174.66,-2093.31,-2504.01,7.450102957435007
0,-2079.07,-1168.56,-2091.56,-2502.33,7.455103026533955
0,-2077.07,-1170.44,-2084.56,-2497.14,7.460103095632903
0,-2075.57,-1162.45,-2085.74,-2490.91,7.46510316473185
0,-2078.71,-1179.22,-2086.48,-2502.63,7.470103233830805
0,-2080.91,-1169.38,-2092.15,-2503.67,7.475103302929753
0,-2084.95,-1173.56,-2090.01,-2510.13,7.480103372028701
0,-2091.2,-1181.19,-2103.56,-2515.14,7.485103441127649
0,-2090.79,-1181.29,-2098.87,-2513.92,7.490103510226604
0,-2085.38,-1182.38,-2096.05,-2508.55,7.495103579325551
0,-2084.73,-1178.95,-2093.76,-2508.8,7.500103648424499
0,-2089.25,-1173.34,-2092.78,-2507.42,7.505103717523447
0,-2088.31,-1173.27,-2098.3,-2506.01,7.510103786622402
0,-2086.07,-1170.59,-2092.65,-2507.72,7.51510385572135
0,-2086.05,-1171.59,-2089.67,-2504.79,7.520103924820297
0,-2082.57,-1167.46,-2083.6,-2501.84,7.525103993919252
0,-2085.13,-1169.52,-2090.98,-2503.22,7.5301040630182
0,-2087.34,-1171.34,-2095.15,-2510.19,7.535104132117148
0,-2083.66,-1161.66,-2085.96,-2502.85,7.540104201216096
0,-2075.41,-1165.93,-2083.8,-2503.9,7.545104270315051
0,-2078.06,-1161.24,-2084.97,-2501.28,7.550104339413998
0,-2084.52,-1168.4,-2088.61,-2504.79,7.555104408512946
0,-2083.96,-1164.56,-2098.49,-2500.91,7.560104477611894
0,-2080.83,-1161.99,-2089.16,-2497.57,7.565104546710849
0,-2082.64,-1168.7,-2083.83,-2501.4,7.570104615809797
0,-2082.78,-1182.11,-2095.19,-2500.73,7.5751046849087444
0,-2080.85,-1171.41,-2087.95,-2496.57,7.580104754007692
0,-2085.99,-1177.48,-2090.09,-2506.69,7.585104823106647
0,-2083.67,-1161.85,-2089.85,-2501.38,7.590104892205595
0,-2078.36,-1167.39,-2091.83,-2505.44,7.595104961304543
0,-2081.5,-1178.09,-2093.04,-2501.39,7.6001050304034905
0,-2088.14,-1179.83,-2094.91,-2505.54,7.605105099502445
0,-2084.54,-1177.89,-2093.16,-2503.75,7.610105168601393
0,-2076.83,-1163.2,-2081.47,-2495.97,7.615105237700341
0,-2084.82,-1161.06,-2080.31,-2499.44,7.620105306799296
0,-2081.59,-1169.54,-2091.82,-2501.97,7.625105375898244
0,-2078.27,-1167.36,-2083.44,-2499.01,7.6301054449971915
0,-2074.95,-1165.29,-2089.35,-2498.23,7.635105514096139
0,-2073.25,-1168.08,-2083.81,-2499.74,7.640105583195094
0,-2070.3,-1161.53,-2075.24,-2503.81,7.645105652294042
0,-2077.82,-1159.26,-2080.48,-2503.51,7.65010572139299
0,-2081.66,-1158.93,-2087.8,-2501.43,7.6551057904919375
0,-2075.37,-1166.83,-2083.35,-2504.78,7.660105859590892
0,-2076.87,-1162.71,-2078.75,-2506.69,7.66510592868984
0,-2081.4,-1170.23,-2082.82,-2504.49,7.670105997788788
0,-2082.22,-1169.2,-2082.42,-2513.0,7.675106066887736
0,-2083.71,-1165.62,-2093.15,-2508.28,7.680106135986691
0,-2082.66,-1173.55,-2076.64,-2507.17,7.6851062050856385
0,-2082.42,-1171.5,-2098.37,-2504.46,7.690106274184586
0,-2081.19,-1171.62,-2088.34,-2505.71,7.695106343283534
0,-2084.39,-1174.15,-2105.25,-2512.48,7.700106412382489
0,-2090.75,-1174.14,-2096.22,-2508.0,7.705106481481437
0,-2083.9,-1178.95,-2093.9,-2502.74,7.7101065505803845
0,-2089.53,-1171.1,-2103.36,-2509.7,7.715106619679339
0,-2090.52,-1173.06,-2100.67,-2510.39,7.720106688778287
0,-2091.94,-1173.17,-2109.73,-2514.97,7.725106757877235
0,-2090.9,-1178.7,-2105.17,-2513.82,7.730106826976183
0,-2089.62,-1173.84,-2087.68,-2513.62,7.735106896075138
0,-2083.53,-1165.99,-2084.54,-2507.54,7.7401069651740855
0,-2080.23,-1165.59,-2093.32,-2503.84,7.745107034273033
0,-2080.93,-1174.56,-2091.78,-2507.44,7.750107103371981
0,-2088.66,-1174.9,-2085.12,-2508.8,7.755107172470936
0,-2083.05,-1179.53,-2091.67,-2511.78,7.760107241569884
0,-2087.77,-1184.77,-2102.65,-2508.27,7.7651073106688315
0,-2091.66,-1184.4,-2112.69,-2510.74,7.770107379767779
0,-2085.52,-1176.74,-2100.51,-2509.53,7.775107448866734
0,-2078.34,-1169.33,-2092.04,-2504.45,7.780107517965682
0,-2074.51,-1173.09,-2090.15,-2500.11,7.78510758706463
0,-2082.64,-1167.28,-2096.43,-2502.76,7.790107656163578
0,-2076.15,-1168.42,-2082.89,-2499.4,7.7951077252625325
0,-2074.05,-1165.57,-2081.12,-2503.97,7.80010779436148
0,-2082.06,-1165.16,-2080.66,-2506.55,7.805107863460428
0,-2073.64,-1158.76,-2078.91,-2501.09,7.810107932559383
0,-2076.95,-1159.56,-2077.35,-2501.48,7.815108001658331
0,-2086.97,-1165.91,-2091.93,-2502.57,7.8201080707572785
0,-2082.26,-1166.21,-2094.49,-2500.26,7.825108139856226
0,-2084.77,-1177.22,-2089.32,-2503.38,7.830108208955181
0,-2077.29,-1172.85,-2084.58,-2503.45,7.835108278054129
0,-2080.04,-1173.73,-2088.9,-2504.18,7.840108347153077
0,-2079.04,-1173.57,-2090.16,-2502.39,7.845108416252025
0,-2084.13,-1168.15,-2083.6,-2505.91,7.8501084853509795
0,-2080.54,-1172.92,-2084.78,-2506.04,7.855108554449927
0,-2081.37,-1176.31,-2075.5,-2504.89,7.860108623548875
0,-2083.24,-1176.53,-2098.61,-2506.08,7.865108692647823
0,-2081.96,-1168.57,-2091.9,-2505.88,7.870108761746778
0,-2080.87,-1168.07,-2092.1,-2507.38,7.8751088308457255
0,-2075.5,-1161.78,-2075.81,-2500.61,7.880108899944673
0,-2074.07,-1164.36,-2097.76,-2502.16,7.885108969043628
0,-2077.31,-1164.75,-2085.56,-2500.73,7.890109038142576
0,-2076.26,-1161.7,-2084.79,-2493.31,7.895109107241524
0,-2078.86,-1164.85,-2088.6,-2498.53,7.900109176340472
0,-2080.2,-1168.94,-2078.23,-2501.58,7.9051092454394265
0,-2069.21,-1164.81,-2076.19,-2500.13,7.910109314538374
0,-2069.58,-1159.94,-2072.91,-2502.5,7.915109383637322
0,-2071.29,-1157.39,-2079.94,-2505.21,7.92010945273627
0,-2066.8,-1152.75,-2073.46,-2500.35,7.925109521835225
0,-2064.88,-1153.55,-2079.25,-2500.69,7.930109590934173
0,-2049.37,-1139.5,-2071.24,-2501.28,7.93510966003312
0,-2044.74,-1132.84,-2061.56,-2502.99,7.940109729132068
0,-2029.72,-1122.05,-2052.25,-2492.32,7.945109798231023
0,-2036.35,-1125.5,-2056.43,-2495.17,7.950109867329971
0,-2037.51,-1136.96,-2060.35,-2491.73,7.955109936428919
0,-2025.48,-1124.62,-2047.37,-2489.27,7.960110005527866
0,-2024.67,-1122.7,-2047.22,-2494.34,7.965110074626821
0,-2029.71,-1124.55,-2053.94,-2492.04,7.970110143725769
0,-2034.43,-1126.4,-2058.42,-2488.56,7.975110212824717
0,-2029.27,-1127.53,-2046.76,-2479.5,7.980110281923672
0,-2038.26,-1142.69,-2061.97,-2485.54,7.98511035102262
0,-2046.25,-1152.21,-2070.14,-2490.54,7.990110420121567
0,-2063.45,-1159.18,-2075.14,-2496.2,7.995110489220515
0,-2064.65,-1158.52,-2080.71,-2503.85,8.00011055831947
0,-2075.29,-1164.93,-2083.17,-2507.32,8.005110627418418
0,-2080.7,-1167.98,-2085.31,-2500.96,8.010110696517366
0,-2083.06,-1174.23,-2097.66,-2506.43,8.015110765616313
0,-2086.59,-1169.94,-2099.21,-2506.28,8.020110834715268
0,-2085.82,-1172.39,-2088.96,-2500.79,8.025110903814216
0,-2094.84,-1192.06,-2107.44,-2506.29,8.030110972913164
0,-2099.45,-1200.0,-2115.47,-2513.85,8.035111042012112
0,-2103.74,-1193.12,-2113.7,-2517.14,8.040111111111067
0,-2101.46,-1185.85,-2108.92,-2511.98,8.045111180210014
0,-2095.22,-1185.9,-2101.18,-2504.79,8.050111249308962
0,-2101.92,-1195.38,-2110.44,-2506.91,8.05511131840791
0,-2106.4,-1193.59,-2096.26,-2507.88,8.060111387506865
0,-2107.82,-1188.23,-2106.66,-2507.62,8.065111456605813
0,-2110.44,-1191.54,-2110.3,-2508.33,8.07011152570476
0,-2107.14,-1183.84,-2102.18,-2511.26,8.075111594803715
0,-2105.09,-1190.75,-2105.07,-2514.34,8.080111663902663
0,-2112.14,-1195.51,-2109.14,-2518.45,8.085111733001611
0,-2111.67,-1192.47,-2112.29,-2520.86,8.090111802100559
0,-2103.2,-1190.93,-2106.32,-2519.88,8.095111871199514
0,-2104.65,-1175.71,-2094.25,-2515.88,8.100111940298461
0,-2103.26,-1185.91,-2106.9,-2517.24,8.10511200939741
0,-2103.0,-1194.21,-2106.24,-2509.11,8.110112078496357
0,-2102.96,-1184.84,-2116.84,-2510.17,8.115112147595312
0,-2103.82,-1181.43,-2109.63,-2507.49,8.12011221669426
0,-2097.44,-1182.15,-2104.0,-2503.83,8.125112285793207
0,-2095.84,-1180.22,-2086.83,-2499.69,8.130112354892155
0,-2095.8,-1178.01,-2095.24,-2500.64,8.13511242399111
0,-2091.39,-1177.21,-2099.61,-2496.1,8.140112493090058
0,-2097.22,-1178.26,-2090.21,-2494.59,8.145112562189006
0,-2090.67,-1168.7,-2092.36,-2498.17,8.15011263128796
0,-2096.84,-1181.91,-2101.16,-2508.13,8.155112700386908
0,-2099.85,-1190.6,-2108.98,-2513.12,8.160112769485856
0,-2094.9,-1176.31,-2100.43,-2505.09,8.165112838584804
0,-2096.78,-1181.44,-2112.57,-2506.55,8.170112907683759
0,-2093.94,-1185.77,-2102.74,-2511.25,8.175112976782707
0,-2088.45,-1187.87,-2092.61,-2507.63,8.180113045881654
0,-2098.06,-1191.03,-2104.28,-2510.22,8.185113114980602
0,-2098.85,-1180.81,-2098.95,-2510.23,8.190113184079557
0,-2091.51,-1183.42,-2096.56,-2510.68,8.195113253178505
0,-2081.36,-1171.01,-2075.19,-2508.0,8.200113322277453
0,-2080.07,-1167.79,-2089.41,-2504.26,8.2051133913764
0,-2089.06,-1165.25,-2093.15,-2503.83,8.210113460475355
0,-2089.82,-1174.86,-2090.29,-2510.81,8.215113529574303
0,-2089.7,-1170.95,-2104.49,-2506.02,8.220113598673251
0,-2084.87,-1174.73,-2091.31,-2512.36,8.225113667772199
0,-2089.72,-1177.47,-2104.47,-2512.3,8.230113736871154
0,-2093.11,-1174.4,-2098.05,-2500.85,8.235113805970101
0,-2086.38,-1171.58,-2087.66,-2501.94,8.24011387506905
0,-2092.62,-1173.21,-2091.45,-2509.19,8.245113944168004
0,-2088.1,-1179.06,-2083.67,-2511.93,8.250114013266952
0,-2082.17,-1178.44,-2085.79,-2509.29,8.2551140823659
0,-2074.31,-1174.19,-2089.9,-2507.11,8.260114151464848
0,-2063.82,-1159.86,-2078.75,-2499.61,8.265114220563802
0,-2055.42,-1151.17,-2079.36,-2493.23,8.27011428966275
0,-2045.62,-1139.22,-2061.88,-2491.55,8.275114358761698
0,-2026.4,-1130.23,-2054.9,-2486.96,8.280114427860646
0,-2020.21,-1123.49,-2049.68,-2484.08,8.2851144969596
0,-2021.91,-1120.23,-2042.49,-2490.32,8.290114566058548
0,-2020.21,-1117.4,-2041.94,-2489.41,8.295114635157496
0,-2021.2,-1121.25,-2051.82,-2486.08,8.300114704256444
0,-2025.27,-1121.08,-2047.1,-2487.24,8.305114773355399
0,-2031.46,-1117.21,-2050.06,-2494.05,8.310114842454347
0,-2029.08,-1118.43,-2043.74,-2490.02,8.315114911553295
0,-2038.08,-1125.42,-2056.14,-2496.81,8.320114980652242
0,-2044.97,-1129.3,-2057.68,-2499.69,8.325115049751197
0,-2053.01,-1146.07,-2070.52,-2504.48,8.330115118850145
0,-2057.39,-1150.38,-2070.96,-2503.77,8.335115187949093
0,-2066.91,-1162.54,-2072.6,-2503.35,8.340115257048048
0,-2077.81,-1162.09,-2089.9,-2506.8,8.345115326146995
0,-2087.59,-1162.61,-2091.81,-2503.21,8.350115395245943
0,-2095.37,-1183.61,-2098.97,-2507.92,8.355115464344891
0,-2091.61,-1198.94,-2104.33,-2515.14,8.360115533443846
0,-2105.73,-1200.26,-2111.42,-2512.66,8.365115602542794
0,-2119.56,-1209.21,-2117.99,-2523.94,8.370115671641742
0,-2123.28,-1206.43,-2119.03,-2523.27,8.37511574074069
0,-2127.21,-1212.6,-2124.19,-2520.27,8.380115809839644
0,-2129.95,-1210.33,-2131.63,-2519.77,8.385115878938592
0,-2120.04,-1209.77,-2117.08,-2521.7,8.39011594803754
0,-2121.89,-1203.72,-2111.57,-2513.57,8.395116017136488
0,-2115.69,-1205.41,-2107.79,-2510.28,8.400116086235442
0,-2115.28,-1194.84,-2111.67,-2506.52,8.40511615533439
0,-2109.47,-1193.53,-2111.26,-2506.75,8.410116224433338
0,-2097.31,-1191.02,-2114.65,-2513.94,8.415116293532286
0,-2096.74,-1191.06,-2102.9,-2511.58,8.42011636263124
0,-2085.73,-1180.77,-2107.84,-2503.2,8.425116431730189
0,-2071.53,-1166.74,-2092.31,-2501.59,8.430116500829136
0,-2052.18,-1152.48,-2072.59,-2495.69,8.435116569928091
0,-2042.74,-1150.08,-2058.83,-2489.56,8.440116639027039
0,-2035.61,-1138.86,-2056.52,-2493.01,8.445116708125987
0,-2014.01,-1117.85,-2047.02,-2485.44,8.450116777224935
0,-1990.0,-1107.47,-2023.17,-2475.45,8.45511684632389
0,-1975.38,-1094.42,-2019.96,-2464.72,8.460116915422837
0,-1993.85,-1097.96,-2023.14,-2468.05,8.465116984521785
0,-1999.61,-1098.09,-2014.0,-2460.69,8.470117053620733
0,-2006.71,-1103.71,-2019.14,-2462.57,8.475117122719688
0,-1994.45,-1105.1,-2031.3,-2478.35,8.480117191818636
0,-1994.8,-1100.5,-2021.45,-2469.08,8.485117260917583
0,-2004.68,-1097.25,-2024.13,-2477.34,8.490117330016531
0,-2018.76,-1127.66,-2049.96,-2475.99,8.495117399115486
0,-2006.39,-1131.81,-2044.94,-2471.43,8.500117468214434
0,-2059.43,-1145.07,-2061.71,-2486.56,8.505117537313382
0,-2049.2,-1145.37,-2051.78,-2475.93,8.510117606412336
0,-2071.48,-1173.36,-2072.77,-2479.58,8.515117675511284
0,-2069.79,-1177.86,-2097.58,-2489.5,8.520117744610232
0,-2081.3,-1183.33,-2093.99,-2498.1,8.52511781370918
0,-2094.16,-1186.92,-2093.86,-2486.64,8.530117882808135
0,-2074.43,-1179.37,-2097.11,-2491.29,8.535117951907083
0,-2044.27,-1166.38,-2075.21,-2495.27,8.54011802100603
0,-2133.81,-1175.41,-2097.45,-2492.2,8.545118090104978
0,-2109.9,-1191.87,-2098.4,-2499.14,8.550118159203933
0,-2125.87,-1195.02,-2103.41,-2496.34,8.55511822830288
0,-2114.66,-1195.97,-2104.05,-2501.64,8.560118297401829
0,-2115.05,-1186.46,-2109.95,-2505.39,8.565118366500776
0,-2112.86,-1188.75,-2104.46,-2500.73,8.570118435599731
0,-2112.88,-1187.83,-2104.1,-2506.87,8.575118504698679
0,-2106.18,-1187.86,-2106.99,-2517.69,8.580118573797627
0,-2112.67,-1190.4,-2100.86,-2517.98,8.585118642896575
0,-2100.18,-1187.56,-2096.34,-2516.73,8.59011871199553
0,-2108.4,-1187.04,-2099.78,-2513.22,8.595118781094477
0,-2096.63,-1186.24,-2102.08,-2517.35,8.600118850193425
0,-2088.7,-1184.85,-2104.86,-2511.33,8.60511891929238
0,-2104.78,-1186.25,-2099.89,-2515.6,8.610118988391328
0,-2106.32,-1179.31,-2101.34,-2508.63,8.615119057490276
0,-2091.72,-1174.46,-2108.05,-2509.85,8.620119126589223
0,-2102.18,-1175.45,-2097.78,-2507.72,8.625119195688178
0,-2069.89,-1166.45,-2078.89,-2498.51,8.630119264787126
0,-2075.62,-1165.07,-2077.92,-2505.5,8.635119333886074
0,-2103.02,-1179.9,-2101.75,-2505.6,8.640119402985022
0,-2101.78,-1176.21,-2098.55,-2507.56,8.645119472083977
0,-2086.91,-1171.95,-2096.39,-2498.27,8.650119541182924
0,-2093.04,-1168.78,-2089.02,-2511.05,8.655119610281872
0,-2093.45,-1178.31,-2094.04,-2513.74,8.66011967938082
