labels,F4,F3,Fz,Cz,timestamps
0,0.1278530819807127,-10.214367866820876,-5.606916702207021,1.5392714923908024,-2.0001750506725138
0,-7.091709280207164,-15.284764397757925,-5.2657998491224,-0.6212017804513463,-1.9951746130458332
0,-2.391272162114143,-10.825162751820454,-2.474683794250878,0.9683242178428835,-1.9901741754191526
0,-6.59083556348183,-7.685562933667298,-6.423568541005032,0.7478494884092101,-1.9851737377924685
0,-4.760399483602426,4.64403505303147,-5.322454092357128,-4.422625967637518,-1.980173300165788
0,-0.47996392130788684,-2.196368794856152,2.1386595491664107,2.6868978508617367,-1.9751728625391074
0,1.720471124920693,-2.846774480308823,-2.2602276186349286,3.3164209451178346,-1.9701724249124268
0,2.440905656718714,-1.9171820062094067,-0.12911559781450646,-1.8340566837229306,-1.9651719872857463
0,5.161339675608129,-4.037591375240624,-2.818004390342759,1.015464965364549,-1.9601715496590622
0,8.85177318280326,9.261997410109357,4.633106001897409,7.734985893303424,-1.9551711120323816
0,0.27220617904381755,6.771584347297329,2.484215577014331,5.794506100780603,-1.950170674405701
0,7.132638664554332,2.9211694333689473,3.9553243329318297,11.054025587978465,-1.9451702367790205
0,4.543070639101479,11.940752664777643,8.566432267239163,10.943544354337357,-1.94016979915234
0,7.753502101973404,18.810334037243706,9.457539377026617,7.663062398392477,-1.9351693615256558
0,7.093933051883995,0.79991354547574,9.288645658673065,7.53257971774235,-1.9301689238989752
0,2.614363486922392,6.5494911831275004,3.279751107731938,-0.7379036908071653,-1.9251684862722946
0,4.0347934046126515,2.2990669431190836,6.970855719014616,4.421612169012418,-1.920168048645614
0,6.455222802027205,3.9786408179173134,7.6619594867105665,2.621127293142865,-1.9151676110189335
0,4.055651675801041,-3.8717872003325993,5.063062404402709,-1.8393583227161425,-1.9101671733922494
0,3.1160800221026834,1.3377828803592358,2.39416446506485,-1.389844683010563,-1.9051667357655688
0,6.776507836652291,9.137351051925233,11.705265661128795,2.429668207809121,-1.9001662981388883
0,8.466935114702585,1.9369173060846951,8.64636598442825,8.389180345261789,-1.8951658605122077
0,6.457361850912299,3.046481634148126,5.6474654260392985,6.018691724581676,-1.8901654228855271
0,9.987788039228562,0.616044027047003,5.348563976249634,5.738202340464365,-1.885164985258843
0,11.898213672799718,0.5056044754806233,4.469661624702141,1.397712187018258,-1.8801645476321625
0,4.818638743881476,3.8251629700043206,8.700758360493106,7.537221257864569,-1.8751641100054819
0,5.849063243859722,7.774719500980348,7.731854172130842,10.156729546151666,-1.8701636723788013
0,0.3294871634488101,-1.1657259415663557,7.292949047432413,3.9662370444121566,-1.8651632347521172
0,-0.4000895070460794,1.1638266320297435,0.6940429735104772,-0.44425625547827885,-1.8601627971254366
0,-3.069666777474192,6.9633772111937144,2.3951359369406777,0.8352496379236367,-1.855162359498756
0,2.520755342344622,4.152925785094102,1.8362279239769146,0.8447547158935169,-1.8501619218720755
0,-1.488823157341798,-6.80752765743594,0.12731892068034084,1.524258969633274,-1.845161484245395
0,-0.6384022862598508,-2.1079831277127377,-1.7015910870114164,-0.21623760973948647,-1.8401610466187108
0,-4.667982054080411,0.6815593630998166,0.16949788681632438,-4.896735031153386,-1.8351606089920303
0,0.9624375296773916,-4.8989001959319864,-3.0494141718590315,-2.1872333034388634,-1.8301601713653497
0,-7.517143544287969,-6.04936181551739,-3.458327276931786,2.1722675647885303,-1.8251597337386691
0,-2.636725284996801,-5.189825506011708,-4.41724144206569,-0.268232434937553,-1.8201592961119886
0,2.1136922988625946,-0.0302912773074461,-2.2761566806037017,-2.1087333110603517,-1.8151588584853044
0,4.1641091987970915,9.059240861015107,1.7549269944175274,-3.029235071983131,-1.8101584208586239
0,-0.5854745937506032,2.368770899304957,3.3360095701136343,-0.009737725964950095,-1.8051579832319433
0,1.8549409124770073,-0.7117011724408758,1.547091033526187,-4.220241281075336,-1.8001575456052628
0,-1.4846442913900473,-12.152175364441023,-2.9618286284733264,-0.40074574519161643,-1.7951571079785822
0,-5.314230214233943,-5.172651686673299,-3.720749429068979,-2.08125112599586,-1.790156670351898
0,-2.7338168647771033,-0.22313014854168256,-2.8996713812834485,0.8782425689926687,-1.7851562327252175
0,0.5965957485390879,-0.6536107589514315,-2.7585944978556465,2.8977353323271755,-1.780155795098537
0,2.6870076174820046,5.1459064733851205,3.5524812087378685,5.477227156477968,-1.7751553574718564
0,1.3174187338214387,-3.4545784602884115,-4.376444273846905,1.3267180336593576,-1.7701549198451758
0,-3.072170910781374,2.384934431171145,-4.905370957862731,-2.4537920442077485,-1.7651544822184917
0,-3.051761324689624,-1.20555486113914,-7.144298855308138,-5.544303085308378,-1.7601540445918111
0,2.668647483855942,-4.356046346100962,-0.13322797774349215,-7.854815097620777,-1.7551536069651306
0,3.0290555067086946,7.663459967470896,-0.3421583363158287,-2.7853280886607,-1.75015316933845
0,-5.770537264320076,5.842964070713151,-1.1610899419492975,-7.555842065393242,-1.7451527317117694
0,0.8198691625577893,-8.05753404549742,-2.3100228054669234,-3.866357034249141,-1.7401522940850853
0,-5.929725220730559,-1.3280343904529013,-6.52895693754154,-1.4768730011643607,-1.7351518564584048
0,-5.649320421988742,-2.018536973295561,-6.447892348535611,-4.227389971670946,-1.7301514188317242
0,-0.8289164486450094,-1.9290418028975642,2.3831709516340878,3.9120920489722852,-1.7251509812050436
0,1.8714866922260995,8.5304511120192,2.434232953385408,4.231573055599396,-1.720150543578363
0,2.8818889936921317,6.8599417626107275,5.705293647154183,1.9610530428984903,-1.715150105951679
0,3.6022904487130276,6.3294301395755355,6.066353023089723,7.450532005240473,-1.7101496683249984
0,2.4526910500022954,8.96891623295634,3.44741107089267,5.480009936582964,-1.7051492306983178
0,5.723090789963935,4.748400032098932,4.76846777977421,9.20948683034834,-1.7001487930716372
0,2.903489660651406,6.6978815256685955,3.8095231384976223,8.408962679289994,-1.6951483554449567
0,-5.1761123462132,-9.412639298205423,-2.539422864545816,0.7784374754365686,-1.6901479178182726
0,-0.8457152390353619,-2.4731624515640473,-5.28837024114638,2.587911210217197,-1.685147480191592
0,-1.6053190261078027,-2.7936879462201216,-5.277319002962921,-3.932616125267373,-1.6801470425649114
0,-4.024923715520065,-2.24421579362509,-2.1362691612816995,-6.4031445399462825,-1.6751466049382309
0,-3.974529315128936,-12.19474600488227,-7.585220726953111,-7.683674042470114,-1.6701461673115503
0,-6.554135832462356,-6.945278590590689,-8.78417371035091,-9.38420464093126,-1.6651457296848662
0,-3.8337432746133464,-5.315813560630646,0.8568718787226608,-5.404736342700148,-1.6601452920581856
0,2.006648351767375,-2.3363509241746083,-0.8920839690340023,-5.005269154416229,-1.655144854431505
0,-6.6729609596554145,-8.566890689848291,-4.721041262641509,-1.0758030821177607,-1.6501444168048245
0,-1.6825712149841987,-7.417432865766805,-2.950000010922958,-3.5663381314235285,-1.645143979178144
0,-0.3821824200599009,-5.507977459428257,-2.908960222422945,-2.3068743076573224,-1.6401435415514598
0,-2.771794580485472,2.54147552228094,0.3320780946109155,-1.0174116158936168,-1.6351431039247792
0,2.138592298285685,1.2109260728393014,3.563114932108539,2.712049938979038,-1.6301426662980987
0,4.888978210839637,2.2103741857691572,5.664150281955005,4.881510352091398,-1.625142228671418
0,9.129363151579835,1.619819854456407,10.745184135711325,7.370969618350198,-1.6201417910447375
0,3.5797471144509814,6.41926307208272,8.776216484326746,2.440427732229672,-1.6151413534180534
0,1.3101300928376616,5.338703831520376,6.52724731794768,7.009884687697304,-1.6101409157913729
0,5.060512079678779,8.818142125170805,8.968276625887428,3.5593404782298186,-1.6051404781646923
0,8.000893067550216,6.1675779448218915,5.879304396689247,1.28879509684908,-1.6001400405380117
0,2.1712730485819693,-3.032988718361389,-0.6096693817841965,1.2582485362222937,-1.5951396029113312
0,-4.328347985546326,-2.4335578735979917,-7.858644722080087,-0.7822992111856253,-1.590139165284647
0,1.4120299566368582,-7.524129530094879,1.9523783632592442,2.457151846995306,-1.5851387276579665
0,-6.8775931333333356,-6.214703696712763,-4.576600138063262,1.3066017030573684,-1.580138290031286
0,-4.467217263685372,-7.975280381759962,-2.58558023809354,1.1260503491757978,-1.5751378524046054
0,-7.046842442254305,-2.115859592912474,-2.704561948629779,3.8854977773719557,-1.5701374147779248
0,-0.7764686763754385,2.3635586626792993,-2.603545281195546,-0.07505602051486826,-1.5651369771512407
0,-10.076095972896573,-7.197025621839323,-10.662530246995445,-4.5556110527931475,-1.56013653952456
0,-5.2057243381610325,5.75238754683068,-2.4515168567832157,-3.7261673277364498,-1.5551361018978795
0,-5.625353777921379,10.521798162002353,2.069494879203395,-1.1767248533758483,-1.550135664271199
0,0.9050157026420746,7.951206216635254,5.3205049510097835,3.12271636251471,-1.5451352266445184
0,2.6453840987036714,-0.2293882969841205,0.0015133486000638574,-1.0078436877471546,-1.5401347890178343
0,5.365751405476712,2.270014612840729,1.9425200616971712,-2.8784050118644773,-1.5351343513911537
0,5.846117617924012,-1.040585062492038,4.553525079806727,-1.0189676174960602,-1.5301339137644732
0,4.886482730569949,15.058812668224048,6.394528392180372,7.100468487791543,-1.5251334761377926
0,6.596846737419941,9.898207795752146,5.805529987666666,-6.660096703587123,-1.5201330385111085
0,-1.1727903680280358,-11.232399689855352,-8.283470145335382,-6.660663199231804,-1.515132600884428
0,-9.18242859258727,-8.963009798940377,-11.342472018549545,-2.7212310064868976,-1.5101321632577474
0,-9.522067942936435,-6.7136225415076565,-9.521475643243933,-5.471800132234978,-1.5051317256310668
0,-3.1717084251798178,2.3557620731274853,-2.940481029855272,-6.722370582882259,-1.5001312880043862
0,-2.8513500447482745,-1.74485596386484,-2.949488188058537,-7.332942364319947,-1.495130850377702
0,-2.4809928065846387,2.1745233388465257,1.2715028729463,-8.10351548181593,-1.4901304127510215
0,-1.2806367153236724,-1.6461000274027011,-0.10750785583549732,-5.214089939944132,-1.485129975124341
0,0.019718224609913543,0.6332739287079271,0.3334796166470229,2.645334257347885,-1.4801295374976604
0,-4.229927991058525,-3.9573548014746884,-1.7255347185642878,2.5447571064650854,-1.4751290998709798
0,3.1004246335255665,1.1920137734893936,-0.8745508703956547,-1.985821396157733,-1.4701286622442957
0,1.8407760942926723,-3.18862035483055,0.04643115230286898,3.4835987458157387,-1.4651282246176152
0,2.381126387102879,2.260742805247812,3.217411340731582,6.673017528590773,-1.4601277869909346
0,3.7214755076188726,4.2801032454370045,2.5283896860281474,11.942434948043099,-1.455127349364254
0,3.3418234512416,1.019460957327119,2.4793661791402877,4.211850999415427,-1.4501269117375735
0,2.052170213073251,0.14881593229044268,2.6703408107665174,4.741265677199134,-1.4451264741108893
0,-3.717484212038734,-13.00183183838045,-6.718686428587856,0.8806789752794487,-1.4401260364842088
0,-0.03713982933484877,-10.242482363070293,-6.497715548390161,1.7300908871611287,-1.4351255988575282
0,-3.376796643969397,-7.923135649401066,-4.486746557756321,-6.030498593829735,-1.4301251612308477
0,-2.536454660918509,-11.703791704040377,-6.005779465269814,2.9089105256486056,-1.425124723604167
0,1.4238861150406477,-2.774450532736644,-1.104814279000138,2.6283182390238062,-1.420124285977483
0,1.5942256792618126,-0.585112140483543,-2.6538510066057985,-5.542275460276656,-1.4151238483508024
0,-2.4254359728943644,0.6442234681695144,-2.252889655451716,-7.082870578777342,-1.4101234107241218
0,0.60490115391013,-5.186443711150256,0.028069767312465146,-4.733467122680769,-1.4051229730974413
0,3.7652370550170984,4.802886317288648,3.4490272546682608,-1.3040650976885637,-1.4001225354707607
0,1.0455717256969659,-4.037786450697094,-2.930017200398573,0.30533549090666523,-1.3951220978440766
0,-7.694094838895317,-12.508462019169476,-2.569063604929248,-3.085265361970284,-1.390121660217396
0,-4.773762643522486,-6.959140391781475,-2.698111965862189,0.4541323387271527,-1.3851212225907155
0,0.8865683073964696,-6.729821571449521,0.05283771007431384,-1.4564714118434248,-1.380120784964035
0,-6.183101990185227,-3.6405055603206433,-8.716214583618372,-5.9570766183960275,-1.3751203473373543
0,-1.6027735400249814,-5.991192359925334,-8.215268853096768,-0.12768328543787139,-1.3701199097106702
0,-1.8124463455950042,-1.1418819713019523,-4.444325103957226,1.1717085827700955,-1.3651194720839896
0,-0.512120410118231,-6.442574395073152,-5.163383341142864,2.4710989820819695,-1.360119034457309
0,-4.651795736632668,-14.623269631406203,-10.462443568994141,-6.959512091669411,-1.3551185968306285
0,-8.831472327936513,-9.503967679754552,-9.42150579119102,-1.1301246425928382,-1.350118159203948
0,-15.781150186325,-10.57466853857807,-11.410570010579796,-7.890738674534666,-1.3451177215772638
0,-14.370829313180801,-14.365372205248784,-18.489636228986914,-7.711354190906383,-1.3401172839505833
0,-12.500509708641271,-6.676078676041807,-11.508704447006187,-3.9619711945494913,-1.3351168463239027
0,-8.230191371526743,-10.476787946165608,-4.547774663915818,-1.5625896877187244,-1.3301164086972221
0,-4.6898742995252025,-11.737500009844137,-3.7468468779179913,-10.183209672188264,-1.3251159710705416
0,-0.839558489512882,-7.438214860337397,-5.935921086529772,-2.963831149265693,-1.3201155334438575
0,-1.2892439378903684,3.2010675099810113,-1.4749972867961096,-2.0444541197398736,-1.315115095817177
0,-4.28893064080545,-1.869652890708069,1.1759245246015464,-0.9950785839780245,-1.3101146581904963
0,2.931381405776895,7.869623945909522,5.556844351141012,5.704295457850979,-1.3051142205638158
0,4.131692205987821,16.468898027891818,3.9577621961693037,6.173668005505936,-1.3001137829371352
0,1.282001763856477,5.928169362598003,5.878678062679855,10.473039058359872,-1.295113345310451
0,1.0723100831763819,0.7974379564567222,2.009591953222239,9.632408615113722,-1.2901129076837705
0,-5.4073828324159114,-4.633296184760766,-0.7294961300426202,0.36177667366403066,-1.28511247005709
0,-4.517076979221235,3.3059669445361353,4.571413814795754,-1.0288567687396655,-1.2801120324304094
0,-2.326772353252209,8.725227349918196,0.11232178947688115,-7.4894917150887625,-1.2751115948037288
0,-4.406468950147911,2.65448503671446,-4.276772204397303,-9.27012816816569,-1.2701111571770447
0,-6.476166765172657,-3.0262599901630116,-10.215868165169912,-5.690766130196039,-1.2651107195503641
0,-8.38586579313672,0.91299227393623,-8.704966090756464,-8.231405602689438,-1.2601102819236836
0,-5.505566028255134,-7.267758166322287,-9.494065978325247,-6.072046586438879,-1.255109844297003
0,-9.455267464060222,-13.28851130599114,-10.52316782415745,-9.792689081534165,-1.2501094066703224
0,-12.074970093335368,-10.16926713947582,-9.90227162359652,-9.663333087310889,-1.2451089690436383
0,-10.214673907977806,-2.790025660260281,-7.311377371031904,-8.343978602262798,-1.2401085314169578
0,-6.334378898892048,8.329213138928182,0.029514940000815004,-4.604625624024013,-1.2351080937902772
0,-2.2340850560905037,-5.801550734374898,0.9104053165328982,-0.4552741495140159,-1.2301076561635966
0,1.97620763101077,0.06768272733258252,5.341293765777018,4.604075824761024,-1.225107218536916
0,3.1764991732262384,0.4169135315745176,4.362180294799648,6.88342430232046,-1.220106780910232
0,13.80678958122964,5.656141685918317,13.353064910263527,14.262771286300092,-1.2151063432835514
0,5.587078865174286,3.1553671977930007,10.263947618148102,10.592116779063161,-1.2101059056568708
0,4.677367034454783,3.3945900743127937,5.024828423525919,1.3214607819902673,-1.2051054680301903
0,8.937654097737731,2.7138103222371894,5.595707330585929,5.800803295618311,-1.2001050304035061
0,8.857940063027433,3.4130279480034655,9.156584342810472,5.710144319915164,-1.1951045927768256
0,6.898224937596356,-1.897757042223401,2.757459463053034,0.6694838543969818,-1.190104155150145
0,-2.1114912720087107,3.741455357533221,0.3483326935967803,1.538821898196351,-1.1851037175234644
0,-5.571208559676836,-4.319334846844866,-6.81079596360119,-3.3718415497698833,-1.1801032798967839
0,-5.140926919275916,-6.7701276494407185,-6.479926506512226,-0.9225064906044559,-1.1751028422700998
0,1.0493536556589145,-3.1309230440754683,-4.489058932700035,-3.953172925281934,-1.1701024046434192
0,-0.9403668280915181,-5.481721024130704,-3.4781932391987356,-3.953840854550106,-1.1651019670167386
0,2.239911636383723,7.947478417402552,2.5026705773937525,-1.0945102788664156,-1.160101529390058
0,-2.7998109440015178,5.276675287625163,-0.8564674793037184,-3.10518119839644,-1.1551010917633775
0,-2.029534562318963,-3.1141304066089766,-1.6156074056195378,-1.5558536130603202,-1.1501006541366934
0,-3.259259211516874,-5.944938658687056,-2.7947491978339367,-4.1165275225511175,-1.1451002165100128
0,-3.9189848843118384,-4.435749461887452,-3.81389285207316,-4.587202926294578,-1.1400997788833322
0,6.20128842682319,7.493437190834394,-3.9330383641981537,2.4321201765876115,-1.1350993412566517
0,1.21156072949102,4.282621306640536,1.1578142702364154,-4.46855821278097,-1.1300989036299711
0,-6.3781679688075785,-1.328197107532906,-1.5013349440909702,-6.259238093081913,-1.125098466003287
0,-5.457897660553689,-0.44901804502632237,-0.020486002387502422,-1.3899194627039564,-1.1200980283766064
0,0.6023716620656401,-6.869841499228966,-4.449638899782707,0.2693976803190078,-1.1150975907499259
0,-1.277359992795775,-4.7606674633110675,-0.7187936312625214,0.5587133381735079,-1.1100971531232453
0,5.262907383164398,8.308504069892177,3.3820498083561232,2.798027513077575,-1.1050967154965647
0,7.283173798141792,12.4176731076117,8.482891424255177,2.327340207148417,-1.1000962778698806
0,5.873439259953211,-0.5631603433656571,0.46373122133045086,0.9866514223231115,-1.0950958402432
0,10.573703775822459,5.4660037230994245,6.934569204035624,-1.014038839635699,-1.0900954026165195
0,3.753967352268905,0.67516531267743,1.105405376405449,-0.28473057704867566,-1.085094964989839
0,-4.165770004828195,0.04432443076031212,-1.073760257862825,-1.4254237882220016,-1.0800945273631584
0,-2.655508289901677,-3.4265189173945223,-4.882927695228334,1.5838815285922658,-1.0750940897364742
0,0.5947525026720836,-4.267364726471808,-3.3220969320405582,-5.306814624799024,-1.0700936521097937
0,3.1450123786593185,-1.5382129909228177,2.8087320356127536,1.60248775350908,-1.0650932144831131
0,-0.8147286561766613,9.070936295022651,2.8095592118050594,-2.0882113344408477,-1.0600927768564326
0,2.035529403820715,-5.639916862871302,-1.5896153994409365,-1.2989118864864242,-1.055092339229752
0,-1.1242134357848301,-7.740772458923542,-7.368791794170116,-3.689613900341586,-1.0500919016030679
0,-4.833957169445701,-9.531630487211803,-11.817969968202858,-8.240317373491736,-1.0450914639763873
0,-5.013701791470366,-3.862490941194011,-0.6271499167777767,-11.941022302969765,-1.0400910263497067
0,-2.923447295835994,-5.693353813627747,-5.5563316344632305,-8.671728685066213,-1.0350905887230262
0,-8.923193676085756,-5.434219096678789,-4.4355151153101335,-4.502436515173727,-1.0300901510963456
0,-0.012940925287644622,-6.295086781982089,-3.834700352945916,-4.293145787891431,-1.0250897134696615
0,1.1773109639110262,-0.8259568606535017,-3.1138873405880765,1.9361435027226563,-1.020089275842981
0,4.217561999044666,5.013170676577353,6.006923928870417,2.3854313628680974,-1.0150888382163004
0,2.5278121875408908,12.72229583899834,7.3877334625777635,2.174717798734359,-1.0100884005896198
0,-1.401938463408448,7.251418635418009,1.8785412673715443,1.9240028163380842,-1.0050879629629392
0,0.8483100532155545,-0.7294609261084246,6.7193473496042575,-1.1467135784932685,-1.0000875253362551
0,5.658557744340303,-10.850342838047204,-0.13984828481801514,-2.097431380029307,-0.9950870877095745
0,3.83880461672031,-3.3812270928076313,1.8609543696644484,-2.1281505824938227,-0.990086650082894
0,3.069050676778509,8.887886317599811,5.291755318366381,0.5711288200305854,-0.9850862124562134
0,-1.1007040694125239,8.4969974012883,5.9725545663309285,2.2704068335693597,-0.9800857748295329
0,-3.2604596159743116,-10.273893833949657,-1.0366478817757656,-4.710316535834909,-0.9750853372028487
0,-12.220215956932734,-12.974787380498682,-10.475852021557742,-10.661041282043932,-0.9700848995761682
0,-7.199973085844325,-4.155683230287403,-5.4250578484689,-2.6317673985304366,-0.9650844619494876
0,-2.1797309955452153,-3.7365813744487086,-6.184265357423444,-1.3124948782048262,-0.960084024322807
0,-15.179489678144577,-15.527481803399091,-10.423474542660985,-6.293223713522733,-0.9550835866961265
0,-11.279249124984752,-3.718384506837763,-5.032685397714927,-4.423953896582697,-0.9500831490694424
0,-0.3290093264801062,-0.16928947368903957,-1.5018979154243177,-6.564685419057665,-0.9450827114427618
0,1.6012297277489753,12.829803307585582,5.34888791185376,3.024581727843702,-0.9400822738160812
0,1.601468048411793,12.258893848328904,4.389672091845132,1.8638475532135719,-0.9350818361894007
0,2.9217056461793374,7.127982159099681,6.54045463199967,0.7531120661704789,-0.9300813985627201
0,1.731942531545723,0.3770682495218215,-3.8887644606480367,-4.837624724257724,-0.925080960936036
0,-0.8878212851882612,-7.0138478713843355,-2.6679851793326055,-1.2383628090091423,-0.9200805233093554
0,4.312414206130597,-6.074766194652599,-5.117207517234694,2.2908978211413658,-0.9150800856826748
0,8.132649015472593,-2.545686710950089,3.0735685327218167,1.8601571755102717,-0.9100796480559943
0,8.112883152414797,10.17339058944698,3.0543429777958995,2.9094152633269585,-0.9050792104293137
0,4.573116625911838,5.39246571626528,9.095115825145001,4.5186720936062414,-0.9000787728026296
0,2.86334944426874,7.011538678785073,2.9058870815325686,6.2779276750491775,-0.895078335175949
0,-0.46641838469000974,0.16060948568526234,2.5266567532102746,2.457182015941722,-0.8900778975492685
0,2.7638131465883515,6.819678145150013,-1.0525751539712962,4.806435124123675,-0.8850774599225879
0,4.874044045479882,9.748744664928731,4.098191365620303,4.305687007021416,-0.8800770222959073
0,-7.895725680816636,-9.712190947702796,-5.48104368248921,-7.405062328272099,-0.8750765846692232
0,-2.73549602513729,-6.05312868571922,-4.510280292753504,-4.095812874747874,-0.8700761470425427
0,1.1047330198954768,-4.264068541845855,-3.8195184593855322,-7.006564625118214,-0.8650757094158621
0,-4.745038538076053,1.884989491683156,2.7512418237510707,-4.647317571592702,-0.8600752717891815
0,8.095189308730372,17.364045422843947,3.012000562989838,3.891928294109271,-0.8550748341624974
0,0.42541656806072914,10.283099259198899,1.812757764600458,3.2511729805190845,-0.8500743965358168
0,4.915643247433347,1.1321510073989893,3.5735134346322814,7.260416496058415,-0.8450739589091363
0,7.705869354017187,7.751200673210548,5.674267578858219,9.859658848726855,-0.8400735212824557
0,14.356094894465611,12.96024826173492,12.89502020263853,12.868900045837437,-0.8350730836557752
0,11.036319874612422,5.599293777349897,13.185771310636284,12.148140093759146,-0.830072646029091
0,12.726544299202976,7.68833722358162,14.63652090647403,13.977378997725562,-0.8250722084024105
0,7.216768171828965,9.707378603141995,14.917268992493717,10.136616761751084,-0.8200717707757299
0,4.486991495057833,8.726417917957932,9.098015569687872,5.915853388682415,-0.8150713331490493
0,10.107214270645677,2.2854551691535705,11.488760637773737,8.355088880386795,-0.8100708955223688
0,7.557436499639737,8.974490357140898,3.399504195383529,2.8243232379626795,-0.8050704578956847
0,3.7376581823571313,10.283523481695648,3.180246240315303,3.123556461909787,-0.8000700202690041
0,7.027879318431916,17.962554541797058,11.430986769760652,5.502788552275621,-0.7950695826423235
0,-1.8019000930432245,-0.21841646461957473,1.0817257803582965,0.3420195087378229,-0.790069145015643
0,5.178319946641477,-3.8593895405515797,1.5624632681954767,-2.2087506693150627,-0.7850687073889624
0,3.9085394359192844,-3.000364689375891,-1.7768007710064464,1.8404780173825233,-0.7800682697622783
0,6.618758372898934,-0.21134191435836205,3.8439336583415615,-0.8602944319045609,-0.7750678321355977
0,2.7289767552541315,3.507678781423964,3.0546665517367178,-2.1310680178930674,-0.7700673945089171
0,-3.7308054197544434,-0.9133026050816718,-1.8146020954939917,-4.581842741219903,-0.7650669568822366
0,-6.820588155017774,-2.1142860769973018,-3.4838722881533832,-1.2126186023154089,-0.760066519255556
0,-4.220371453205057,-10.5052716373805,-9.303144030931993,-3.263395601336067,-0.7550660816288719
0,-7.570155316514564,-1.2762592889473285,-5.392417328110346,-0.844173738184835,-0.7500656440021913
0,-1.689939746605986,7.58275096601215,0.7283078165945366,0.8050469874275547,-0.7450652063755108
0,1.7102752553126206,-5.818240874625988,0.2790313998899876,2.1042665758756827,-0.7400647687488302
0,-0.5595103117340816,-5.629234812991921,0.2897534186383619,2.023485027481553,-0.7350643311221496
0,6.820703551275942,-5.060230851012244,-4.669526130274073,1.0927023424199438,-0.7300638934954655
0,-0.9890831568059258,3.5387710097895515,-4.298807249842226,-0.9680814792851619,-0.725063455868785
0,0.6411295626451401,-3.592229231817346,-3.408089942773005,-0.6488664376842559,-0.7200630182421044
0,-2.438658291872392,-9.193231576891748,-3.257374211401987,-1.2796525328078139,-0.7150625806154238
0,-10.558446721777925,-6.574236026153028,-7.316660057683344,-10.240439764552157,-0.7100621429887433
0,-3.498235728133366,4.734757420212796,-6.34594748312603,-5.161228132464376,-0.7050617053620591
0,-11.57802531140253,0.2537487623885837,-8.125236488669138,-9.57201763549843,-0.7000612677353786
0,-2.617815471352473,4.3527380005673075,-4.554527074594284,-2.8528082719120893,-0.695060830108698
0,-0.5876062071102599,-0.9682748652419925,-1.4938192405690736,0.12639996064325526,-0.6900603924820174
0,-2.5773975173744765,-0.6292898351973588,-6.293112985781587,-4.25439293509224,-0.6850599548553369
0,2.6728105993592925,-2.720306909497221,-2.4724083090380167,-3.5051869561303253,-0.6800595172286528
0,1.7730181446434157,-2.291326088239443,2.2382947911974123,2.6140179007563824,-0.6750590796019722
0,11.543225119885314,1.0976526286477675,6.058996316619616,0.7232216389580663,-0.6700586419752916
0,8.653431526044745,4.15662924133787,8.829696268740387,1.9824242618510324,-0.6650582043486111
0,1.7836373633788403,8.425603749883917,9.530394648539003,4.431625772667558,-0.6600577667219305
0,5.273842631461482,8.174576153919674,10.561091456210603,2.3808261744115904,-0.6550573290952464
0,4.204047329365934,15.163546452371724,9.361786691041033,5.350025469781956,-0.6500568914685658
0,7.574251455727673,13.602514643185568,10.712480351346938,4.92922366111024,-0.6450564538418853
0,11.724455008634889,9.221480723114716,9.853172434469858,7.068420750284558,-0.6400560162152047
0,10.924657985411043,3.7304446877498627,11.073862936759658,5.83761673866052,-0.6350555785885241
0,7.924860382428223,-2.510593468154533,4.164551853592294,4.696811627012152,-0.63005514096184
0,-1.4749378048563202,5.278366249741604,2.665239179516787,6.82600541554219,-0.6250547033351594
0,-2.404736581562958,-11.002676164338798,-5.584075091428643,-3.0148018960512886,-0.6200542657084789
0,4.255464047016424,-6.923720716016949,1.2266090346538732,-0.495610308393,-0.6150538280817983
0,0.7856640755564043,-5.424767410423614,-1.0227084482456865,1.923580177807967,-0.6100533904551177
0,-6.124136501338142,-1.1058162520620725,-4.152027546014091,1.6027695618358933,-0.6050529528284336
0,-3.8839376890072925,-1.0768672449686925,0.9686517356001794,2.7119578428796918,-0.6000525152017531
0,-6.233739492479137,4.63207960703323,-0.38067060900334654,0.7911450199550287,-0.5950520775750725
0,-3.013541916326923,-8.498975699841528,-3.5799945853236133,-7.589668908045297,-0.5900516399483919
0,-12.243344964615153,-26.140033169148186,-15.799320198660318,-11.100483942080773,-0.5850512023217114
0,-9.573148640766927,-17.711092803493763,-14.138647453707016,-12.751300082521471,-0.5800507646950273
0,1.827047052575792,-8.492154603868029,-8.257976354096858,-5.692117328806776,-0.5750503270683467
0,-9.782757886548293,-4.583218569691234,-11.07730690227137,-8.842935679401334,-0.5700498894416661
0,-5.8625634595858775,-9.664284699312375,-5.276639099628235,-5.123755131937191,-0.5650494518149856
0,-3.0223696674501204,0.7246470096324207,-0.685972946740461,-3.734575683359638,-0.560049014188305
0,1.1778234894524153,-9.42642343993659,-5.945308443615136,-3.735397330063111,-0.5550485765616209
0,2.5180160109844456,4.812503955337671,-2.8746455898758345,1.8937799319524329,-0.5500481389349403
0,-4.731792102958275,-2.9785708009012786,-6.023984384775001,-6.657043893059979,-0.5450477013082597
0,-1.351600852457914,-7.329647704843406,-5.8933248271261895,-1.5978688006309336,-0.5400472636815792
0,-0.9814102374538806,-11.360726752382023,-1.4026669152666247,1.581305213958045,-0.5350468260548986
0,-0.5312202577092502,-7.921807938774398,-1.5120106471089263,-1.1295218443972426,-0.5300463884282145
0,5.908969087087232,2.1571087415131482,3.5286439796788205,-0.5103499707486898,-0.5250459508015339
0,2.1191577971425533,5.176023294541423,2.7392969674531082,-0.7211791601189039,-0.5200455131748534
0,-2.7106541275691844,-0.36506427356952803,-1.110051681574277,-6.412009407437388,-0.5150450755481728
0,0.7795333127694066,5.653846043081463,5.980598034623545,-6.232840707393873,-0.5100446379214887
0,5.219720117936767,0.18275425013087065,0.40124611787596665,-4.103673054246446,-0.5050442002948081
0,4.069906287583091,-11.018339646951263,-5.058107430173523,-0.474506441762153,-0.5000437626681276
0,2.5500918210523897,-10.899435642502569,-4.407462607884213,-2.7053408633393072,-0.495043325041447
0,2.4602767173297058,-0.0705337302309933,3.7931805866051604,-3.7361763121323595,-0.4900428874147664
0,0.4804609751135536,-2.491633903162201,-2.156177844638837,-4.807012781040157,-0.4850424497880823
0,2.4906445928995407,0.7072638460694418,-3.1555378994807506,5.552149737326967,-0.48004201216140174
0,-6.109172430934496,-4.793840474999241,-11.124899575626154,-7.648688749446943,-0.4750415745347212
0,-4.388990097951262,4.575053141292668,-5.06426287033379,-6.3395282336159475,-0.4700411369080406
0,-0.16880840944766562,-5.6860552972978935,-1.8336277802331233,4.059631292868993,-0.46504069928136005
0,-5.418627366388283,-6.32716578289138,-2.18299430141915,1.5687898383325256,-0.46004026165467593
0,-3.0084469694380145,-6.788278307287204,1.7676375703129599,-0.9120525888806672,-0.45503982402799537
0,-2.058267218946797,1.4306071382131402,-0.9217321607135276,1.6271040194688142,-0.4500393864013148
0,-11.758088114899513,-6.1705094372523135,-5.181103490123473,4.196259671525609,-0.44503894877463424
0,-11.517909656743903,-4.651628024215338,-4.350476413382753,1.015414375279177,-0.44003851114795367
0,-10.297731843086638,-9.992748612801607,-10.959850925584464,-3.405431861472334,-0.43503807352126955
0,-13.037554671484,-4.083871192557121,-10.29922702120298,-1.346279030988842,-0.430037635894589
0,1.0926218615463508,-1.6049957524029295,-3.228604693901687,8.392872874525505,-0.4250371982679084
0,-7.60720223969626,-8.306122280749634,-10.907983936531497,-3.5679761371901217,-0.42003676064122786
0,-6.467026970347662,-4.447250765559317,-3.0973647412219885,2.391173941422671,-0.4150363230145473
0,-5.796852325020102,-5.31838119428621,-3.906747099463886,2.5103231177829297,-0.4100358853878632
0,-8.176678297720741,-0.4195135538779924,-0.27613100225359877,0.999471399190921,-0.4050354477611826
0,2.2734951181453633,2.8093521690642684,1.1644835596967187,3.3186187927741635,-0.40003501013450204
0,7.833667929548541,4.658215988013926,11.54509659570117,8.087765305417935,-0.3950345725078215
0,4.513840143391908,10.95707791620504,8.15570811473037,0.7269109436452725,-0.3900341348811409
0,6.064011766140779,0.6359379663641629,2.176318125095804,-3.673944286398476,-0.3850336972544568
0,-1.7558171962464737,7.664796150625548,0.9969266344622951,0.7051996212735324,-0.38003325962777623
0,0.7343532618474122,9.663652480558953,4.007533650098697,0.12434267269746219,-0.37503282200109567
0,8.524523145859552,4.172506967111582,12.028139178962705,4.413484873938861,-0.3700323843744151
0,6.4246924609589415,11.18135962051741,11.438743227466057,4.572626230928603,-0.36503194674773454
0,6.214861211801919,6.540210450263749,8.669345801147967,5.791766749282426,-0.3600315091210504
0,13.005029402367544,4.019059465085339,5.059946904567269,8.960906434145173,-0.35503107149436985
0,10.39519703581929,4.437906673055708,8.4005465414427,7.350045290048972,-0.3500306338676893
0,10.395364114339015,10.51675208170149,9.341144714764564,8.639183320798129,-0.3450301962410087
0,0.2755306391191342,3.505595697972805,7.571741426766979,0.6983205294603326,-0.34002975861432816
0,1.3056966106255232,-8.825562471728896,-3.8476633210537923,-4.012543081438379,-0.33502932098764404
0,-5.944137970998193,-13.56672242111619,-12.517069527586019,-6.423407509515821,-0.3300288833609635
0,-4.82397310555146,-3.207884143378007,-8.126477191464991,-1.6042727521466478,-0.3250284457342829
0,-12.093808792459784,-5.339047630904024,-10.895886310556193,-7.01513880629564,-0.32002800810760235
0,-8.8336450304864,-15.600212875357533,-13.955296881750149,-13.566005668434668,-0.3150275704809218
0,-11.783481817513039,-18.551379867553244,-11.984708900852068,-15.116873334278818,-0.31002713285423766
0,-4.003319150463123,-8.932548597080082,-9.194122362496119,-10.327741798435987,-0.3050266952275571
0,-6.4531570254047885,2.706280947763801,-6.493537260207983,-4.518611054309804,-0.30002625760087653
0,1.5670045622297128,4.675108779459107,3.967046413333178,-0.009481094365816345,-0.29502581997419597
0,-7.8628343825784155,-4.196065089370374,-10.602371334049584,-6.640351910520324,-0.2900253823475154
0,-4.67267385450328,-13.637240646097467,-13.691790494122472,-7.811223494307095,-0.2850249447208313
0,-10.952513847749831,-6.148417877703086,-15.311211057895889,-9.442095836741874,-0.2800245070941507
0,-10.482354355840894,-6.5295967704061955,-7.440633015226384,-7.492968928117781,-0.27502406946747016
0,-6.242195371442906,3.2092226902954613,-7.740056354786536,-4.24384275794406,-0.2700236318407896
0,-0.8420368863886785,4.118040519272187,-3.8394810643068524,0.40528268492212693,-0.265023194214109
0,-0.07187889193824587,-0.1731432686251424,0.20109286912895896,-3.9955925879669496,-0.2600227565874249
0,4.758278620866231,-1.5043286587218718,0.1016654588082051,-6.9564685647852125,-0.25502231896074434
0,-6.331564339033392,-8.975515636365005,-5.307763281820266,-10.887345233308963,-0.2500218813340638
0,-0.47140776270413576,-0.2167041866478886,-1.1871933391559246,-6.108222580663237,-0.2450214437073832
0,1.3487483589045115,-11.537894294222692,-1.1066246993727007,-8.419100593181653,-0.24002100608070265
0,2.388904034939711,1.4109140567665603,-1.5360573484353983,-7.799979256414682,-0.23502056845401853
0,-3.9909407254852827,-3.460279117356275,-4.665491272141909,-6.950858555157987,-0.23002013082733797
0,4.199214086696519,6.2485262000098345,0.19507354391174825,-7.0717384734677715,-0.2250196932006574
0,-4.540631519441501,2.487330025460861,-1.1743628856511856,-4.972618994702609,-0.22001925557397684
0,2.899522465194428,6.336132375340922,5.5261994539008334,-1.5635001016154246,-0.21501881794729627
0,-0.2103239502816753,11.374933265548854,2.9567605772144727,-1.4843817765158274,-0.21001838032061215
0,6.10982924319,-4.7962672885947715,0.16732049868923005,-3.4652640014349467,-0.2050179426939316
0,3.5399820544639335,2.322530727748905,0.24787923248302424,-2.8561467581795448,-0.20001750506725102
0,-3.8898655079033007,-3.6786726707563133,-0.07156320736335897,-4.867030028284953,-0.19501706744057046
0,1.940286564450672,6.54012253056623,2.0789931931482575,1.9220862070180673,-0.19001662981388634
0,3.540438279838261,5.088916346309691,2.729548447945571,3.261201966700523,-0.18501619218720577
0,-0.059410353511895275,2.197708790766467,-4.409897429159418,-0.5696827302768169,-0.1800157545605252
0,-1.9592593275101269,-2.603500122131245,-0.41934442439648517,-0.8805678650702465,-0.17501531693384464
0,8.95089136582968,5.545289621334099,4.891207476069867,10.398546581051745,-0.17001487930716408
0,10.95104173426163,6.36407803471699,8.421758286009013,10.697660626528547,-0.16501444168047996
0,-0.3188082150051105,7.082865131221267,0.10230801884273377,9.996774289123167,-0.1600140040537994
0,14.55134152455306,8.80165092347312,12.272856687493805,8.37588758566557,-0.15501356642711883
0,7.951490958745945,4.6904354234082195,7.973404304295263,6.665000532052212,-0.15001312880043827
0,5.271640092568807,-2.0707813576720318,4.063950880862058,5.664113143368173,-0.1450126911737577
0,0.9017889302383408,-1.1019994088380345,3.4444964280977004,4.063225434027603,-0.14001225354707358
0,5.481937475443456,-0.9532187192194035,5.1950409563718996,1.0823374179189005,-0.13501181592039302
0,1.922085731515426,-4.514439277832932,-3.1244155243252547,0.9714491085712555,-0.13001137829371245
0,-3.0477662984947718,0.6843389264840245,3.9261269957503857,3.450560519296225,-0.1250109406670319
0,2.192381388314305,-0.776884094922297,0.9266685262072822,7.589671663188556,-0.12001050304035132
0,5.282528794790162,5.521891669370081,10.1172090764705,4.858782552972293,-0.1150100654136672
0,8.362675923582863,12.160666230613796,7.6877486555626895,7.237893200841914,-0.11000962778698664
0,4.312822776885397,9.219439599522165,6.478287271863762,9.687003618373314,-0.10500919016030608
0,6.652969356296562,-2.111788213976607,-0.9411750669317059,8.576113816425398,-0.10000875253362551
0,3.423115662840367,2.426982799415139,5.909361646371723,0.04522380508824431,-0.09500831490694495
0,1.2132616970502224,11.875752648642814,0.4798974186539151,2.644333593841478,-0.09000787728026083
0,6.723407459075614,5.514521342235173,1.620432256539623,0.6534431918268659,-0.08500743965358026
0,3.003552948716599,3.0332888880885274,6.290966166420652,0.5425526080170842,-0.0800070020268997
0,-1.4863018345875147,4.5120552934924305,1.4514991544200206,-2.528338148701587,-0.07500656440021913
0,-3.1461568916226335,-5.609179434656696,2.5720312263368346,-1.3092290694251225,-0.07000612677353857
0,0.1639877768410614,3.8595847103780425,0.022562387692094232,-0.8401201451373564,-0.06500568914685445
0,4.574132170134753,13.638347735233555,8.103092643788418,5.808988633269081,-0.060005251520173886
0,1.7242762875470217,3.237109646162722,5.103621999629639,2.978097274819892,-0.05500481389349332
0,-1.4255798718193022,0.5158704487787422,-0.22584954021792075,-4.622794211687307,-0.050004376266812756
0,9.744563690939875,3.1346301481889984,4.294678028409241,3.466314182391398,-0.04500393864013219
0,5.094706974442003,-4.206611250730527,4.26520470937755,7.885422465628482,-0.04000350101344807
0,4.334849976822221,12.052146256778867,8.075730506219053,9.744530646312896,-0.03500306338676751
0,8.534992695643117,6.980902675213596,4.476255421982416,12.12363873207818,-0.030002625760086943
0,8.885135127864174,6.409658008504218,5.536779459148395,11.65274672962258,-0.025002188133406378
0,0.4252772697774033,1.928412259890607,4.587302619649061,7.851854644584625,-0.020001750506725813
0,4.755419117076567,6.817165432046838,10.587824904879213,8.00096248158267,-0.015001312880041695
0,3.7155606650329194,6.685917527170996,14.298346315560007,14.410070244308125,-0.01000087525336113
0,6.775701908548244,14.764668546873814,13.178866851451678,10.619177935482384,-0.005000437626680565
0,11.055842842037832,1.7334184919732796,10.149386511123174,9.9682855567386,0.0
0,1.1559834592737601,7.722167362455092,5.319905291970503,8.037393108630612,0.005000437626680565
0,1.9961237533962228,8.570915157600847,9.380423190423919,6.59650059076596,0.010000875253364683
0,7.586263717097664,6.08966187603223,7.830940202116313,1.7256080019800526,0.015001312880045248
0,1.5764033427083934,-2.1215924842759413,1.7914563219446704,1.124715340562032,0.020001750506725813
0,-3.3334573777928624,-7.3128479257311705,-2.178028455771209,2.4338226044862403,0.025002188133406378
0,-15.19331845250729,-8.434104450634013,-4.877514136942617,-5.197070208423892,0.030002625760086943
0,-7.6831798890829885,-4.425362060771588,0.3129992726251959,-4.997963100314727,0.03500306338677106
0,-5.733041694318748,-9.67662075726496,-3.3464882326403713,-10.178856073025232,0.040003501013451626
0,-10.372903874140492,-11.977880540515056,-11.895976658037878,-13.349749127770906,0.04500393864013219
0,-5.562766433697547,-2.96914141010055,-4.775466008401781,-11.870642264844719,0.050004376266812756
0,0.6373706225569045,-5.230403364795529,-0.7249562879322162,-4.36153548345803,0.05500481389349332
0,3.397507290624166,-0.3416664027860983,2.105552499659894,7.947571218056295,0.06000525152017744
0,-3.2423564333821786,-1.6829305219027073,-6.083939649135079,-4.443322158271453,0.065005689146858
0,-2.582220553359725,-1.5841957197684626,-3.743432737686772,-5.5542156103807265,0.07000612677353857
0,0.8579149268844987,-0.8154619938597991,-0.31292676909605943,-5.175109136048956,0.07500656440021913
0,5.8180500036382865,16.903270658363375,6.617578253776755,-0.07600273266434275,0.0800070020268997
0,-0.6518153268959994,-5.487997760857596,3.8980823280245733,-2.926896397244085,0.08500743965358382
0,-8.971681068663559,-4.77926724970679,-7.521414549518881,-5.91779012653544,0.09000787728026438
0,-4.571547225486361,-2.850537806441031,-4.800912382109906,-4.78868391697215,0.09500831490694495
0,-3.9914138007420386,-6.521809429002315,-4.2204111727235105,-6.2595777645453134,0.10000875253362551
0,-5.241280797290862,-10.27308211485769,-9.749910923835573,-8.950471664702269,0.10500919016030608
0,-1.5911482175434155,-1.2543558608793814,-5.55941163733675,-9.09136561223569,0.1100096277869902
0,-4.241016063528464,-2.195630663344231,-5.1389133144594545,-6.8022596011669565,0.11501006541367076
0,-1.2708843369550102,0.3830934818573326,-1.1084159558397324,-4.6531536247352605,0.12001050304035132
0,-7.160753039231144,-1.6581834209904667,-5.087919561674497,-7.264047675497935,0.1250109406670319
0,-7.570622171385484,1.9705386324717513,-9.667424131776208,-14.574941745355684,0.13001137829371245
0,-2.830491733926291,-4.7507403533511425,-6.206929665441782,-5.345835825401645,0.13501181592039657
0,-0.23036172683296827,1.4879796260185763,-6.446436161292581,-4.116729905836118,0.14001225354707714
0,-2.580232149732669,-6.623301424801667,-7.365943617254727,-4.087623976139808,0.1450126911737577
0,0.17989699793334496,-1.9445835009719232,0.014547969369595126,-1.808518025313563,0.15001312880043827
0,9.780025716776628,8.554133402577387,10.94503860167381,13.370587957886514,0.15501356642712238
0,9.24015400717165,12.132849290857076,9.385528282648597,7.239693984525278,0.16001400405380295
0,8.610281868870004,8.501564168306404,8.246017014648304,6.828800065030261,0.16501444168048351
0,-0.32959069916154543,10.390278038453934,12.186504799144103,8.817906209029951,0.17001487930716408
0,6.9405363014111305,-2.481009096067351,10.286991636649594,4.68701242540243,0.17501531693384464
0,3.930662868474479,5.537702766741723,8.467477526675534,6.896118722337166,0.18001575456052876
0,0.5407889995182653,6.536413628491466,0.6079624677993555,8.735225107374994,0.18501619218720933
0,1.2509146917011362,5.215123490395938,-0.8415535420472469,8.064331587375156,0.1900166298138899
0,2.991039941974857,0.43383235318149704,3.9389294947753286,7.043438168442154,0.19501706744057046
0,1.3911647471273005,-8.277459782769494,1.8594115757631837,3.462544855938508,0.20001750506725102
0,2.1712891037571254,-3.0987529170364394,2.6498926982242685,9.011651654580803,0.20501794269393514
0,0.15141300827651424,-0.3200470488616928,-1.8196271407473792,1.400758568510446,0.2100183803206157
0,4.721536456934949,-3.091342177148456,-3.2391479441579247,0.7698656013736976,0.21501881794729627
0,-3.188340554181724,1.7973616994014285,2.2913302850407846,3.1889727564869625,0.22001925557397684
0,-8.578218029046294,-0.8139354178128694,-1.4981924560021076,0.9080800369663302,0.2250196932006574
0,-5.828095971386298,-8.51523352730851,-3.5477161700731124,-1.9928125542258173,0.23002013082734152
0,-0.977974384420043,-6.466532627351771,-2.2472408598414235,1.2062949857985426,0.23502056845402208
0,4.352146729072809,-4.947832715701102,1.043233472225023,4.725402659900581,0.24002100608070265
0,1.812267366425957,0.7708662104493964,5.913706823775323,8.394510470774186,0.2450214437073832
0,9.382387524772108,6.899564154234641,8.174179192301972,14.253618420632202,0.2500218813340638
0,8.102507200799774,14.338261118666065,8.424650574819445,12.022726510838114,0.2550223189607479
0,-5.8473736093778435,-1.923042893822798,-6.514879032272193,0.08183474170829855,0.26002275658742846
0,-5.687254910005473,-7.324347881403687,-5.634409632921878,-2.6490568872641633,0.265023194214109
0,-3.067136705212316,-1.7656538423801813,-2.163941230946481,-3.459948376883143,0.2700236318407896
0,-1.817018998740073,-6.766960774744439,-4.513473829768338,-3.680839727824275,0.27502406946747016
0,-10.206901793938421,-7.688268676022663,-8.173007432394838,-7.331730940438524,0.2800245070941543
0,-11.006785093665725,-5.259577543186854,-4.8225420413533335,-3.592622014641586,0.28502494472083484
0,-11.646668900005992,-5.510887372590907,-9.902077658570711,-7.523512949837346,0.2900253823475154
0,0.1334467859021101,2.5178018399506015,-3.161614285311912,-1.524403744905021,0.29502581997419597
0,0.40356196366925584,-2.5635099010466225,-0.6511519222309577,-3.7452943982569447,0.30002625760087653
0,-0.6463233667541847,0.475177409067187,-4.130690569555961,-1.3161849079454468,0.30502669522756065
0,3.753790794628424,-5.936136224967725,-2.1802302272394662,0.8129247282239528,0.3100271328542412
0,0.1939044477333728,-3.6274507982150963,0.00022910500467249184,-2.7179654874089327,0.3150275704809218
0,5.69401759231494,3.8312336945475343,3.6406874276249668,1.7311444475765279,0.32002800810760235
0,5.904130227857063,8.629917258671071,1.9411447410471463,2.150254535633205,0.3250284457342829
0,-0.9857576465288387,0.838599899275289,2.8716010455136463,1.629364779149695,0.33002888336096703
0,2.6343539679203585,1.9872816210613027,4.8920563410062154,-0.9915248196232187,0.3350293209876476
0,-1.7855349302274417,3.4459624283966166,-1.6874893727756772,-2.7724142585161315,0.34002975861432816
0,-5.885424342433252,-8.02535767453203,-2.6870360963361053,-0.5633035353052518,0.3450301962410087
0,5.924685729956322,7.353321316433773,3.933416169787283,10.325807352299593,0.3500306338676893
0,5.514795285659305,14.97199940537896,10.813867425005553,10.014918406370192,0.3550310714943734
0,4.884904323166668,2.8106765959129585,3.9643176683733894,3.2440296283682013,0.36003150912105397
0,-5.414987159425251,1.4893528908902183,4.054766898351049,0.03314101906215293,0.36503194674773454
0,-0.5448791642346685,4.618028292588846,3.0152151128481846,1.7022525787841973,0.3700323843744151
0,0.6252283066753636,0.1667028029598347,-0.05433769060822968,1.1713643076766882,0.37503282200109567
0,-12.714664748574052,-12.13462357619851,-10.843891514657804,-7.609523794182942,0.3800332596277798
0,-9.104558331474117,-10.345950842856835,-11.253446361702904,-3.2204117265967858,0.38503369725446035
0,-1.8444524428291245,-9.437278994265197,-6.693002233451976,3.0687005109318726,0.3900341348811409
0,4.965652917208436,9.301391973171842,4.32744086919822,5.047812919090128,0.3950345725078215
0,-1.8842422512556547,-0.13993793650546413,2.7978829458127916,0.8469254984496014,0.40003501013450204
0,10.075862051786801,-0.8912687192948596,4.298323995937156,2.5860382493060774,0.40503544776118616
0,-5.354034173909428,-8.662600371283867,-3.821235981133739,0.18515117171867773,0.4100358853878667
0,4.636069071160616,-7.303932888324547,1.5592030137306852,6.234264265558214,0.4150363230145473
0,-0.10382821364905295,-4.335266265726492,-0.49035902035970175,3.9733775304446515,0.42003676064122786
0,-0.31372602908042835,0.5833995017863,-0.25992208426898905,2.512490965637846,0.4250371982679084
0,-2.3836243759291103,7.452064419818931,0.03051382114667285,3.9016045700146833,0.43003763589459254
0,6.216476745014154,8.870728493870336,7.3809486949963015,7.600718342084237,0.4350380735212731
0,5.826577332868298,11.199391728894478,9.561382536162608,8.759832279889254,0.44003851114795367
0,0.3466773864401184,9.21805412900811,4.801815342994694,8.778946380817828,0.44503894877463424
0,7.896776904130622,3.9267156974084685,2.8322471131789007,2.0180606415030278,0.4500393864013148
0,1.956875883944043,5.20537643650252,4.10267784385515,2.3671750579342037,0.4550398240279989
0,-1.6930256764847216,-7.005963651823475,-2.5468924682006118,-0.6037103742941808,0.4600402616546795
0,4.5570722202266944,-2.4273045658390413,0.413536173598721,1.3454043402298246,0.46504069928136005
0,-2.3728304286699893,-1.7586463036393865,-2.0160362341802003,-2.9454808031445285,0.4700411369080406
0,-10.76273362593665,-3.339988863028407,-4.815609694871948,-9.036365808990135,0.4750415745347212
0,-6.912637374045466,-2.1713322415497918,-4.825184211583698,-4.107250681556307,0.4800420121614053
0,-3.6325416748542176,-7.8526764364669,-13.454759787002255,-11.038135424531525,0.48504244978808586
0,-7.0324465295612395,-10.234021444617927,-13.094336423100147,-11.189020040879297,0.4900428874147664
0,-10.402351938763005,-4.1253672622068915,-12.77391412081669,-9.059904532677253,0.495043325041447
0,-8.192257902365558,-8.33671388470843,-13.113492879861692,-3.5507889010582696,0.5000437626681311
0,-7.58216441945625,-5.538061306912226,-11.633072698691265,-5.841673146362562,0.5050442002948117
0,-8.10207148829283,-3.2894095229866145,-9.72265357454631,-1.0025572683635056,0.5100446379214922
0,0.17802089360325746,4.139241473386251,-6.822235503568139,-3.263441266435198,0.5150450755481728
0,-5.0118872707328395,-8.362108311220258,-6.511818480973887,-9.334325139614934,0.5200455131748534
0,-5.35179597787508,-10.74345887000142,-9.441402501209076,-10.825208886467603,0.5250459508015375
0,-1.9517052240262467,-10.714810195600359,-12.180987557950344,-0.6360925048640419,0.530046388428218
0,-5.961615004989433,-1.6561622798185618,-4.650573644005412,-1.7969759920060633,0.5350468260548986
0,-1.9115253161787251,-1.5275151137042615,-4.0201607513302475,-0.6078593447043465,0.5400472636815792
0,-1.1314361526567724,-3.9888686878568467,-3.9497488712325413,-4.658742559579341,0.5450477013082597
0,-0.7813475092269346,-2.680222992601125,-3.0093379945734853,-0.8296256330631764,0.5500481389349439
0,1.4387406194419496,2.4584219819811857,2.6010718881145634,2.1194914386152393,0.5550485765616244
0,-0.8811717612808277,-1.4529337540379843,-1.198519213527419,-8.511391340625345,0.560049014188305
0,-0.7510846460273823,-1.4942901905425927,-1.7681112898143918,-7.0522739666448,0.5650494518149856
0,3.4190019705705392,2.374352682614739,-0.28770433101865617,-9.783156434807404,0.5700498894416661
0,-2.94091190614454,4.652994875570439,5.892701672637196,-5.8440387397515705,0.5750503270683502
0,-1.95082627084779,-0.8383636016889013,4.113106730821534,-6.12492087535524,0.5800507646950308
0,-9.160741118082104,-5.059722739344109,-8.806489147039839,-6.375802834813703,0.5850512023217114
0,-6.26065644200748,-0.8910825275447125,-2.0660859515868957,-4.826684610711989,0.5900516399483919
0,-1.9305722362196622,-12.782442956163262,-7.075683673180169,-7.7575661950527355,0.5950520775750725
0,1.5495115061871132,-3.0138040145825005,-0.9152823017371584,0.30155242071738375,0.6000525152017566
0,1.7495947923492357,-7.085165691548545,4.575118173179986,0.44067124558137805,0.6050529528284372
0,1.9696776293758798,-4.646527975180579,2.995517762100052,0.7897902887140074,0.6100533904551177
0,5.149760024208702,7.272109146881721,8.425916475324065,-2.6710904406891274,0.6150538280817983
0,4.869841983508811,4.9707456871516715,7.936314322685378,0.5380290665878884,0.6200542657084789
0,1.219923513565497,1.429381657903404,4.526711313385906,2.6171488198076367,0.625054703335163
0,5.180004620290982,1.528017071036596,3.507107455986167,-1.2337311717829784,0.6300551409618436
0,4.190085309251424,-0.253348061801971,-0.48249724144932465,0.4553891009977864,0.6350555785885241
0,2.100165585650141,-5.534713729046846,-0.3821027711268838,-1.1454903526943698,0.6400560162152047
0,1.9102454543399037,-5.506079919000879,-1.3617091253308033,-1.0863695236717734,0.6450564538418853
0,1.850324919906709,6.642553380325753,2.6586837036767674,0.16275159731697808,0.6500568914685694
0,-3.8495960132325444,-4.058813818876593,-0.19092427636957646,-2.1781269804025976,0.6550573290952499
0,5.330482659274216,2.629818495590034,9.449466942151659,11.290994752506784,0.6600577667219341
0,-2.9194390582494925,-7.44154966407441,-2.540142633402371,-4.469883194783111,0.6650582043486111
0,-6.859361161479464,-7.292918285482826,-6.309752995932249,-2.7607608133352497,0.6700586419752952
0,4.270716354050266,-4.474287355810029,1.1706358616735522,2.018361905743907,0.6750590796019722
0,6.020793492953266,4.17434313828346,2.651023946716541,-2.7325150285436437,0.6800595172286563
0,3.4408702597049077,2.3029732104085854,0.7514112665536803,-2.643391607092556,0.6850599548553404
0,2.3209466584006146,-1.2783971258716664,-2.808202171544692,-2.674267820649383,0.6900603924820174
0,3.9710226927566374,2.200232142865395,0.38218363965831836,4.434856340228309,0.6950608301087016
0,2.2510983661734305,0.9688610299478873,4.582568707430725,0.6339808850497293,0.7000612677353786
0,10.54117368171039,2.2774895486031865,5.892953038943031,2.2731058232140766,0.7050617053620627
0,3.4012486419554793,6.846117711880182,4.963336641032096,3.212231163930766,0.7100621429887468
0,-1.4686767510398353,4.374745532514608,4.15371952005957,-0.26864308379289875,0.7150625806154238
0,-3.0786024955655447,-2.6366269771598403,-0.6858983180636162,-2.399516911104951,0.7200630182421079
0,-4.148528589904151,-3.8579998050622852,-2.2055168677026327,-0.4303903091746801,0.725063455868785
0,-2.678455032093117,-2.4693729390549723,-4.675136123248362,-5.3012632690539565,0.7300638934954691
0,-4.668381819841703,0.15925363323806552,-0.8947560789005353,-3.462135781568691,0.7350643311221532
0,-0.5783089505231839,0.5378799243855554,1.9256232713805042,2.206992162744839,0.7400647687488302
0,9.731763578704513,-0.013494052979256987,3.2960019337275117,3.976120573530552,0.7450652063755143
0,2.711835770580638,5.765131713734396,0.1163799141713383,2.9852494603533763,0.7500656440021913
0,-0.8980923725279613,11.123757236894546,1.6367572185684196,7.154378832484011,0.7550660816288755
0,-0.28802084856522125,5.692382528350904,-0.39286614735822395,6.003508698763155,0.7600665192555596
0,-1.0379496555521763,-0.028992400732260004,1.637509822032628,2.822639067509789,0.7650669568822366
0,1.0221212085236662,-1.1003675396968917,-0.6621148676829278,6.4217699465234395,0.7700673945089207
0,0.19219174569958508,4.368257121909603,3.3982597890098845,4.970901343124066,0.7750678321355977
0,-1.8777380419904277,8.956881594385344,-0.5613662024696016,-1.6299667358193215,0.7800682697622818
0,-4.607668152464723,-7.174494112278302,0.38900716319295126,-1.540834283743842,0.785068707388966
0,-4.527598583443792,5.4841300116240035,0.6093798912390931,-5.211701294117922,0.790069145015643
0,-1.777529332314254,1.872753975670392,-1.6702480131135766,-6.26256776017925,0.7950695826423271
0,-1.377460396122095,1.521377789303577,5.66012345532793,-2.6134336747592863,0.8000700202690041
0,0.5426082283200109,5.920001461735274,5.260494301633168,4.7357009697104,0.8050704578956882
0,4.112676544282802,1.0986250018914827,0.5708645305683875,4.934836180932563,0.8100708955223723
0,6.922744554918968,-1.6127515815831,1.8512341465562119,5.033971966387912,0.8150713331490493
0,-3.3971877369220516,0.30587171979990824,-2.358396846196607,3.7831083331318824,0.8200717707757335
0,-4.327120328637667,1.2944949145094984,-0.3780284435346888,2.452245287779938,0.8250722084024105
0,1.4629467824016626,3.4631180109838104,5.622339358707321,9.591382836538617,0.8300726460290946
0,5.033013598957737,10.121741017470159,6.062706564583075,2.490520985153396,0.8350730836557787
0,2.0030801237299376,9.590363941750422,3.4030731777934418,6.779659738834659,0.8400735212824557
0,4.193146359150346,1.198986790904414,4.153439201577785,11.378799102218986,0.8450739589091398
0,8.913212307290532,3.5476095713430738,5.583804638733074,7.617939079252748,0.8500743965358168
0,0.07327796977160952,3.676232289029166,-0.5458305083482775,4.327079673074589,0.855074834162501
0,4.073343347748073,3.994854949595136,6.604533762374309,4.676220886092617,0.8600752717891851
0,5.063408441999181,6.763477558306176,7.134897452594663,4.265362720162264,0.8650757094158621
0,5.913473252940052,11.152100119938629,6.065260563534832,8.894505176658377,0.8700761470425462
0,8.243537780507584,3.2207226386104133,5.335623095818284,4.183648256417676,0.8750765846692232
0,9.713602024013055,5.979345117728515,9.36598504944544,8.632791959665218,0.8800770222959073
0,-1.7063340179318507,-0.7020324398722424,3.9363464237804964,-3.1880637139601475,0.8850774599225915
0,-0.9162703472624961,4.966589968265743,0.15670721757951125,-3.7389187651905456,0.8900778975492685
0,4.473793033857727,10.875212344272601,8.467067429140661,5.26022680518168,0.8950783351759526
0,4.333856123146578,14.223834689726996,6.877427056354501,1.2593729963900364,0.9000787728026296
0,-4.106081081890941,2.3424570053324922,1.6577860965963043,-4.091480192419361,0.9050792104293137
0,0.04398141608965715,-0.058920709078525826,-3.4418554532347434,-0.6823327621479598,0.9100796480559978
0,1.5240436144384382,0.2397015458283846,-1.4114975964279313,-2.4931847135786684,0.9150800856826748
0,-4.135894489433435,-14.921676230669307,-5.031140336163587,-6.1540360472793,0.920080523309359
0,-2.3058328980322744,-8.133054038902394,-6.680783675332908,-5.244886763503287,0.925080960936036
0,-7.225771613650342,-11.724431878392812,-10.040427616365962,-5.895736862050768,0.9300813985627201
0,-6.985710638185856,-2.045809747705372,-3.960072161047635,-0.036586342221443496,0.9350818361894042
0,-4.33564997299574,5.702812355327094,-2.389717310491583,-2.0674352029209997,0.9400822738160812
0,0.054410381114248244,9.781434433083152,6.50063693463642,3.601716557150146,0.9450827114427653
0,-6.535529576250763,-1.8999435123719555,0.7209905737527841,-2.5591310606682423,0.9500831490694424
0,-10.655469845116002,-11.311321479342174,-8.718656393845908,-5.359978055022443,0.9550835866961265
0,-9.325410424926336,-4.60269946603079,-9.788303968760436,0.30917557558826014,0.9600840243228106
0,-6.805351314309638,-5.164077470098352,-7.037952151050144,-3.761670167083875,0.9650844619494876
0,1.8347074889001744,9.354544511318835,1.4923990599534795,9.507484718881994,0.9700848995761717
0,0.004765987365423607,-3.9768335187495603,0.942749665427328,0.6766402353335251,0.9750853372028487
0,3.334824183882636,-2.7182115573483046,0.543099666695732,5.9057963838084016,0.9800857748295329
0,1.014882081158571,-8.549589601454974,1.543449065034464,2.224953165453577,0.985086212456217
0,-3.1550603182392196,-3.4009676476796264,-1.9462021383593664,1.6741105810615673,0.990086650082894
0,-0.37500301178261175,2.997654307835814,0.8141460576796036,0.6132686311511287,0.9950870877095781
0,-0.9549459968570149,4.866276269195422,2.834493654308215,4.782427316045721,1.0000875253362551
0,0.19511072925672568,6.544898240369883,3.4948406526030165,9.231586635819408,1.0050879629629392
0,-4.514832830634343,-4.156479775033478,-2.4548129465433246,3.3107465901014184,1.0100884005896233
0,-5.01477667356604,10.462142226253736,2.1355328576095696,-0.8500928220118056,1.0150888382163004
0,-1.9447207962732933,1.300764247200347,-1.014121934258486,1.3490683982137464,1.0200892758429845
0,-4.874665195122038,-7.470613709532061,-4.34377732145517,-5.841769750590944,1.0250897134696615
0,9.685390133801668,6.408008358584363,5.026566696786831,5.547392730264858,1.0300901510963456
0,13.795445194348869,13.426630454017197,11.306910121214502,9.686555839463505,1.0350905887230297
0,7.06549998976689,6.485252578806941,5.777252952192392,10.165719575321017,1.0400910263497067
0,5.775554522387168,4.583874734207853,5.847595189399149,6.074883935415494,1.0450914639763909
0,-2.834391206236231,2.9124969207415425,-5.58206316811255,-6.805951083422493,1.0500919016030679
0,1.3656628050450674,0.6511191384481275,-3.4917221215537686,0.7432145152704338,1.055092339229752
0,1.7957165572549896,8.86974138703971,9.788618327914365,6.8623807279365625,1.060092776856436
0,4.355770051330311,4.378363665863542,8.228958179070716,5.601547550918535,1.0650932144831131
0,-3.3741767119581887,-0.8930140261919621,2.709297430239984,-2.04928501979224,1.0700936521097972
0,-0.7141237319642599,3.3656083093828677,5.039636079129753,3.5898830114474287,1.0750940897364742
0,-4.73407100799038,-5.005769329081489,-7.2900258769875075,-8.410948359858835,1.0800945273631584
0,1.9559814608469788,2.2528530567251663,-1.8696884409512724,1.2182208618747183,1.0850949649898425
0,6.276033675556434,6.321475465126747,3.0506483845526584,2.1973906724230106,1.0900954026165195
0,6.756085637000252,8.110097894262395,9.56098459692144,1.936561067634204,1.0950958402432036
0,5.376137345595586,5.408720341785845,6.671320193257564,6.065732043213611,1.1000962778698806
0,4.55618880118991,5.56734280472116,5.031655170057932,2.8349035945699073,1.1050967154965647
0,-5.603759996846274,-8.014034720427798,-5.778010476763174,-3.4859242832181443,1.1100971531232489
0,-2.4637090493283065,-1.8154122373353359,0.4923232484421847,-1.316751595241929,1.1150975907499259
0,-2.1636583569381713,-1.8667897494963865,-0.5873436586390152,-1.4675783465304975,1.12009802837661
0,-1.6436079200965061,-6.88816726009046,-5.237011202180638,-2.1284045419484388,1.125098466003287
0,4.176442260964556,8.180455227981753,0.8033206138097376,-0.18923018620046028,1.1300989036299711
0,5.486492186005137,-2.3409222880571527,2.1136517854950734,1.0999447161281246,1.1350993412566552
0,-6.973458145405568,-8.26229981099698,-10.436017690847311,-6.480879839467647,1.1400997788833322
0,-6.4734087337809765,-7.2136773434538615,-7.01568781870875,-6.83170385731591,1.1451002165100164
0,-2.0833595793682718,0.7449451124353825,-6.335358601045952,-4.532527341339761,1.1501006541366934
0,-7.973310681942425,-12.996432444925043,-14.505030040076633,-5.533350294917534,1.1551010917633775
0,-7.683262040762081,-7.237810016572209,-7.394702137152973,-6.334172720882872,1.1601015293900616
0,-13.183213654435896,-8.839187602812865,-8.754374892667633,-10.714994621495839,1.1651019670167386
0,-11.77316552069362,-7.7605652031145205,-9.164048306082142,-10.005815998300902,1.1701024046434227
0,-5.963117636222946,-11.251942816108844,-8.473722375995829,-8.436636851968181,1.1751028422700998
0,-7.663069996723646,-6.453320439571555,-7.0933971001635925,-12.61745718222052,1.1801032798967839
0,-4.553022597095537,0.1853019295313692,-4.913072475553865,-11.408276987786978,1.185103717523468
0,-4.212975431605121,1.8239242947752952,-7.532748498447624,-2.2190962663780027,1.190104155150145
0,-5.732928493992366,-4.127453340064589,-1.8124251645263325,-1.0399150148683418,1.1951045927768291
0,0.8171182224485911,-2.01883097113213,0.01789753100822078,1.1392667703213815,1.2001050304035061
0,3.2971647247239093,-1.2802085944093504,1.0782195932286283,-2.9315509070779076,1.2051054680301903
0,-6.392788980066522,-6.451586205644093,-6.881458972687164,-8.222368043216612,1.2101059056568744
0,-2.842742884754971,2.667036199677118,-0.8911381614188623,-4.063184633934473,1.2151063432835514
0,-0.9426969819506593,0.3956586262800935,2.1091820325882074,-5.124000674576277,1.2201067809102355
0,0.25734873599783026,-1.6857189210418937,-0.04049838496736008,-5.074816159964676,1.2251072185369125
0,1.0673942768717537,-4.87709643746418,-5.450179408368453,-2.5956310844467008,1.2301076561635966
0,-3.5025603515207777,-2.098473917995525,-0.249861031805703,-3.3864454419507113,1.2351080937902807
0,-3.112515141308327,9.670148642564726,2.5304567507056426,0.42274077392446163,1.2401085314169578
0,2.4575299155432284,-3.981228750588372,1.380773945224552,-1.188072430205282,1.2451089690436419
0,-2.22242517278631,-4.522606092408144,-4.8689094422484125,-2.138885047599263,1.250109406670319
0,-2.602380398040342,-8.523983377762537,-6.038593405667235,-3.309697071390848,1.255109844297003
0,-1.7523357518470022,-6.815360601067262,-5.478277938677832,-7.800508494480828,1.2601102819236871
0,-3.8322912256354305,-8.406737756075747,-8.427963034409284,-5.141319309368496,1.2651107195503641
0,-2.7322468105822804,-2.5981148358360233,-1.4776486853989839,0.8578704919453846,1.2701111571770483
0,-6.452202497561692,-2.689491832791931,-4.2473348836469675,-4.5429390821352875,1.2751115948037253
0,0.047841722914545914,0.8191312610142698,-2.7370216207398133,-1.6337480229446213,1.2801120324304094
0,1.4178858606486378,2.467754453718036,-0.4467088879507931,0.8854436783939547,1.2851124700570935
0,-3.752070074394946,9.006377753391657,5.593603323635866,0.13463603089976744,1.2901129076837705
0,-0.7320260721712577,1.035001167787723,5.973915022870324,1.2438290436163875,1.2951133453104546
0,1.5180178774765456,-4.456375295733299,1.404226218273359,1.133022725533643,1.3001137829371316
0,-6.961938215180013,-9.877751629914334,-8.265463081970697,-5.477782914406977,1.3051142205638158
0,-2.7518943396984614,-5.969127827138571,-3.2551528696865306,-0.4085878672005989,1.3101146581904999
0,-5.381850485314206,-9.630503879122573,-4.064843136363118,1.400607876324001,1.315115095817177
0,2.108193359116563,4.8781202231082545,5.555466126886288,3.5398043254238156,1.320115533443861
0,3.738237204969172,11.396744488897058,9.085774929037095,5.449001489228621,1.3251159710705451
0,6.398281063559713,7.945368927354025,6.346083278719754,4.838199376545087,1.3301164086972221
0,10.718324945828067,13.013993546840231,12.106391183894246,7.557397995722296,1.3351168463239063
0,0.6083688621121139,13.552618354719538,14.086698651653183,6.066597354557355,1.3401172839505833
0,2.178412822151341,3.7212433572652768,10.327005688031088,0.23579746027114698,1.3451177215772674
0,4.508456835282562,4.809868559770024,0.08731229796332629,0.10499831964312145,1.3501181592039515
0,5.558500910539397,7.308493966820089,4.097618485562368,4.044199939223118,1.3551185968306285
0,0.3385450565964504,-2.352880417511204,4.377924254474832,4.693402325387453,1.3601190344573126
0,8.18858928174425,9.265745410443976,9.068229607971157,15.382605484152782,1.3651194720839896
0,3.118633593879832,13.934371453921408,5.178534548809671,8.581809420838296,1.3701199097106738
0,6.1886780004454,-0.3870022845057039,4.89883907912777,9.001014139798631,1.3751203473373579
0,11.448722508347204,4.011624197000595,7.359143200464439,7.65021964440595,1.380120784964035
0,5.3287671238284995,13.160250899718784,10.889446913752371,8.959425937160152,1.385121222590719
0,5.078811852383653,10.778877824319437,13.539750219155415,8.798633019738514,1.390121660217396
0,-0.6911433011232236,10.527504970570233,6.790053115861681,8.267840892985305,1.3951220978440801
0,2.798901667786765,6.836132337202428,3.8503556020646963,6.187049556919663,1.4001225354707643
0,-2.7110532365900757,-2.4652400779315804,-5.949342324743786,-0.22374098915943835,1.4051229730974413
0,-5.031008009977631,-12.75661227741327,-6.63904066727413,-4.134530746403313,1.4101234107241254
0,-7.080962647897927,-4.377984263627154,-3.068739427974924,0.7346802839401255,1.4151238483508024
0,-0.3009171454672813,6.340643961594493,-1.058438608849803,-1.586107899266484,1.4201242859774865
0,1.599128502594495,0.8392723967453256,-4.808138211536635,-2.336895297032443,1.4251247236041706
0,0.7691743017371118,1.617901040241674,1.1221617625906808,-0.7676819102402144,1.4301251612308477
0,1.2492202573762536,-2.103470109685452,2.3924613123356604,-0.9084677396285694,1.4351255988575318
0,-9.350733625110982,-6.114841054834553,-5.357239563440529,-0.5292527858162897,1.4401260364842088
0,-6.7306873401525396,-3.9062117967990244,-5.096940865801004,2.549962950641317,1.445126474110893
0,-3.3506408816868323,1.5824176631777773,-0.49664259555122625,3.5691794691512126,1.450126911737577
0,-2.3705942430888145,-0.9989526758754534,-2.2063447531682563,-1.191603231034012,1.455127349364254
0,4.589452582638559,7.7496771851215565,0.48395266109580803,6.7376148491370005,1.4601277869909381
0,5.989499602553838,7.528307245036384,3.204249647081479,6.946833708450272,1.4651282246176152
0,5.4695468234462545,6.156937502247339,2.0345462045773397,7.666053345237223,1.4701286622442993
0,5.619594251622664,7.925567954477136,5.674842333173464,11.915273757159396,1.4751290998709834
0,11.379641892808946,6.954198598757267,10.155138032104306,14.804494941007835,1.4801295374976604
0,12.909689752000753,2.7828294314480586,7.4954333000343345,5.9937168925124125,1.4851299751243445
0,6.359737833255271,2.6014604483417347,6.745728134883932,8.362939606328398,1.4901304127510215
0,2.849786139673874,-2.119908355139583,4.156022533827227,4.612163076227405,1.4951308503777057
0,4.149834673647825,2.1787230162598625,-2.293683506538649,3.021387295308676,1.5001312880043898
0,-0.09011656286998376,-2.5626454422446785,7.686610010030272,3.1706122561700205,1.5051317256310668
0,6.809932431774575,4.855986264550971,7.636903079485244,5.3798379510256655,1.510132163257751
0,2.969981658936389,3.1446181317673108,10.527195697278298,10.349064371678331,1.515132600884428
0,11.620031119555803,6.873250154278,16.177487858053464,20.09829150926421,1.520133038511112
0,2.0300808140036906,2.3818823265572497,4.377779555417962,-0.4424806460955397,1.5251334761377962
0,-5.709869257902069,-12.089485357261971,-8.251929217972762,-14.4832521051998,1.5301339137644732
0,-1.409819096571066,-9.470852902968769,-2.9016384698611257,-7.954022878982588,1.5351343513911573
0,4.740231297681435,-7.862220315731294,-6.871348207780953,-9.614792977708241,1.5401347890178343
0,-1.5397180753886242,0.9764124000932075,-1.491058438811496,-6.265562410722833,1.5451352266445184
0,-1.6896672160804587,-9.85495475922486,-4.5807691695914095,-16.096331186488793,1.5501356642712025
0,0.470383875293231,-14.52632179687291,-12.30048040633808,-14.81709931247492,1.5551361018978795
0,0.5004351984763864,-8.017688715251891,-11.090192154653634,-13.577866794907417,1.5601365395245637
0,2.210486753220419,-4.639055515774786,-10.459904419236821,-12.378633638635101,1.5651369771512407
0,-12.689461460719244,-17.980422198925098,-15.65961720370582,-15.639399847155328,1.5701374147779248
0,-6.089409443337382,-12.691788764218206,-14.309330510480297,-16.730165422609694,1.575137852404609
0,-10.069357194011745,-19.08315520992597,-16.87904434063661,-17.210930365672198,1.580138290031286
0,-9.699304711297943,-18.46452153281301,-17.03875869376714,-12.631694675453472,1.58513872765797
0,-7.219251992878499,-7.815887728031069,-11.148473567922416,-13.222458349544706,1.590139165284647
0,-4.77919903559426,-3.6572537893031893,1.3918110402318973,-3.8132213842094917,1.5951396029113312
0,-2.569145835593025,-11.46861970934186,0.10209513491938849,-2.8839837747055994,1.6001400405380153
0,-10.829092388483978,-8.839985480090208,-8.297621279264021,-9.754745515622979,1.6051404781646923
0,-6.109038689321573,-6.5213510926808125,-6.627338197448053,-5.585506601001345,1.6101409157913764
0,-5.638984732490773,-11.832716537390946,-5.867055614274476,-4.686267024266071,1.6151413534180534
0,-3.1089305117163075,-6.614081803646211,-5.536773523765387,-0.6870267782650689,1.6201417910447375
0,3.381123979751683,6.2245531198959,0.993508080612866,6.542214144497209,1.6251422286714217
0,6.321178748830894,7.373188244950843,3.0137892057368494,9.261455751473857,1.6301426662980987
0,5.811233802236062,4.141823583035222,5.604069858510204,6.650698049658195,1.6351431039247828
0,5.781289146210942,0.8204591451786782,4.884350045568952,2.719941045371608,1.6401435415514598
0,10.811344786406123,15.789094941926535,9.8546297730862,9.499184744303099,1.645143979178144
0,7.3514007277726146,25.80773098310642,15.134909046570888,13.318429151511536,1.650144416804828
0,2.1514569744983527,0.7563672772910544,8.725187870595056,8.037674271228832,1.655144854431505
0,2.2115135301385602,-2.3649961682830183,1.9454662486852614,7.246920106712645,1.6601452920581892
0,0.9015703978657305,-0.5363593470709409,-1.0242558164201003,2.9861666603501886,1.6651457296848662
0,3.0216275806335955,-1.887722252591714,1.936021677654125,1.5354139339050825,1.6701461673115503
0,9.051685081167598,0.5409151217499953,7.176298733129174,10.51466192870505,1.6751466049382344
0,6.061742901790187,1.6095527826235736,5.756575351959089,11.30391064557998,1.6801470425649114
0,-0.4981989557306129,-1.3518092633032823,-3.4931484643234674,6.0931600846077805,1.6851474801915955
0,1.181859509917463,3.8368289905861266,0.5671272854974964,6.162410245002114,1.6901479178182726
0,1.191918299826981,3.6454675508002174,4.007402602545233,5.541661125230985,1.6951483554449567
0,4.601977414965033,2.4741064236258308,6.467677487834186,3.7009127231625576,1.7001487930716408
0,7.882036856069412,5.472745615038379,5.697951942048229,6.760165036144192,1.7051492306983178
0,2.5920966234658214,-2.878614869305132,0.5682259653912555,9.679418060991978,1.710149668325002
0,0.4921567170065224,10.160024975978033,-3.241500442316975,1.4586717939066403,1.715150105951679
0,8.142217136167845,13.698665155896911,3.5087727186027786,6.777926230471381,1.720150543578363
0,0.6422778800945804,1.427305674783755,5.689045447777852,5.837181365738628,1.7251509812050472
0,2.152338947577785,1.9959465361936783,5.909317744610857,7.176437194232941,1.7301514188317242
0,0.15240033713004486,-9.085412256759573,0.06958960808409236,5.975693709880588,1.7351518564584083
0,-1.8175379528716522,-0.9667707009253343,0.2598610368022368,1.084950906010139,1.7401522940850853
0,-1.3674759240607663,4.211871207118928,1.0901320291752645,3.674208775472793,1.7451527317117694
0,4.332586421986659,9.700513470878839,8.940402583485959,9.333467310744593,1.7501531693384536
0,3.8126490836584925,10.429156093485016,4.620672697723108,5.892726503841425,1.7551536069651306
0,8.532712059084393,17.43779907725726,9.910942369349327,1.6619863461885054,1.7601540445918147
0,6.142775345912187,1.046442423441359,4.62121159516419,-0.6387531712904266,1.7651544822184917
0,3.332838941188781,2.6250861322916106,5.811480371290216,3.550507942061269,1.7701549198451758
0,6.252902841386569,10.583730203407239,8.421748693219323,-0.00023032323923155573,1.77515535747186
0,10.042967042441518,6.782374635861832,7.272016555807742,3.8390320231775887,1.780155795098537
0,6.483031539657803,12.591019428029261,10.112283953197789,4.918294971475284,1.785156232725221
0,5.883096327607701,7.849664577408002,8.162550878727632,1.9875585115236731,1.790156670351898
0,4.913161400169685,5.688310080581034,6.612817324899447,2.3668226328566324,1.7951571079785822
0,7.253226750625391,2.8369559333412138,5.303083283433747,3.836087324711265,1.8001575456052663
0,3.2732923716967566,-3.504397869042447,3.563348745396697,1.7153525760560504,1.8051579832319433
0,2.623358255590394,-0.3257513315032531,-1.4563862986255618,-0.7753816243874838,1.8101584208586274
0,-1.6665756058671999,-1.6971044589319033,-1.6661218583014068,7.243884711906517,1.8151588584853044
0,-1.7365092210176947,-2.358457256083489,-3.5358579433041366,1.5031515732415168,1.8201592961119886
0,-4.066442598159859,2.660190272419326,-3.9355945631219433,-5.817581052336353,1.8251597337386727
0,-4.496375745376192,3.118838121999441,-0.17533172696610522,4.711686823105441,1.8301601713653497
0,-1.6563086704305634,2.2174862879613793,-1.425069443797703,-4.449044812456474,1.8351606089920338
0,0.4337586192265259,4.746134765361673,-1.904807722405213,-1.6597759709665478,1.8401610466187108
0,-1.166173883665589,-3.2452164510114168,-7.5345465714061675,-6.330506664207101,1.845161484245395
0,-5.016106186256005,-5.376567366504742,-3.8142859991041034,-9.871236903605936,1.850161921872079
0,-1.55603829552002,6.082082013618689,-0.26402601338075227,-4.45196670002457,1.855162359498756
0,-5.215970218154413,1.4807316841849059,-1.4937666217656012,-5.792696063656001,1.8601627971254402
0,-7.955901960495121,0.2893816399108013,-0.7035078315988199,-3.173425004091296,1.8651632347521172
0,-6.595833528384362,7.538031875291001,-1.5632496501109883,-2.7741535304472356,1.8701636723788013
0,-8.33576492702585,-11.32331761537859,-12.96299208435209,-6.294881651450628,1.8751641100054854
0,-9.115696160899013,-16.274666837718115,-10.502735140907836,-5.1756093754296035,1.8801645476321625
0,-4.115627233722054,-13.566015796641146,-8.982478825538902,-5.036336710238759,1.8851649852588466
0,-3.2955581485173453,-12.457364495830058,-3.5122231430561137,-1.4370636632420577,1.8901654228855236
0,-7.925488907754829,-4.36871293767682,-5.6419680974884985,-3.827790241396852,1.8951658605122077
0,-14.965419513345422,-15.990061123485168,-13.15171369223519,-10.628516451295882,1.9001662981388918
0,-11.795349966368068,-18.321409053512337,-15.51145992993647,-9.079242299012332,1.9051667357655688
0,-15.23528026676179,-1.1727567267955468,-5.261206812180983,-5.41996778987508,1.910167173392253
0,-6.185210413213841,1.1358958587340533,-6.000954339474012,-4.3906929284404725,1.91516761101893
0,-5.125140403295048,-4.03545129427045,-6.840702511482526,-6.081417718637137,1.920168048645614
0,-3.0150702337635655,2.4332018170253633,1.7795486727250887,-2.2721421638841317,1.9251684862722982
0,2.525000099110265,-2.568144804460449,0.5497992144614597,0.6871337328127245,1.9301689238989752
0,1.7550705992570257,-2.5294911557296333,-3.229950884816672,3.6564099686664253,1.9351693615256593
0,-8.804858729369828,-8.810837233609341,-10.01970162353499,-2.1943134591184497,1.9401697991523363
0,-4.804787882679436,-3.0421830345538305,-0.939452999775121,3.9749634465554675,1.9451702367790205
0,-7.0347168561586315,-6.403528554504836,-8.269205011104194,-6.585759317284294,1.9501706744057046
0,-4.514645644715837,-2.9148737888896177,-6.538957654550365,-6.356481753525073,1.9551711120323816
0,-5.594574242687964,-4.686218732674111,-2.508710926580912,-4.7772038647132335,1.9601715496590657
0,-4.024502643885249,-0.22756338042790533,-2.1484648231440677,-6.887925652868526,1.9651719872857427
0,5.665569158302105,13.981092273481172,4.211780660141221,5.201352880494806,1.9701724249124268
0,4.6656411706283345,-0.41025176551284226,5.332025527699202,5.770631734107339,1.975172862539111
0,6.275713399621186,5.128404507526543,3.2722697837187344,2.4799109065508604,1.980173300165788
0,8.545785851319437,5.257061097054796,6.682513431984058,7.989190396002603,1.985173737792472
0,6.225858531138548,6.845718007094956,4.072756475816662,6.378470200143617,1.990174175419149
0,3.555931443828133,4.484375241161913,5.542998918048703,11.177750316044222,1.9951746130458332
0,1.5560045935662985,7.763032802204616,7.163240761003007,11.697030739988673,2.0001750506725173
0,3.39607798414063,9.321690692563912,5.073482006453306,3.516311467342654,2.0051754882991943
0,-3.08384838090708,-5.1096510860501505,1.3737226556218245,-0.0344075073518062,2.0101759259258785
0,-0.9237744981379872,7.359007467595816,3.453962709281491,5.144873809935418,2.0151763635525626
0,0.40629963592686824,-0.09233364553143268,0.8142021678991863,-1.7458445870357588,2.0201768011792396
0,2.4363740248303576,1.4063255753274126,1.3044410317231383,-0.0865627046709041,2.0251772388059237
0,3.286448672062858,-2.4450148692322795,2.5146793008338606,7.122719450521892,2.0301776764326007
0,1.156523580933292,0.8736450213448089,2.7149169751440128,3.672001871853022,2.035178114059285
0,3.8865987545177902,3.832305247625852,1.9451540543592614,3.4312845522751587,2.040178551685969
0,2.816674195643197,1.5909658100930637,2.965390537952128,3.910567484326547,2.045178989312646
0,3.7367499068549566,8.449626708992763,7.095626425128259,9.139850660136428,2.05017942693933
0,6.5368258903636765,16.488287944108002,7.825861714699412,16.319134071263356,2.055179864566007
0,2.3669021479760057,1.8469495144386545,3.9860964049202585,4.758417708389476,2.060180302192691
0,16.80697868099356,18.255611418010503,16.476330493370323,20.7477015611123,2.0651807398193753
0,9.62705548998055,7.18427365184081,12.126563976775566,12.696985617819875,2.0701811774460523
0,0.2271325745542708,-1.3470637880325833,-5.653203149146435,1.6162698656081216,2.0751816150727365
0,-0.9327900664425539,-11.358400906187827,-7.462970889362386,-7.224445709420465,2.0801820526994135
0,-1.43271243448214,-15.419737707069272,-7.952739248798398,-6.34516112144338,2.0851824903260976
0,5.8373654689336565,-11.171074194274162,-4.432508231824333,-5.76587638430123,2.0901829279527817
0,3.5874436422122544,-2.3224103702652235,-4.652277842166699,-10.966591511229632,2.0951833655794587
0,-2.5324779164836504,-6.233746236558101,-1.0020480830300298,-10.847306514721929,2.100183803206143
0,-0.3323992091916136,-1.0250817940597614,-2.561818957254681,-9.608021406369183,2.10518424083282
0,-2.3323202379578643,-3.9864170432750843,-2.4115904674260826,-6.5687361967900975,2.110184678459504
0,0.37775899527797097,2.0422480155782043,-7.541362615879459,-9.569450895703259,2.115185116086188
0,-1.6621615113141852,-0.45908661755522884,-5.491135404574264,-3.1001655120353844,2.120185553712865
0,-5.222081759446275,-7.100420942647867,-8.130908834940064,-3.570880054047921,2.125185991339549
0,-0.9420017506329252,-10.671754959443504,-7.210682907762455,-2.5515945295135496,2.1301864289662262
0,-4.511921486108664,-10.113088667105357,-4.440457623150201,-3.842308945855245,2.1351868665929103
0,-3.371840966805729,-4.164422063960599,-1.3802329805999367,3.2969766897765598,2.1401873042195945
0,-1.5817601933455376,-8.48575514750982,-2.460008979171137,-2.5337376296091807,2.1451877418462715
0,-7.341679166027446,-4.827087914554979,-7.489785617617523,-8.144451910903573,2.1501881794729556
0,-4.4615978847770945,3.651579638670909,-0.1295628943577492,-4.375166160737078,2.1551886170996326
0,-6.53151634904536,-1.8497524837351134,-5.839340807429672,-4.335880385268121,2.1601890547263167
0,-1.121434557765005,-2.2410842775810615,-5.729119354493482,-10.156594590114079,2.165189492353001
0,-0.6213525094458461,-6.642415738572222,-4.548898532777593,-4.627308780302312,2.170189929979678
0,-6.26127020231762,-9.983746862086226,-3.8086783390272636,-4.638022960216055,2.175190367606362
0,-2.721187634350847,2.1749223570371266,-1.338458769542692,-1.2787371336750106,2.180190805233039
0,0.6088951967962276,-0.42640807555184995,-0.6782398203043456,-3.2494513041040647,2.185191242859723
0,-0.7910217062879066,-7.977738153939772,-4.668021487078813,-10.730165474595767,2.190191680486407
0,-8.200938340863498,-6.609067871955727,-5.787803765400897,-8.420879647752058,2.1951921181130842
0,-1.9108547039496038,1.2596027770135982,-2.4675866504554826,-10.531593825426803,2.2001925557397684
0,-8.780770792149449,-8.131726199962017,-11.287370136971065,-4.352308008602202,2.2051929933664454
0,-6.460686601539132,-3.9830547954263213,-7.607154219093184,-7.163022197455773,2.2101934309931295
0,-1.720602127609142,2.4556169984652,-2.9169388902574545,-3.1837363915044956,2.2151938686198136
0,-7.22051736530389,-2.425710810152134,-3.606724143238311,-2.8044505897389724,2.2201943062464906
0,3.0495676908645675,-1.3070382130190668,-3.066509970345167,-5.2051647907326055,2.2251947438731747
0,1.8796530466423,2.921634798190687,2.6137036364227035,-3.175878992689098,2.2301951814998517
0,-1.9402612921825197,-5.019691768145269,2.6139166852035416,-0.8065931934521118,2.235195619126536
0,-1.7701753198636547,-5.471017903554112,-5.245870815895865,-1.2373073905782817,2.24019605675322
0,1.7199109693846115,2.237656400677285,1.0843411412129287,0.9719784185384792,2.245196494379897
0,3.169997581387286,-0.19366884648756172,3.7245525646810793,2.8012642365476776,2.250196932006581
0,5.640084521850409,1.0450063639957765,1.2147634626323118,-0.06944993396940641,2.255197369633258
0,5.84017179615941,4.483682041104659,7.004973842991106,2.089835909438976,2.2601978072599422
0,5.700259409229766,7.432358193614467,5.255183713334912,10.919121769035645,2.2651982448866264
0,2.860347365450107,5.4910348298989735,1.935393080794511,7.888407646677767,2.2701986825133034
0,-6.179564331207157,2.3397119577962115,1.3156019520734779,3.8276935435577766,2.2751991201399875
0,-0.4894756768955875,-0.18161041532005473,0.6658103336017708,7.126979460164725,2.2801995577666645
0,-1.4393866676263194,-6.602932282296011,-0.36398176833556484,2.6062653963998317,2.2851999953933486
0,0.3807027007734003,8.685746364046086,4.27622565246364,-2.7744486482838258,2.2902004330200327
0,1.8407924325575828,1.2244255308969885,2.6064326020696225,-3.3251626746374154,2.2952008706467097
0,0.42088253195744463,-4.116894774713641,-0.21336091366037185,3.5241233166418744,2.300201308273394
0,-0.8690269968692631,1.4717854541198503,-1.7531548890514268,4.473409324916974,2.305201745900071
0,0.7610638501898312,-0.2695337756635745,-1.2729493184594212,4.072695349386238,2.310202183526755
0,2.7911550772214646,1.1091475429139013,2.7972558038276145,3.511981388898418,2.315202621153439
0,-4.968753311733986,-12.912170583119298,-5.812539516421238,-1.3687325580540246,2.320203058780116
0,-8.768661312577544,-9.093488146407783,-11.552335273285298,-7.369446493155166,2.3252034964068002
0,-4.168568920861905,-0.5548051389250878,-2.5121314603950697,-4.6901604179413825,2.3302039340334773
0,-0.5384761316111234,3.2638784479884686,0.358071929223694,0.2991256664444868,2.3352043716601614
0,1.6716170605500391,-6.307437376727498,-5.891725097017293,-6.971588240746101,2.3402048092868455
0,-4.558289338841659,-3.038752604012309,-4.921522531415664,-2.2823021399298757,2.3452052469135225
0,-1.7681953241501103,-0.23006722457530407,0.018679634071814555,-1.74301603118146,2.3502056845402066
0,6.971899110390231,2.7186187711082446,5.068881407778136,7.83627008567063,2.3552061221668836
0,0.6419939705364778,0.4873053926140981,0.5390827980663684,-4.924443789201341,2.3602065597935677
0,-1.637910738143468,-4.254007350542766,-7.690716186824279,-11.015157655667977,2.365206997420252
0,-10.197815010161937,-7.485319448780701,-7.190515538566461,-11.355871513262882,2.370207435046929
0,-7.617718839735585,-8.66663089215629,-6.860315248377435,-11.006585360701472,2.375207872673613
0,-7.557622220440438,-11.37794167007198,-7.720115306815562,-13.427299195636406,2.38020831030029
0,-2.697525145115349,0.8507482288671149,-7.43991570373286,-2.928013014629831,2.385208747926974
0,-4.227427605984802,-6.120561183255794,-7.189716428262409,-3.9087268133211452,2.3902091855536582
0,-1.6173295948309045,-2.2918698938957784,-6.479517468823243,-2.3394405867393937,2.3952096231803353
0,2.362768896855384,4.046822109795609,2.520681186800365,-10.740154329495416,2.4002100608070194
0,-4.737132122267282,-3.2544851591844184,-3.5191204487591135,-1.4008680357314687,2.4052104984336964
0,3.952967356529729,-3.9757916877899686,-0.3389223626724951,-2.131581699069703,2.4102109360603805
0,-0.42693265799321545,-2.987097462825498,-0.028724541994594177,-3.382295312732754,2.4152113736870646
0,-2.936832157091177,-8.148402470773842,-3.5385269736756633,-4.553008869655806,2.4202118113137416
0,1.4732688679921864,1.3202933022987189,3.011670355431578,4.2862776374947,2.4252122489404258
0,1.7133704260601736,-4.231010129286313,1.31186745852759,2.0755642161969856,2.4302126865671028
0,2.8534725258768314,4.86768724903502,4.472064348727683,4.394850873826871,2.435213124193787
0,-2.7164248239265927,-3.1936145481009888,1.2622610389310707,-0.5458623824960239,2.440213561820471
0,2.973678385173444,-1.8349155060518958,-4.4475424581792105,-3.0865755458571744,2.445213999447148
0,-0.15621783835036043,0.2837843898919977,-4.4573461299483395,-6.717288609325694,2.450214437073832
0,-1.946113486070741,2.2624851545345774,-3.387149963488214,-3.28800156568783,2.455214874700509
0,-4.546008549535262,-4.348813197295202,-6.016953945527076,-6.738714407284855,2.4602153123271933
0,1.66409697986662,-0.4901106507377242,5.143241937579982,-3.7194271259688287,2.4652157499538774
0,5.464203110884804,3.7185928091580216,3.353437699663374,-4.320139713107799,2.4702161875805544
0,-6.165690147763318,-2.8427028026203427,-0.11636664555012655,-7.4208521595994625,2.4752166252072385
0,-2.725582787407271,1.0660025288800663,2.9638289154415167,0.47843554412570855,2.4802170628339155
0,-0.025474799227097722,-3.0652911813786208,5.104024395927606,1.4377234080157715,2.4852175004605996
0,1.3746338258060027,-3.196583918332711,4.444219808920147,3.0870114421544983,2.4902179380872838
0,5.304743096759103,4.872124333232779,2.964415167046837,4.086299656506625,2.4952183757139608
0,1.1448530225301206,0.2508335885980758,2.464610482545031,1.8455880607754498,2.500218813340645
0,5.324963611730297,5.139543862924175,6.914805767300302,2.974876664368041,2.505219250967322
0,7.955074872612789,6.708255171098082,5.025001032811376,3.1541654764140694,2.510219688594006
0,10.585186812918558,9.676967527560578,5.8751962900873185,4.8134545057586084,2.51522012622069
0,12.21529943962852,10.465680946081365,3.935391549603785,5.522743760896991,2.520220563847367
0,13.985412758728435,11.554395439557208,13.415586821279918,7.19203324987553,2.5252210014740513
0,17.8055267750027,12.193111019870031,13.555782114307657,10.50132298016328,2.5302214391007283
0,27.4656414917618,24.101827697722573,30.935977436739208,18.17061295843644,2.5352218767274124
0,25.85575691042541,30.67054548225318,29.966172794845658,19.029903190220505,2.5402223143540965
0,30.89587303007216,34.95926438039281,28.986368192448133,16.239193679515406,2.5452227519807735
0,39.12598984706953,38.86798439620316,34.78656363052125,18.95848442860865,2.5502231896074576
0,37.24610735467963,40.79670553038036,34.3767591070069,21.68777543802673,2.5552236272341347
0,36.216225542697686,40.5554277799221,34.176954616640856,16.967066706460884,2.5602240648608188
0,30.67634439734942,40.98415113793917,28.627150150873433,19.35635823071857,2.565224502487503
0,39.456463901404454,56.942875593486505,35.2273456979473,21.27565000574294,2.57022494011418
0,39.396584034202746,42.26160113124172,30.347541242973364,16.69494202460514,2.575225377740864
0,24.256704771568298,21.56032773139683,20.547736768008143,9.064234278562727,2.580225815367541
0,20.606826086022622,7.029055370396536,13.697932252382369,10.733526757341405,2.585226252994225
0,7.516947947453382,2.1577840223373754,8.408127673338363,4.6628194495098745,2.5902266906209093
0,6.037070323945539,4.3365136601980785,3.0983230067090637,7.222112342764855,2.5952271282475863
0,3.017193182494082,4.9952442564399515,4.738518227458223,7.4714054240948595,2.6002275658742704
0,5.127316489460588,3.303975783128946,5.498713309997564,4.500698679836286,2.6052280035009474
0,-1.0725597892144316,-0.6472917880471274,2.1489082282947267,5.039992095708106,2.6102284411276315
0,4.157564312112683,0.8814415143418932,3.4991029559065394,8.569285656864048,2.6152288787543156
0,5.837688758844678,4.680175661588296,7.339297466018949,8.988579347855238,2.6202293163809927
0,-8.432186483863585,-6.61108937512514,-7.33050826852898,-7.142126847405784,2.6252297540076768
0,-9.452061450902315,-4.232353624618169,-6.1403142750490085,-3.832832945376868,2.630230191634354
0,-9.941936176730437,-5.553617115451029,-5.460120580603291,-3.6835389624103296,2.635230629261038
0,-15.691810694953904,-9.724879875702452,-8.899927211707546,-4.704244914480898,2.640231066887722
0,-20.061685038030042,-26.45614193270713,-15.179734194175051,-12.434950817101683,2.645231504514399
0,-23.391559236911867,-29.96740331245693,-18.539541552841694,-13.125656685118148,2.650231942141083
0,-21.71143332067609,-22.10866403884225,-18.44934931117399,-11.25636253239643,2.65523237976776
0,-17.501307316325008,-20.119924133294415,-15.739157490993279,-9.627068371658963,2.6602328173944443
0,-17.921181248840295,-17.171183614951893,-12.158966112445546,-6.6877742145465335,2.6652332550211284
0,-13.941055141372885,-16.252442500979807,-13.208775194162875,-9.138480071775724,2.6702336926478054
0,-14.840929015429559,-15.073700806804608,-14.728584753425778,-10.799185953227546,2.6752341302744895
0,-9.480802891047047,-11.494958546280824,-11.098394806215552,-9.839891867904873,2.6802345679011736
0,-18.750676786926036,-22.806215731793454,-17.09820536720361,-14.0205978238278,2.6852350055278507
0,-22.25055072038169,-22.437472374149678,-21.088016449673194,-13.711303827913502,2.6902354431545348
0,-19.010424707066093,-21.398728482274965,-18.777828065295704,-11.582009885857177,2.695235880781212
0,-21.5402987607099,-20.739984063002897,-19.327640223912333,-12.632716002092916,2.700236318407896
0,-15.210172893076308,-13.33123912111341,-14.447452933502321,-6.843422179863132,2.70523675603458
0,-19.700047114052854,-8.29249365959626,-13.447266200319582,-4.754128421387699,2.710237193661257
0,-14.529921431763487,-9.663747680057993,-9.387080029120924,-2.2548347281288157,2.715237631287941
0,-2.7197958527394754,-4.565001183088217,-2.896894423455558,1.4844588989143648,2.720238068914618
0,-10.529670382279996,-16.236254168430406,-8.90670938598975,-2.5362475410381826,2.7252385065413023
0,-9.249545024797113,-13.927506634895614,-13.55652491867505,-3.2769540486551385,2.7302389441679864
0,-5.879419783903374,-16.518758580091397,-9.786341022619274,-5.6576606244207435,2.7352393817946634
0,-9.969294662396171,-9.430010000234413,-8.346157697911597,-5.708367268474242,2.7402398194213475
0,-4.009169662301817,-7.051260890226832,-7.195974943652059,-2.6190739804980434,2.7452402570480245
0,-5.109044784954148,-0.9825112439618694,-2.555792758125006,-1.359780759736229,2.7502406946747087
0,-5.758920031102551,-0.4437610547181855,4.1943888609483615,-0.7604876051260363,2.755241132301393
0,-8.158795400961568,-7.1950103154550105,-6.305430083897468,3.5688054845403308,2.76024156992807
0,-5.8286708941523955,3.4837409811060387,-4.3852495899953565,-4.63190148951126,2.765242007554754
0,-5.558546509651096,15.762492842341324,0.11493034557163856,-4.232608526019872,2.770242445181431
0,-1.3984222458425453,6.84124527525298,2.8851097259880576,-3.503315623513285,2.775242882808115
0,2.361701899301508,0.6099982860559467,-0.13471144548811112,-4.474022780161046,2.780243320434799
0,-0.8781740720196008,-6.891248119663062,-5.164533165648244,-4.464729993737292,2.785243758061476
0,5.3919498423624095,6.977506063523639,0.005644568777922104,-0.9954372616269171,2.7902441956881603
0,-2.467926355516215,-1.653739158921263,-3.584178238743846,-5.296144580864917,2.7952446333148373
0,0.03219733625003757,-4.1449837815601125,1.435998415456253,-2.2568519481712417,2.8002450709415214
0,-3.1176790804512775,-5.2862277988897075,-3.233825464804258,-3.8275593599427307,2.8052455085682055
0,-4.5075556036025155,-4.6274712051010685,-7.6036498755483395,-2.5282668122501275,2.8102459461948825
0,4.792567769022973,5.7812860059968365,0.9865251874864165,2.8710256991069407,2.8152463838215667
0,-5.387308960192901,0.3000438407752838,-1.253300271108682,-0.17968182154068502,2.8202468214482437
0,1.7828142112071326,-0.10119769446749018,0.3768737534560703,3.3596106301017596,2.825247259074928
0,-3.807062714233572,-3.1024385935355423,-4.402952733942107,-4.231096941774976,2.830247696701612
0,-0.10693973384015759,-1.8436788501850538,-1.1727797283038814,7.318195466942516,2.835248134328289
0,-1.4668168447988514,-5.3549184579804034,-0.29260722443824894,-1.552512139727277,2.840248571954973
0,1.9833059558136181,1.3138425897797275,3.587564782977186,0.9167802420816167,2.84524900958165
0,-0.2465713290460118,0.6626043000199043,1.7577362992343812,-5.293927383850706,2.850249447208334
0,-1.796448696440598,-5.868633320221637,-3.132092670516241,-0.7846350136506265,2.8552498848350183
0,2.6236738565640705,-1.8598702637763829,-0.12192212119674742,-0.5953426432413469,2.8602503224616953
0,-1.786203667091137,-0.5111065232372123,3.188247952304468,-3.6660502683572185,2.8652507600883794
0,-4.056081264447423,-6.232342090939671,-0.73158244490522,-4.6567578845418796,2.8702511977150564
0,-3.0659589324164886,-0.4435769589650421,1.3285866921974443,-3.4674654870512858,2.8752516353417406
0,-5.065836667629151,-2.4248111191177255,-3.8112446314224395,-4.83817307076447,2.8802520729684247
0,-1.3857144663620746,0.03395543702748516,-0.5110764107558974,-0.08888063017973227,2.8852525105951017
0,1.5744076754157703,3.6227227180109702,1.6790913593216317,4.590411840468374,2.890252948221786
0,4.074529761865586,2.5814907323289873,3.8492586839719376,0.34970434697356095,2.895253385848463
0,-2.5553482029278234,-1.159740511696062,-0.6805744317574851,0.038996894984708985,2.900253823475147
0,-8.385226214945845,-8.520971005844412,-13.15040798290129,-2.921710509956456,2.905254261101831
0,-3.495104269959445,-8.272200741680951,-12.140241964179499,-9.742417862215662,2.910254698728508
0,-11.784982363238745,-12.623429710168597,-9.540076369483328,-9.113125155762233,2.915255136355192
0,-10.514860489356069,-12.404657901370625,-16.859911191603413,-9.04383238386173,2.920255573981869
0,-9.264738642004168,-7.735885304286627,-9.389746422135989,-9.914539538911201,2.9252560116085533
0,-8.30461681390721,-3.2071119068972465,-11.42958205145889,-7.6452466124080924,2.9302564492352374
0,-4.614494996893224,-1.4683376964349537,-6.82941806881691,-5.9459535949895725,2.9352568868619144
0,5.495626817881961,-1.4595626597060087,0.45074553745489987,3.61333952340574,2.9402573244885986
0,-0.65425136043992,1.499213216688098,4.230908779573656,5.342632753182415,2.9452577621152756
0,-0.6141295227359398,-0.6420100537779585,-1.4889283301218095,-2.8580738953082796,2.9502581997419597
0,-5.734007659914317,-1.6232324576139696,-5.658765779343082,-1.4587804118835506,2.955258637368644
0,-7.063885762696648,3.0455460186865917,1.311396444275402,3.760513213604291,2.960259074995321
0,-3.8437638213797607,0.12432538862149944,-0.5484416467126629,2.769806991284864,2.965259512622005
0,-2.8636418257483998,-3.9368943343584863,-6.318280039601209,1.3191009311278907,2.970259950248682
0,6.196480234791686,4.3518868631979695,-0.5581187215063691,6.688395042846373,2.975260387875366
0,8.316602370874762,9.090668994703268,3.4320423206859125,2.6676893358356146,2.98026082550205
0,1.4367245927901147,-2.9705479266976056,0.9822031001778404,5.096983819101695,2.985261263128727
0,3.5768469103344502,5.448236111765455,9.862363630013082,8.476278501206533,2.9902617007554113
0,8.33696933287185,5.267021122558639,5.702523922846263,4.435573390186848,2.9952621383820883
0,10.887091869282155,5.1458071178064895,8.04268399073843,-0.3251315064767698,3.0002625760087724
0,9.567214527721479,10.004594109140175,7.892843845050189,4.014163818280353,3.0052630136354566
0,2.4973373154743523,11.233382107529504,3.523003496438837,5.04345937124663,3.0102634512621336
0,2.767460239083426,-0.257828876850472,4.423162954928474,0.7727551589172654,3.0152638888888177
0,2.147583304619466,2.9609611654783725,2.613322230049309,4.522051187461117,3.0202643265154947
0,0.9277065178754937,-1.4202477563946836,-2.0565186690130655,3.721347462738761,3.025264764142179
0,4.997829884430347,0.6585443664801428,-0.7063597332452038,5.250643990273475,3.030265201768863
0,4.757953409609754,0.537337543014764,1.5037990463587294,8.569940775157733,3.03526563939554
0,-4.811922901566314,4.456131782073044,-0.11604232116980567,3.8892378219416823,3.040266077022224
0,2.458200955723551,10.454927092320192,6.774116173136617,9.398535134559998,3.045266514648901
0,0.7183249862665967,4.013723481961975,0.0042745380517219544,4.657832716307351,3.050266952275585
0,-3.6915508051472306,1.6925209586026715,-6.615567217864353,-7.352869430080445,3.0552673899022693
0,-1.8414264136837835,2.5313195293615953,-7.52540908600724,-6.773571302069985,3.0602678275289463
0,-4.041301834336561,-6.249880798888874,-5.485251057358381,-7.274272896820648,3.0652682651556304
0,-3.4611770618266937,-0.3710800192797135,-0.17509312232749485,2.525025789068062,3.0702687027823075
0,0.5389479094196004,2.8677218752057363,0.4950647291017076,0.5143247594074337,3.0752691404089916
0,2.799073085183252,2.9965248916464424,4.305222507092823,6.253624018084366,3.0802695780356757
0,9.719198471206008,6.785329036949377,9.905380221662273,8.512923568745615,3.0852700156623527
0,9.519324072842071,8.404134317628184,7.125537882376527,1.6222234145643895,3.090270453289037
0,9.25944989472907,12.82294073957534,9.595695498096825,9.841523558148165,3.095270890915714
0,9.779575940619909,5.06174830784996,10.715853076861189,10.22082400149781,3.100271328542398
0,1.5197022133897113,-1.309442973318501,4.456010625832415,-2.549875254069966,3.105271766169082
0,4.369828715209819,5.319366899750419,8.066168151349732,2.45942579218576,3.110272203795759
0,0.019955447795059672,1.6081779304443724,6.286325659033464,3.6587271407080566,3.115272641422443
0,-0.9899175873910865,8.45699012186738,8.956483153829256,4.4580287917338275,3.12027307904912
0,0.45020961102146073,6.415803476697814,8.166640639960326,1.7773307452025175,3.1252735166758043
0,-0.8096629555959118,1.3746179970690835,4.396798120896948,5.466633000710129,3.1302739543024884
0,-0.9695352858378378,-4.746566315340023,1.0769555994386593,12.81593555744574,3.1352743919291655
0,-2.3094073782369984,-6.267749458955049,-1.992886922041036,2.6052384140003664,3.1402748295558496
0,4.750720768754046,9.111068567996876,5.277270558650176,8.464541568237957,3.1452752671825266
0,5.150849156648458,7.259887767358325,2.8674280435787765,3.773845017352797,3.1502757048092107
0,7.570977786675924,10.078708140582354,3.5775855345698426,-0.6468512419994594,3.155276142435895
0,8.371106659541791,-4.852470311542323,0.8077430331347702,2.342452786478511,3.160276580062572
0,3.051235775297491,-6.333647588671145,-3.4820994594466956,1.751757098896494,3.165277017689256
0,-2.3286348665871017,-8.944823690363146,-5.801941941908742,-5.498938308737687,3.170277455315933
0,-8.568505266894054,-10.635998615606407,-9.871784412698121,-10.439633440335832,3.175277892942617
0,-13.478375426155312,-11.537172362549658,-12.651626869652265,-10.680328299346552,3.180278330569301
0,-6.498245344184028,-9.948344928354546,-10.741469309711102,-8.38102288840274,3.185278768195978
0,-3.328115019899778,-4.179516309180758,-5.051311728786553,-6.181717209217728,3.1902792058226623
0,2.3820155484627326,-3.0606865003578445,-0.9311541218999152,-3.032411262706033,3.1952796434493393
0,5.592146362938285,-2.371855496661619,-7.980996483478059,-2.4331050491985957,3.2002800810760235
0,1.3722774254505026,-4.063023292511275,-1.5408388075215096,-2.8937985686371515,3.2052805187027076
0,-3.827591262329157,-2.524189882024774,0.23931891234932,-0.3344918206905555,3.2102809563293846
0,-3.3174596988159166,-0.4453552590316003,-1.6705233172253766,1.1648151951567993,3.2152813939560687
0,-8.277327882222064,-6.426519417104986,-6.7203654894448945,-1.215877520502959,3.2202818315827457
0,-3.807195810329263,-14.197682349473174,-6.0402075972449225,-4.2065699670392345,3.22528226920943
0,-7.557063480373314,-11.148844048689954,-4.210049633103864,-3.327262143680673,3.230282706836114
0,0.7830691109496971,5.049995493609609,3.4901084109768616,6.2620459505631745,3.235283144462791
0,-0.08679803265641595,1.3888362864515154,7.240266543207755,0.11135431676093303,3.240283582089475
0,6.143335092656752,11.617678338930197,5.7504247715993175,2.4906629558412936,3.245284019716152
0,7.883468490569243,5.19652165971983,2.8805831036829317,3.059971868517318,3.250284457342836
0,12.493602164266278,19.105366256763066,13.210741546428206,5.419281055262758,3.2552848949695203
0,10.82373611612639,13.544212136973032,11.600900106125927,3.778590516223293,3.2602853325961973
0,1.2638703475699764,0.7030593060341958,2.701058788179176,-0.2520997488335174,3.2652857702228815
0,-1.8159951407488142,-6.028092231341293,-2.2887824028249266,0.5872102595737724,3.2702862078495585
0,-5.345860348485585,2.5507575292177798,-0.21862346270117916,1.7065205407861828,3.2752866454762426
0,0.2942747248025193,4.249608592116239,2.2315356126722863,9.875831094004702,3.2802870831029267
0,-1.7455899202068588,2.9584609616857724,0.4816948274089359,2.5751419180990185,3.2852875207296037
0,-5.725454282627245,3.0473146419871036,1.301854185539079,-1.2555469885220742,3.290287958356288
0,-0.29531836134349193,2.7361696367635195,4.312013690965013,2.8037643722187218,3.295288395982965
0,-5.995182154944999,0.3450259494793674,0.8721733474055529,0.17307599825242864,3.300288833609649
0,-3.7650456616926755,-0.2561164165991403,-1.0976668416271145,-0.8676121125764048,3.305289271236333
0,-0.2449088794928932,2.9927425416839544,0.28249312725948283,5.421700037497968,3.31028970886301
0,5.925228194003452,9.441602827338736,3.9226532574202286,2.3310124461054103,3.3152901464896942
0,6.635365561097691,14.590464442951443,7.122813552081402,5.830325110605631,3.3202905841163712
0,3.815503223718605,11.209327390268292,5.922974014116433,4.529638027976847,3.3252910217430554
0,1.8256411833063886,8.938191669926901,6.48313464585757,5.438951194751088,3.3302914593697395
0,2.4757794409035916,3.6270572815034114,4.7332954490372465,6.278264606968123,3.3352918969964165
0,3.0059179972756893,6.61592422375681,4.673456424819055,6.3375782601317185,3.3402923346231006
0,2.636056852939496,6.154792494828823,3.403617573865632,0.5568921491985699,3.3452927722497847
0,3.306196008146506,6.483662092287674,7.773778896383575,4.446206268667261,3.3502932098764617
0,5.726335462848903,2.2425330131220864,8.303940392073587,7.735520612668089,3.355293647503146
0,2.666475216639395,7.931405253790534,-0.29589793996017094,8.564835174876244,3.360294085129823
0,2.0166152687278194,-4.369721189691981,-0.3057361011181864,11.58414994829365,3.365294522756507
0,-6.023244381945183,-15.050846321496316,-7.955574092982964,0.7734649251070218,3.370294960383191
0,-9.763103736406547,-11.211970145405976,-9.82541191691602,-7.237219903150452,3.375295398009868
0,0.34703720470712385,-10.153092664261116,-5.405249573706556,-8.12790454508237,3.3802958356365522
0,-0.9928215587525024,-0.514213879849351,1.1149129365356794,-4.088589008894507,3.3852962732632292
0,-3.772680026624092,-2.4753337931950514,-1.5949243858321296,-4.27927330219861,3.3902967108899134
0,2.207461801419343,2.27354759505846,-0.9747615402571549,-2.1999574320974173,3.3952971485165975
0,-4.06239607416526,-3.167569715603955,-6.5245985260579875,-3.780641405311777,3.4002975861432745
0,-2.492253652788914,-1.7286857256290684,-4.674435342299552,-9.821325228201156,3.4052980237699586
0,-11.46211093361395,-5.159800435314884,-4.014271987636198,-10.362008906605071,3.4102984613966356
0,-10.191967915286664,-4.460913844680121,-9.694108460228982,-7.342692445601753,3.4152988990233197
0,-3.311824595679681,-6.132025953347483,-4.783944757675677,-2.8433758494326287,3.420299336650004
0,-4.641680971889932,-10.573136760427277,-9.363780876918504,-10.48405912162572,3.425299774276681
0,-8.171537040413241,-9.244246264351789,-8.173616814187191,-8.96474226505337,3.430300211903365
0,-3.971392797209829,-8.815354462711463,-6.463452564956191,-7.1254252818293216,3.435300649530042
0,-7.741248237664758,-5.216461352218421,-8.413288123934903,-10.986108173226826,3.440301087156726
0,2.0288966433869584,-3.1275669288267807,-4.263123485107968,-12.48679093963315,3.4453015247834102
0,1.29904185148038,0.521328812043588,-5.37295864181268,-13.197473580421736,3.4503019624100872
0,-3.960812607717601,-5.959774124708345,-10.922793586785897,-8.988156093822864,3.4553024000367714
0,-7.4106667284484065,-8.460875733898447,-7.842628312101163,-10.398838476931573,3.4603028376634484
0,0.5094794953248517,5.668023990053425,3.2175371908953094,6.180479274098467,3.4653032752901325
0,4.339626069959402,-0.5730749469567052,5.697702931330165,4.149797163616833,3.4703037129168166
0,0.7497730018877489,-5.044172538952316,1.7778689183199263,4.229115195928544,3.4753041505434936
0,-0.21007970259940115,2.234731220086504,-0.8519648392954623,7.5184333749510515,3.4803045881701777
0,1.5300679626473679,3.7736363362659735,1.7582016671107636,1.9677517041135801,3.4853050257968547
0,-1.0797839962901483,0.23254281564387402,1.6483684460649852,2.537070186379087,3.490305463423539
0,0.22036442663987604,-2.2085493358759978,-1.1314644939927305,-5.023611175601406,3.495305901050223
0,-4.65948676248432,2.380359887535357,3.308702855286054,-1.5942923792311579,3.5003063386769
0,-1.6093375574527018,5.5492704916676505,1.7588705021490396,3.955026578211033,3.505306776303584
0,9.11081204810042,6.36818248210182,8.919038454644555,7.804345699467662,3.510307213930261
0,6.640962060448825,7.707095863969465,5.9492067204286245,0.6336649870122806,3.5153076515569452
0,0.8311124854346339,3.766010641809457,2.0393753066114115,0.7329844429268274,3.5203080891836294
0,2.8712633284075446,5.8249268195632435,0.29954421980628343,2.392304069023572,3.5253085268103064
0,3.5414145943785713,5.663844400631686,-2.760286533636686,-2.288376133019301,3.5303089644369905
0,-4.598433711866298,4.792763387897204,-2.630116947382421,-1.629056161567018,3.5353094020636675
0,0.1817184143670264,-4.978316216215952,-5.259947014918159,0.05026398507541291,3.5403098396903516
0,1.3018709778237596,0.8406055904846981,2.460223270543959,-2.39041569128302,3.5453102773170357
0,0.8620239832954926,4.109528810175842,-2.009606083983923,0.5489048112733195,3.5503107149437128
0,-1.7078225644597242,-2.0015465549917932,-0.7794350713800806,-1.6017745052475414,3.555311152570397
0,-9.727668660648524,-7.182620502915246,-1.4192636844516646,-3.992453638736406,3.560311590197074
0,-3.987514300181399,-4.063693031324365,-2.499091915891337,-0.6431325869232419,3.565312027823758
0,0.03264052251880445,-1.3547641375551678,2.8810802417320427,3.2761886526392137,3.570312465450442
0,5.192795813388898,-1.5258338185663296,-2.7187472040708918,-5.98448991751468,3.575312903077119
0,-1.8570484215927232,1.7030979289027464,-1.6885742457501773,-8.755168294731195,3.5803133407038032
0,1.3831078234223069,-1.4979688918063996,-0.3984008756687235,-4.285846475974595,3.5853137783304803
0,0.6032645541859927,-0.24903427733095776,-2.6582270860512316,-5.586524457625153,3.5903142159571644
0,1.0834217763926723,1.72990177570999,-0.808052868980882,-0.337202235518815,3.5953146535838485
0,-1.076420504328087,-2.6111607292936365,2.962121783575982,-0.2278798051202323,3.6003150912105255
0,2.423737717602249,3.927778211039338,0.26229687967803617,0.5814428382824122,3.6053155288372096
0,2.363896447698025,9.176718599993928,4.262472427278068,3.4707656994162406,3.6103159664638866
0,-0.8559443086475166,-5.774339559424018,-1.797351565839906,-11.389911217020494,3.6153164040905708
0,-1.2757845461519957,-11.075396264415177,-5.097175091998256,-5.6605879061572315,3.620316841717255
0,-1.6456242595322998,-4.176451511921909,-2.1069981434211034,-6.211264362619747,3.625317279343932
0,-2.4754634433972886,-3.517505298274079,-1.2068207120703978,2.4780594195653403,3.630317716970616
0,1.3046979077934406,1.241442380734147,2.433357210318135,1.8173834467341048,3.635318154597293
0,3.024859799666902,5.850391529540304,8.183535632026988,1.8567077252622495,3.640318592223977
0,0.6850222377965837,0.7793421525004042,1.4937145610836544,1.5960322613816382,3.6453190298506613
0,3.8051852275880806,6.408294253689858,2.263894005113587,0.7353570611536099,3.6503194674773383
0,-4.8546512257230345,-3.3727521631295807,-1.8259260285698846,-0.29531786949118244,3.6553199051040224
0,-4.014487116932115,-6.863797094361397,-5.9457455327414275,-2.495992524676721,3.6603203427306994
0,-8.264322440605953,-5.1248405362480085,-15.225564499936413,-3.0166668984646794,3.6653207803573835
0,-3.3141571908485727,-1.8158824846022819,-6.825382922029065,-4.797340984720184,3.6703212179840676
0,-6.353991361214784,3.763077065159272,-3.165200789996881,-5.558014776984906,3.6753216556107446
0,0.7061750552371633,2.562038117745675,0.11498190591618118,0.0813117315982283,3.6803220932374288
0,7.226342065751111,-0.31899932225658256,3.345165175816694,-1.9093614517658253,3.6853225308641058
0,0.5865096775408376,2.609964749556825,0.055349029844420805,-5.43003431963101,3.69032296849079
0,1.0066778975565747,-0.7710696625424096,-2.214466521955481,-9.520706864259417,3.695323406117474
0,-3.793153267453635,-4.062102554341956,-1.0242814695601354,-4.53137907740939,3.700323843744151
0,-6.192983810707368,-7.663133921517642,-6.684095802823491,-2.6520509502211076,3.705324281370835
0,0.5471862748354328,-4.874163759377596,-8.263909511294534,3.637277526638094,3.710324718997512
0,-0.06264300348496818,1.0348079372658134,7.886277415912724,10.17660636261558,3.7153251566241963
0,-8.342471638122404,0.783781173959762,-3.6335350100133064,1.3259355668620372,3.7203255942508804
0,-1.1222996212940943,5.022755956329426,-2.0333467778302055,-1.4647348519392653,3.7253260318775574
0,4.207873055087803,5.831732289817713,8.486842123692416,8.90459511455792,3.7303264695042415
0,1.3180463992447395,2.7307101795002233,4.267031705668096,1.0639254744357787,3.7353269071309185
0,-5.241779580677841,4.989689630015741,2.8872219788504396,0.9232562354473037,3.7403273447576026
0,-2.0216048765376193,-1.4013293543829557,1.3374129535638606,4.822587405046863,3.7453277823842868
0,-3.1714294799900795,-8.372346769641291,-2.4623953601451563,0.15191899045659285,3.7503282200109638
0,0.34874661757687353,-0.9933626115824801,-1.6322029523058865,4.4812509986625315,3.755328657637648
0,-4.0210765750105395,1.0056231242983633,-0.8820098128624635,-2.4994165635718075,3.760329095264325
0,6.47910095120896,0.7446104427255743,3.8581840683506208,-3.9200836895949305,3.765329532891009
0,-4.470720794776491,-2.2164006515426293,2.068378701478691,-0.7807503726738804,3.770329970517693
0,1.739458195978838,-5.407410153707049,-1.0814259034858722,1.2785833941123068,3.77533040814437
0,4.549637932380343,-1.4584180587706164,0.5687702633078067,5.007917617762173,3.7803308457710543
0,-3.100181576752191,8.610575638493298,8.008967211614197,7.847252305100685,3.7853312833977313
0,4.269999677268649,3.209570943280503,6.28916495094634,1.9565874625405235,3.7903317210244154
0,6.990181702976194,8.15856786041328,5.329363490333319,6.575923095990272,3.7953321586510995
0,0.8203645086199159,-0.2824336058015133,-0.1604371617538758,0.7152592109009406,3.8003325962777765
0,0.26054810208725543,1.5565665485119544,0.509763002760375,1.1745958123633806,3.8053330339044606
0,0.060732491033649805,-8.21443167296606,1.7099639917665939,2.053932905229142,3.8103334715311377
0,2.080917683026893,-1.155428266448133,2.6001658130504883,10.593270494134904,3.815333909157822
0,-3.0988963144093042,-3.316423227834698,0.10036847426039297,0.39260858334899695,3.820334346784506
0,2.98129050622609,8.982583447232965,5.350571982869362,4.091947176661147,3.825334784411183
0,4.231478152398467,2.3215917630797107,10.080776346081421,4.401286277449824,3.830335222037867
0,3.5516666314024588,3.920601723709787,5.030981570611796,3.7206258887401455,3.835335659664544
0,4.731855950208065,9.90961333268808,3.961187662527716,4.629966013175603,3.840336097291228
0,2.7020461154043214,0.948626593078246,-5.238605372627298,-3.1406933469619043,3.8453365349179123
0,-0.02776286677194756,-0.21235849254959538,-1.2883975295057328,2.5286478103840397,3.8503369725445893
0,-0.12757099031684982,-3.7933419218969417,-3.058188802642939,-0.41201051280989187,3.8553374101712734
0,-7.027378249275197,-6.864323692606745,-8.217979186301097,-4.252668314575147,3.8603378477979504
0,1.7128153624586104,-3.5053038019957015,-1.3977686743589972,-0.8333255928619556,3.8653382854246345
0,1.7730098511970311,-3.3462822469299764,0.0024427397229624115,-4.88398234542055,3.8703387230513187
0,2.173205223305997,11.002740976056652,3.3926550627310648,2.3753614302398476,3.8753391606779957
0,7.593401484987984,11.811765870340238,11.082868301387297,2.474705736761662,3.88033959830468
0,5.043598642097645,6.620792438669877,9.143082461972082,3.284050576744333,3.885340035931357
0,1.2137967000173269,3.9398206829299585,4.383297550029245,3.443395952567819,3.890340473558041
0,7.263995663674105,2.918850604295295,2.3135135703556786,0.6327418663297092,3.895340911184725
0,1.9441955375927336,6.087882203455108,0.7937305272393809,-1.5379116800992902,3.900341348811402
0,8.314396325874148,4.5969154806792165,5.853948424664917,1.531435315052714,3.905341786438086
0,-1.0354019678324953,8.24595043575867,1.8741672663519422,-3.199217146440423,3.910342224064763
0,-0.9251993402413707,3.4849870679276806,1.7343870557149619,-2.5598690627336724,3.9153426616914473
0,-3.124995788202984,6.644025375845653,0.884607795906498,-3.6405204318085813,3.9203430993181314
0,-3.7247913084598645,5.473065357620201,-1.1451705100812495,-5.141171251364648,3.9253435369448084
0,2.9554141024614804,7.382107010803398,4.205052140662139,-0.13182151876057818,3.9303439745714925
0,8.215620448129355,9.491150332326399,10.635275750887264,7.587528768894009,3.9353444121981696
0,9.335827731857748,-3.1798046815343675,9.545500322897466,2.8768796144393254,3.9403448498248537
0,12.016035956310326,1.1192419650077654,8.405725858229166,6.976231020360462,3.945345287451538
0,2.256245123285978,-5.431709732413922,-4.08404764239557,-3.684417011294031,3.950345725078215
0,0.6564552338074094,-7.702659778008747,1.096179821235905,-3.2150644787373963,3.955346162704899
0,0.8266662884452296,-1.6236081755977398,0.2264082491917238,-3.605711380135427,3.960346600331576
0,9.466878287539435,10.82544507137837,6.90663764150298,6.613642286558315,3.96534703795826
0,10.037091231079293,9.61449995943655,7.506867997975948,6.36299652342287,3.970347475584944
0,-0.9526948815548535,-0.6364435154451475,0.4570993179673629,2.1323513322351824,3.975347913211621
0,-10.002480051501523,-2.167385357865234,-3.8326683995994393,-1.0182932856450717,3.9803483508383053
0,-0.18226427992064537,3.551674427332192,-3.932435155922684,-0.08893732910600374,3.9853487884649823
0,0.7179524323546617,2.590735835237219,-1.6322009520133505,-4.679580797058543,3.9903492260916664
0,-1.6218299152595466,5.569798860769229,-0.44196578860686975,-0.9502236882787735,3.9953496637183505
0,0.19838867672935503,17.18886349843998,8.168270333703877,7.419133998614455,4.0003501013450276
0,-13.021391792068265,-11.302070257877078,-8.781492585741788,-10.391507734965922,4.005350538971712
0,-10.611171321632487,-17.90300241470335,-12.28125454759263,-22.722148887434876,4.010350976598389
0,-9.3409499111479,-10.823932978098064,-6.031015552037496,-13.102789456369633,4.015351414225073
0,-1.1707275588601087,-8.66486195297955,-3.5807755984836986,-9.003429437935631,4.020351851851757
0,-0.15050426230695507,-5.705789343120552,-4.920534685647843,-5.604068826949682,4.025352289478434
0,-4.690280018659326,-6.356715151426444,-5.640292811741349,-4.464707617278659,4.030352727105118
0,-6.0400548248459875,4.372360619810414,-4.930049974503173,-3.785345802153908,4.035353164731802
0,-4.619828677438412,-2.438562031369863,-7.8898061711570495,-4.445983374333181,4.040353602358479
0,-0.6296015725557177,-5.6894831068034,-6.249561398349935,2.943379673797262,4.045354039985163
0,-2.6993735059413413,-5.100402608135389,-4.959315652103334,3.2227433500416245,4.05035447761184
0,4.110855526874191,2.348679463339614,3.2409310721133284,5.472107662116105,4.055354915238524
0,4.451085530376119,5.18776310657786,4.301178779106411,10.681472617376297,4.0603553528652085
0,-6.23868349110258,3.916848320458142,1.6714274736073147,3.5608382225996897,4.065355790491886
0,3.5015484666566423,5.435935103515988,3.6716771600795832,10.180204483872034,4.07035622811857
0,-2.958218592101297,-5.994976546093476,-1.7780721572780758,3.219571406588038,4.075356665745247
0,-2.8979846630444963,-4.4158866303675675,-0.6078204744205553,3.4389389955194956,4.080357103371931
0,6.162250258252595,5.773204848831794,1.9024322126651787,7.07830725492413,4.085357540998615
0,-1.2375138237705974,13.772297889692183,5.772685907954957,6.2776761885830945,4.090357978625292
0,1.7527230952086983,-2.4486075099859135,1.2529406152316853,5.6470457997283745,4.095358416251976
0,1.7729610193723833,-5.829511352923956,2.423196337979472,4.196416091006242,4.100358853878653
0,-3.766800047189259,-7.250413641938365,-6.566546920534005,-3.39421293542078,4.105359291505337
0,-11.116560100326414,-9.621314379421232,-9.00628915698079,-1.2248412776290896,4.110359729132021
0,-8.936319135480776,-12.992213567030028,-10.716030367575337,-2.835468933660591,4.115360166758698
0,-5.416077147356022,-1.9431112055304585,-8.73577054774318,2.313904098599653,4.120360604385382
0,-4.205834129878484,-3.0840072948689583,-5.545509692014095,-2.5267221786203655,4.125361042012059
0,-7.495590076342503,-3.714901834448235,-6.35524779410758,-6.317347763000633,4.130361479638744
0,-2.525344979505915,-0.345794823339615,-3.534984847087155,-6.217972651976247,4.135361917265428
0,-1.1350988316482387,1.9733137396049099,-1.3347208435019513,-0.5285968425494505,4.140362354892105
0,-6.564851624680772,-10.50757614432912,-3.664455775527247,4.120779668661651,4.145362792518789
0,-8.744603350153369,-13.738464473557428,-6.4341896350380665,-1.389843114843773,4.150363230145466
0,-4.91435399909019,-3.619351245801525,-6.683922413522894,-2.3204651896183215,4.15536366777215
0,-3.06410356189098,-0.7402364579444997,-3.2936541019551115,1.1689134477884053,4.160364105398834
0,-0.983852028442321,3.0388798936609214,3.9666153091697174,2.908292800874149,4.165364543025511
0,5.766400611643325,-1.4820021872042146,5.476885829549901,5.427672873055069,4.170364980652195
0,1.3266543687446435,-4.182882696768012,-5.382842531241655,7.717053667447587,4.175365418278872
0,1.2869092530322908,7.746238368780497,4.137430236197983,6.88643518666208,4.180365855905556
