labels,F4,F3,Fz,Cz,timestamps
0,-1724.85,-945.44,-3083.26,59.27,-2.0001750506725138
0,-1732.07,-950.51,-3082.92,57.11,-1.9951746130458332
0,-1727.37,-946.05,-3080.13,58.7,-1.9901741754191526
0,-1731.57,-942.91,-3084.08,58.48,-1.9851737377924685
0,-1729.74,-930.58,-3082.98,53.31,-1.980173300165788
0,-1725.46,-937.42,-3075.52,60.42,-1.9751728625391074
0,-1723.26,-938.07,-3079.92,61.05,-1.9701724249124268
0,-1722.54,-937.14,-3077.79,55.9,-1.9651719872857463
0,-1719.82,-939.26,-3080.48,58.75,-1.9601715496590622
0,-1716.13,-925.96,-3073.03,65.47,-1.9551711120323816
0,-1724.71,-928.45,-3075.18,63.53,-1.950170674405701
0,-1717.85,-932.3,-3073.71,68.79,-1.9451702367790205
0,-1720.44,-923.28,-3069.1,68.68,-1.94016979915234
0,-1717.23,-916.41,-3068.21,65.4,-1.9351693615256558
0,-1717.89,-934.42,-3068.38,65.27,-1.9301689238989752
0,-1722.37,-928.67,-3074.39,57.0,-1.9251684862722946
0,-1720.95,-932.92,-3070.7,62.16,-1.920168048645614
0,-1718.53,-931.24,-3070.01,60.36,-1.9151676110189335
0,-1720.93,-939.09,-3072.61,55.9,-1.9101671733922494
0,-1721.87,-933.88,-3075.28,56.35,-1.9051667357655688
0,-1718.21,-926.08,-3065.97,60.17,-1.9001662981388883
0,-1716.52,-933.28,-3069.03,66.13,-1.8951658605122077
0,-1718.53,-932.17,-3072.03,63.76,-1.8901654228855271
0,-1715.0,-934.6,-3072.33,63.48,-1.885164985258843
0,-1713.09,-934.71,-3073.21,59.14,-1.8801645476321625
0,-1720.17,-931.39,-3068.98,65.28,-1.8751641100054819
0,-1719.14,-927.44,-3069.95,67.9,-1.8701636723788013
0,-1724.66,-936.38,-3070.39,61.71,-1.8651632347521172
0,-1725.39,-934.05,-3076.99,57.3,-1.8601627971254366
0,-1728.06,-928.25,-3075.29,58.58,-1.855162359498756
0,-1722.47,-931.06,-3075.85,58.59,-1.8501619218720755
0,-1726.48,-942.02,-3077.56,59.27,-1.845161484245395
0,-1725.63,-937.32,-3079.39,57.53,-1.8401610466187108
0,-1729.66,-934.53,-3077.52,52.85,-1.8351606089920303
0,-1724.03,-940.11,-3080.74,55.56,-1.8301601713653497
0,-1732.51,-941.26,-3081.15,59.92,-1.8251597337386691
0,-1727.63,-940.4,-3082.11,57.48,-1.8201592961119886
0,-1722.88,-935.24,-3079.97,55.64,-1.8151588584853044
0,-1720.83,-926.15,-3075.94,54.72,-1.8101584208586239
0,-1725.58,-932.84,-3074.36,57.74,-1.8051579832319433
0,-1723.14,-935.92,-3076.15,53.53,-1.8001575456052628
0,-1726.48,-947.36,-3080.66,57.35,-1.7951571079785822
0,-1730.31,-940.38,-3081.42,55.67,-1.790156670351898
0,-1727.73,-935.43,-3080.6,58.63,-1.7851562327252175
0,-1724.4,-935.86,-3080.46,60.65,-1.780155795098537
0,-1722.31,-930.06,-3074.15,63.23,-1.7751553574718564
0,-1723.68,-938.66,-3082.08,59.08,-1.7701549198451758
0,-1728.07,-932.82,-3082.61,55.3,-1.7651544822184917
0,-1728.05,-936.41,-3084.85,52.21,-1.7601540445918111
0,-1722.33,-939.56,-3077.84,49.9,-1.7551536069651306
0,-1721.97,-927.54,-3078.05,54.97,-1.75015316933845
0,-1730.77,-929.36,-3078.87,50.2,-1.7451527317117694
0,-1724.18,-943.26,-3080.02,53.89,-1.7401522940850853
0,-1730.93,-936.53,-3084.24,56.28,-1.7351518564584048
0,-1730.65,-937.22,-3084.16,53.53,-1.7301514188317242
0,-1725.83,-937.13,-3075.33,61.67,-1.7251509812050436
0,-1723.13,-926.67,-3075.28,61.99,-1.720150543578363
0,-1722.12,-928.34,-3072.01,59.72,-1.715150105951679
0,-1721.4,-928.87,-3071.65,65.21,-1.7101496683249984
0,-1722.55,-926.23,-3074.27,63.24,-1.7051492306983178
0,-1719.28,-930.45,-3072.95,66.97,-1.7001487930716372
0,-1722.1,-928.5,-3073.91,66.17,-1.6951483554449567
0,-1730.18,-944.61,-3080.26,58.54,-1.6901479178182726
0,-1725.85,-937.67,-3083.01,60.35,-1.685147480191592
0,-1726.61,-937.99,-3083.0,53.83,-1.6801470425649114
0,-1729.03,-937.44,-3079.86,51.36,-1.6751466049382309
0,-1728.98,-947.39,-3085.31,50.08,-1.6701461673115503
0,-1731.56,-942.14,-3086.51,48.38,-1.6651457296848662
0,-1728.84,-940.51,-3076.87,52.36,-1.6601452920581856
0,-1723.0,-937.53,-3078.62,52.76,-1.655144854431505
0,-1731.68,-943.76,-3082.45,56.69,-1.6501444168048245
0,-1726.69,-942.61,-3080.68,54.2,-1.645143979178144
0,-1725.39,-940.7,-3080.64,55.46,-1.6401435415514598
0,-1727.78,-932.65,-3077.4,56.75,-1.6351431039247792
0,-1722.87,-933.98,-3074.17,60.48,-1.6301426662980987
0,-1720.12,-932.98,-3072.07,62.65,-1.625142228671418
0,-1715.88,-933.57,-3066.99,65.14,-1.6201417910447375
0,-1721.43,-928.77,-3068.96,60.21,-1.6151413534180534
0,-1723.7,-929.85,-3071.21,64.78,-1.6101409157913729
0,-1719.95,-926.37,-3068.77,61.33,-1.6051404781646923
0,-1717.01,-929.02,-3071.86,59.06,-1.6001400405380117
0,-1722.84,-938.22,-3078.35,59.03,-1.5951396029113312
0,-1729.34,-937.62,-3085.6,56.99,-1.590139165284647
0,-1723.6,-942.71,-3075.79,60.23,-1.5851387276579665
0,-1731.89,-941.4,-3082.32,59.08,-1.580138290031286
0,-1729.48,-943.16,-3080.33,58.9,-1.5751378524046054
0,-1732.06,-937.3,-3080.45,61.66,-1.5701374147779248
0,-1725.79,-932.82,-3080.35,57.7,-1.5651369771512407
0,-1735.09,-942.38,-3088.41,53.22,-1.56013653952456
0,-1730.22,-929.43,-3080.2,54.05,-1.5551361018978795
0,-1730.64,-924.66,-3075.68,56.6,-1.550135664271199
0,-1724.11,-927.23,-3072.43,60.9,-1.5451352266445184
0,-1722.37,-935.41,-3077.75,56.77,-1.5401347890178343
0,-1719.65,-932.91,-3075.81,54.9,-1.5351343513911537
0,-1719.17,-936.22,-3073.2,56.76,-1.5301339137644732
0,-1720.13,-920.12,-3071.36,64.88,-1.5251334761377926
0,-1718.42,-925.28,-3071.95,51.12,-1.5201330385111085
0,-1726.19,-946.41,-3086.04,51.12,-1.515132600884428
0,-1734.2,-944.14,-3089.1,55.06,-1.5101321632577474
0,-1734.54,-941.89,-3087.28,52.31,-1.5051317256310668
0,-1728.19,-932.82,-3080.7,51.06,-1.5001312880043862
0,-1727.87,-936.92,-3080.71,50.45,-1.495130850377702
0,-1727.5,-933.0,-3076.49,49.68,-1.4901304127510215
0,-1726.3,-936.82,-3077.87,52.57,-1.485129975124341
0,-1725.0,-934.54,-3077.43,60.43,-1.4801295374976604
0,-1729.25,-939.13,-3079.49,60.33,-1.4751290998709798
0,-1721.92,-933.98,-3078.64,55.8,-1.4701286622442957
0,-1723.18,-938.36,-3077.72,61.27,-1.4651282246176152
0,-1722.64,-932.91,-3074.55,64.46,-1.4601277869909346
0,-1721.3,-930.89,-3075.24,69.73,-1.455127349364254
0,-1721.68,-934.15,-3075.29,62.0,-1.4501269117375735
0,-1722.97,-935.02,-3075.1,62.53,-1.4451264741108893
0,-1728.74,-948.17,-3084.49,58.67,-1.4401260364842088
0,-1725.06,-945.41,-3084.27,59.52,-1.4351255988575282
0,-1728.4,-943.09,-3082.26,51.76,-1.4301251612308477
0,-1727.56,-946.87,-3083.78,60.7,-1.425124723604167
0,-1723.6,-937.94,-3078.88,60.42,-1.420124285977483
0,-1723.43,-935.75,-3080.43,52.25,-1.4151238483508024
0,-1727.45,-934.52,-3080.03,50.71,-1.4101234107241218
0,-1724.42,-940.35,-3077.75,53.06,-1.4051229730974413
0,-1721.26,-930.36,-3074.33,56.49,-1.4001225354707607
0,-1723.98,-939.2,-3080.71,58.1,-1.3951220978440766
0,-1732.72,-947.67,-3080.35,54.71,-1.390121660217396
0,-1729.8,-942.12,-3080.48,58.25,-1.3851212225907155
0,-1724.14,-941.89,-3077.73,56.34,-1.380120784964035
0,-1731.21,-938.8,-3086.5,51.84,-1.3751203473373543
0,-1726.63,-941.15,-3086.0,57.67,-1.3701199097106702
0,-1726.84,-936.3,-3082.23,58.97,-1.3651194720839896
0,-1725.54,-941.6,-3082.95,60.27,-1.360119034457309
0,-1729.68,-949.78,-3088.25,50.84,-1.3551185968306285
0,-1733.86,-944.66,-3087.21,56.67,-1.350118159203948
0,-1740.81,-945.73,-3089.2,49.91,-1.3451177215772638
0,-1739.4,-949.52,-3096.28,50.09,-1.3401172839505833
0,-1737.53,-941.83,-3089.3,53.84,-1.3351168463239027
0,-1733.26,-945.63,-3082.34,56.24,-1.3301164086972221
0,-1729.72,-946.89,-3081.54,47.62,-1.3251159710705416
0,-1725.87,-942.59,-3083.73,54.84,-1.3201155334438575
0,-1726.32,-931.95,-3079.27,55.76,-1.315115095817177
0,-1729.32,-937.02,-3076.62,56.81,-1.3101146581904963
0,-1722.1,-927.28,-3072.24,63.51,-1.3051142205638158
0,-1720.9,-918.68,-3073.84,63.98,-1.3001137829371352
0,-1723.75,-929.22,-3071.92,68.28,-1.295113345310451
0,-1723.96,-934.35,-3075.79,67.44,-1.2901129076837705
0,-1730.44,-939.78,-3078.53,58.17,-1.28511247005709
0,-1729.55,-931.84,-3073.23,56.78,-1.2801120324304094
0,-1727.36,-926.42,-3077.69,50.32,-1.2751115948037288
0,-1729.44,-932.49,-3082.08,48.54,-1.2701111571770447
0,-1731.51,-938.17,-3088.02,52.12,-1.2651107195503641
0,-1733.42,-934.23,-3086.51,49.58,-1.2601102819236836
0,-1730.54,-942.41,-3087.3,51.74,-1.255109844297003
0,-1734.49,-948.43,-3088.33,48.02,-1.2501094066703224
0,-1737.11,-945.31,-3087.71,48.15,-1.2451089690436383
0,-1735.25,-937.93,-3085.12,49.47,-1.2401085314169578
0,-1731.37,-926.81,-3077.78,53.21,-1.2351080937902772
0,-1727.27,-940.94,-3076.9,57.36,-1.2301076561635966
0,-1723.06,-935.07,-3072.47,62.42,-1.225107218536916
0,-1721.86,-934.72,-3073.45,64.7,-1.220106780910232
0,-1711.23,-929.48,-3064.46,72.08,-1.2151063432835514
0,-1719.45,-931.98,-3067.55,68.41,-1.2101059056568708
0,-1720.36,-931.74,-3072.79,59.14,-1.2051054680301903
0,-1716.1,-932.42,-3072.22,63.62,-1.2001050304035061
0,-1716.18,-931.72,-3068.66,63.53,-1.1951045927768256
0,-1718.14,-937.03,-3075.06,58.49,-1.190104155150145
0,-1727.15,-931.39,-3077.47,59.36,-1.1851037175234644
0,-1730.61,-939.45,-3084.63,54.45,-1.1801032798967839
0,-1730.18,-941.9,-3084.3,56.9,-1.1751028422700998
0,-1723.99,-938.26,-3082.31,53.87,-1.1701024046434192
0,-1725.98,-940.61,-3081.3,53.87,-1.1651019670167386
0,-1722.8,-927.18,-3075.32,56.73,-1.160101529390058
0,-1727.84,-929.85,-3078.68,54.72,-1.1551010917633775
0,-1727.07,-938.24,-3079.44,56.27,-1.1501006541366934
0,-1728.3,-941.07,-3080.62,53.71,-1.1451002165100128
0,-1728.96,-939.56,-3081.64,53.24,-1.1400997788833322
0,-1718.84,-927.63,-3081.76,60.26,-1.1350993412566517
0,-1723.83,-930.84,-3076.67,53.36,-1.1300989036299711
0,-1731.42,-936.45,-3079.33,51.57,-1.125098466003287
0,-1730.5,-935.57,-3077.85,56.44,-1.1200980283766064
0,-1724.44,-941.99,-3082.28,58.1,-1.1150975907499259
0,-1726.32,-939.88,-3078.55,58.39,-1.1100971531232453
0,-1719.78,-926.81,-3074.45,60.63,-1.1050967154965647
0,-1717.76,-922.7,-3069.35,60.16,-1.1000962778698806
0,-1719.17,-935.68,-3077.37,58.82,-1.0950958402432
0,-1714.47,-929.65,-3070.9,56.82,-1.0900954026165195
0,-1721.29,-934.44,-3076.73,57.55,-1.085094964989839
0,-1729.21,-935.07,-3078.91,56.41,-1.0800945273631584
0,-1727.7,-938.54,-3082.72,59.42,-1.0750940897364742
0,-1724.45,-939.38,-3081.16,52.53,-1.0700936521097937
0,-1721.9,-936.65,-3075.03,59.44,-1.0650932144831131
0,-1725.86,-926.04,-3075.03,55.75,-1.0600927768564326
0,-1723.01,-940.75,-3079.43,56.54,-1.055092339229752
0,-1726.17,-942.85,-3085.21,54.15,-1.0500919016030679
0,-1729.88,-944.64,-3089.66,49.6,-1.0450914639763873
0,-1730.06,-938.97,-3078.47,45.9,-1.0400910263497067
0,-1727.97,-940.8,-3083.4,49.17,-1.0350905887230262
0,-1733.97,-940.54,-3082.28,53.34,-1.0300901510963456
0,-1725.06,-941.4,-3081.68,53.55,-1.0250897134696615
0,-1723.87,-935.93,-3080.96,59.78,-1.020089275842981
0,-1720.83,-930.09,-3071.84,60.23,-1.0150888382163004
0,-1722.52,-922.38,-3070.46,60.02,-1.0100884005896198
0,-1726.45,-927.85,-3075.97,59.77,-1.0050879629629392
0,-1724.2,-935.83,-3071.13,56.7,-1.0000875253362551
0,-1719.39,-945.95,-3077.99,55.75,-0.9950870877095745
0,-1721.21,-938.48,-3075.99,55.72,-0.990086650082894
0,-1721.98,-926.21,-3072.56,58.42,-0.9850862124562134
0,-1726.15,-926.6,-3071.88,60.12,-0.9800857748295329
0,-1728.31,-945.37,-3078.89,53.14,-0.9750853372028487
0,-1737.27,-948.07,-3088.33,47.19,-0.9700848995761682
0,-1732.25,-939.25,-3083.28,55.22,-0.9650844619494876
0,-1727.23,-938.83,-3084.04,56.54,-0.960084024322807
0,-1740.23,-950.62,-3088.28,51.56,-0.9550835866961265
0,-1736.33,-938.81,-3082.89,53.43,-0.9500831490694424
0,-1725.38,-935.26,-3079.36,51.29,-0.9450827114427618
0,-1723.45,-922.26,-3072.51,60.88,-0.9400822738160812
0,-1723.45,-922.83,-3073.47,59.72,-0.9350818361894007
0,-1722.13,-927.96,-3071.32,58.61,-0.9300813985627201
0,-1723.32,-934.71,-3081.75,53.02,-0.925080960936036
0,-1725.94,-942.1,-3080.53,56.62,-0.9200805233093554
0,-1720.74,-941.16,-3082.98,60.15,-0.9150800856826748
0,-1716.92,-937.63,-3074.79,59.72,-0.9100796480559943
0,-1716.94,-924.91,-3074.81,60.77,-0.9050792104293137
0,-1720.48,-929.69,-3068.77,62.38,-0.9000787728026296
0,-1722.19,-928.07,-3074.96,64.14,-0.895078335175949
0,-1725.52,-934.92,-3075.34,60.32,-0.8900778975492685
0,-1722.29,-928.26,-3078.92,62.67,-0.8850774599225879
0,-1720.18,-925.33,-3073.77,62.17,-0.8800770222959073
0,-1732.95,-944.79,-3083.35,50.46,-0.8750765846692232
0,-1727.79,-941.13,-3082.38,53.77,-0.8700761470425427
0,-1723.95,-939.34,-3081.69,50.86,-0.8650757094158621
0,-1729.8,-933.19,-3075.12,53.22,-0.8600752717891815
0,-1716.96,-917.71,-3074.86,61.76,-0.8550748341624974
0,-1724.63,-924.79,-3076.06,61.12,-0.8500743965358168
0,-1720.14,-933.94,-3074.3,65.13,-0.8450739589091363
0,-1717.35,-927.32,-3072.2,67.73,-0.8400735212824557
0,-1710.7,-922.11,-3064.98,70.74,-0.8350730836557752
0,-1714.02,-929.47,-3064.69,70.02,-0.830072646029091
0,-1712.33,-927.38,-3063.24,71.85,-0.8250722084024105
0,-1717.84,-925.36,-3062.96,68.01,-0.8200717707757299
0,-1720.57,-926.34,-3068.78,63.79,-0.8150713331490493
0,-1714.95,-932.78,-3066.39,66.23,-0.8100708955223688
0,-1717.5,-926.09,-3074.48,60.7,-0.8050704578956847
0,-1721.32,-924.78,-3074.7,61.0,-0.8000700202690041
0,-1718.03,-917.1,-3066.45,63.38,-0.7950695826423235
0,-1726.86,-935.28,-3076.8,58.22,-0.790069145015643
0,-1719.88,-938.92,-3076.32,55.67,-0.7850687073889624
0,-1721.15,-938.06,-3079.66,59.72,-0.7800682697622783
0,-1718.44,-935.27,-3074.04,57.02,-0.7750678321355977
0,-1722.33,-931.55,-3074.83,55.75,-0.7700673945089171
0,-1728.79,-935.97,-3079.7,53.3,-0.7650669568822366
0,-1731.88,-937.17,-3081.37,56.67,-0.760066519255556
0,-1729.28,-945.56,-3087.19,54.62,-0.7550660816288719
0,-1732.63,-936.33,-3083.28,57.04,-0.7500656440021913
0,-1726.75,-927.47,-3077.16,58.69,-0.7450652063755108
0,-1723.35,-940.87,-3077.61,59.99,-0.7400647687488302
0,-1725.62,-940.68,-3077.6,59.91,-0.7350643311221496
0,-1718.24,-940.11,-3082.56,58.98,-0.7300638934954655
0,-1726.05,-931.51,-3082.19,56.92,-0.725063455868785
0,-1724.42,-938.64,-3081.3,57.24,-0.7200630182421044
0,-1727.5,-944.24,-3081.15,56.61,-0.7150625806154238
0,-1735.62,-941.62,-3085.21,47.65,-0.7100621429887433
0,-1728.56,-930.31,-3084.24,52.73,-0.7050617053620591
0,-1736.64,-934.79,-3086.02,48.32,-0.7000612677353786
0,-1727.68,-930.69,-3082.45,55.04,-0.695060830108698
0,-1725.65,-936.01,-3079.39,58.02,-0.6900603924820174
0,-1727.64,-935.67,-3084.19,53.64,-0.6850599548553369
0,-1722.39,-937.76,-3080.37,54.39,-0.6800595172286528
0,-1723.29,-937.33,-3075.66,60.51,-0.6750590796019722
0,-1713.52,-933.94,-3071.84,58.62,-0.6700586419752916
0,-1716.41,-930.88,-3069.07,59.88,-0.6650582043486111
0,-1723.28,-926.61,-3068.37,62.33,-0.6600577667219305
0,-1719.79,-926.86,-3067.34,60.28,-0.6550573290952464
0,-1720.86,-919.87,-3068.54,63.25,-0.6500568914685658
0,-1717.49,-921.43,-3067.19,62.83,-0.6450564538418853
0,-1713.34,-925.81,-3068.05,64.97,-0.6400560162152047
0,-1714.14,-931.3,-3066.83,63.74,-0.6350555785885241
0,-1717.14,-937.54,-3073.74,62.6,-0.63005514096184
0,-1726.54,-929.75,-3075.24,64.73,-0.6250547033351594
0,-1727.47,-946.03,-3083.49,54.89,-0.6200542657084789
0,-1720.81,-941.95,-3076.68,57.41,-0.6150538280817983
0,-1724.28,-940.45,-3078.93,59.83,-0.6100533904551177
0,-1731.19,-936.13,-3082.06,59.51,-0.6050529528284336
0,-1728.95,-936.1,-3076.94,60.62,-0.6000525152017531
0,-1731.3,-930.39,-3078.29,58.7,-0.5950520775750725
0,-1728.08,-943.52,-3081.49,50.32,-0.5900516399483919
0,-1737.31,-961.16,-3093.71,46.81,-0.5850512023217114
0,-1734.64,-952.73,-3092.05,45.16,-0.5800507646950273
0,-1723.24,-943.51,-3086.17,52.22,-0.5750503270683467
0,-1734.85,-939.6,-3088.99,49.07,-0.5700498894416661
0,-1730.93,-944.68,-3083.19,52.79,-0.5650494518149856
0,-1728.09,-934.29,-3078.6,54.18,-0.560049014188305
0,-1723.89,-944.44,-3083.86,54.18,-0.5550485765616209
0,-1722.55,-930.2,-3080.79,59.81,-0.5500481389349403
0,-1729.8,-937.99,-3083.94,51.26,-0.5450477013082597
0,-1726.42,-942.34,-3083.81,56.32,-0.5400472636815792
0,-1726.05,-946.37,-3079.32,59.5,-0.5350468260548986
0,-1725.6,-942.93,-3079.43,56.79,-0.5300463884282145
0,-1719.16,-932.85,-3074.39,57.41,-0.5250459508015339
0,-1722.95,-929.83,-3075.18,57.2,-0.5200455131748534
0,-1727.78,-935.37,-3079.03,51.51,-0.5150450755481728
0,-1724.29,-929.35,-3071.94,51.69,-0.5100446379214887
0,-1719.85,-934.82,-3077.52,53.82,-0.5050442002948081
0,-1721.0,-946.02,-3082.98,57.45,-0.5000437626681276
0,-1722.52,-945.9,-3082.33,55.22,-0.495043325041447
0,-1722.61,-935.07,-3074.13,54.19,-0.4900428874147664
0,-1724.59,-937.49,-3080.08,53.12,-0.4850424497880823
0,-1722.58,-934.29,-3081.08,63.48,-0.48004201216140174
0,-1731.18,-939.79,-3089.05,50.28,-0.4750415745347212
0,-1729.46,-930.42,-3082.99,51.59,-0.4700411369080406
0,-1725.24,-940.68,-3079.76,61.99,-0.46504069928136005
0,-1730.49,-941.32,-3080.11,59.5,-0.46004026165467593
0,-1728.08,-941.78,-3076.16,57.02,-0.45503982402799537
0,-1727.13,-933.56,-3078.85,59.56,-0.4500393864013148
0,-1736.83,-941.16,-3083.11,62.13,-0.44503894877463424
0,-1736.59,-939.64,-3082.28,58.95,-0.44003851114795367
0,-1735.37,-944.98,-3088.89,54.53,-0.43503807352126955
0,-1738.11,-939.07,-3088.23,56.59,-0.430037635894589
0,-1723.98,-936.59,-3081.16,66.33,-0.4250371982679084
0,-1732.68,-943.29,-3088.84,54.37,-0.42003676064122786
0,-1731.54,-939.43,-3081.03,60.33,-0.4150363230145473
0,-1730.87,-940.3,-3081.84,60.45,-0.4100358853878632
0,-1733.25,-935.4,-3078.21,58.94,-0.4050354477611826
0,-1722.8,-932.17,-3076.77,61.26,-0.40003501013450204
0,-1717.24,-930.32,-3066.39,66.03,-0.3950345725078215
0,-1720.56,-924.02,-3069.78,58.67,-0.3900341348811409
0,-1719.01,-934.34,-3075.76,54.27,-0.3850336972544568
0,-1726.83,-927.31,-3076.94,58.65,-0.38003325962777623
0,-1724.34,-925.31,-3073.93,58.07,-0.37503282200109567
0,-1716.55,-930.8,-3065.91,62.36,-0.3700323843744151
0,-1718.65,-923.79,-3066.5,62.52,-0.36503194674773454
0,-1718.86,-928.43,-3069.27,63.74,-0.3600315091210504
0,-1712.07,-930.95,-3072.88,66.91,-0.35503107149436985
0,-1714.68,-930.53,-3069.54,65.3,-0.3500306338676893
0,-1714.68,-924.45,-3068.6,66.59,-0.3450301962410087
0,-1724.8,-931.46,-3070.37,58.65,-0.34002975861432816
0,-1723.77,-943.79,-3081.79,53.94,-0.33502932098764404
0,-1731.02,-948.53,-3090.46,51.53,-0.3300288833609635
0,-1729.9,-938.17,-3086.07,56.35,-0.3250284457342829
0,-1737.17,-940.3,-3088.84,50.94,-0.32002800810760235
0,-1733.91,-950.56,-3091.9,44.39,-0.3150275704809218
0,-1736.86,-953.51,-3089.93,42.84,-0.31002713285423766
0,-1729.08,-943.89,-3087.14,47.63,-0.3050266952275571
0,-1731.53,-932.25,-3084.44,53.44,-0.30002625760087653
0,-1723.51,-930.28,-3073.98,57.95,-0.29502581997419597
0,-1732.94,-939.15,-3088.55,51.32,-0.2900253823475154
0,-1729.75,-948.59,-3091.64,50.15,-0.2850249447208313
0,-1736.03,-941.1,-3093.26,48.52,-0.2800245070941507
0,-1735.56,-941.48,-3085.39,50.47,-0.27502406946747016
0,-1731.32,-931.74,-3085.69,53.72,-0.2700236318407896
0,-1725.92,-930.83,-3081.79,58.37,-0.265023194214109
0,-1725.15,-935.12,-3077.75,53.97,-0.2600227565874249
0,-1720.32,-936.45,-3077.85,51.01,-0.25502231896074434
0,-1731.41,-943.92,-3083.26,47.08,-0.2500218813340638
0,-1725.55,-935.16,-3079.14,51.86,-0.2450214437073832
0,-1723.73,-946.48,-3079.06,49.55,-0.24002100608070265
0,-1722.69,-933.53,-3079.49,50.17,-0.23502056845401853
0,-1729.07,-938.4,-3082.62,51.02,-0.23002013082733797
0,-1720.88,-928.69,-3077.76,50.9,-0.2250196932006574
0,-1729.62,-932.45,-3079.13,53.0,-0.22001925557397684
0,-1722.18,-928.6,-3072.43,56.41,-0.21501881794729627
0,-1725.29,-923.56,-3075.0,56.49,-0.21001838032061215
0,-1718.97,-939.73,-3077.79,54.51,-0.2050179426939316
0,-1721.54,-932.61,-3077.71,55.12,-0.20001750506725102
0,-1728.97,-938.61,-3078.03,53.11,-0.19501706744057046
0,-1723.14,-928.39,-3075.88,59.9,-0.19001662981388634
0,-1721.54,-929.84,-3075.23,61.24,-0.18501619218720577
0,-1725.14,-932.73,-3082.37,57.41,-0.1800157545605252
0,-1727.04,-937.53,-3078.38,57.1,-0.17501531693384464
0,-1716.13,-929.38,-3073.07,68.38,-0.17001487930716408
0,-1714.13,-928.56,-3069.54,68.68,-0.16501444168047996
0,-1725.4,-927.84,-3077.86,67.98,-0.1600140040537994
0,-1710.53,-926.12,-3065.69,66.36,-0.15501356642711883
0,-1717.13,-930.23,-3069.99,64.65,-0.15001312880043827
0,-1719.81,-936.99,-3073.9,63.65,-0.1450126911737577
0,-1724.18,-936.02,-3074.52,62.05,-0.14001225354707358
0,-1719.6,-935.87,-3072.77,59.07,-0.13501181592039302
0,-1723.16,-939.43,-3081.09,58.96,-0.13001137829371245
0,-1728.13,-934.23,-3074.04,61.44,-0.1250109406670319
0,-1722.89,-935.69,-3077.04,65.58,-0.12001050304035132
0,-1719.8,-929.39,-3067.85,62.85,-0.1150100654136672
0,-1716.72,-922.75,-3070.28,65.23,-0.11000962778698664
0,-1720.77,-925.69,-3071.49,67.68,-0.10500919016030608
0,-1718.43,-937.02,-3078.91,66.57,-0.10000875253362551
0,-1721.66,-932.48,-3072.06,58.04,-0.09500831490694495
0,-1723.87,-923.03,-3077.49,60.64,-0.09000787728026083
0,-1718.36,-929.39,-3076.35,58.65,-0.08500743965358026
0,-1722.08,-931.87,-3071.68,58.54,-0.0800070020268997
0,-1726.57,-930.39,-3076.52,55.47,-0.07500656440021913
0,-1728.23,-940.51,-3075.4,56.69,-0.07000612677353857
0,-1724.92,-931.04,-3077.95,57.16,-0.06500568914685445
0,-1720.51,-921.26,-3069.87,63.81,-0.060005251520173886
0,-1723.36,-931.66,-3072.87,60.98,-0.05500481389349332
0,-1726.51,-934.38,-3078.2,53.38,-0.050004376266812756
0,-1715.34,-931.76,-3073.68,61.47,-0.04500393864013219
0,-1719.99,-939.1,-3073.71,65.89,-0.04000350101344807
0,-1720.75,-922.84,-3069.9,67.75,-0.03500306338676751
0,-1716.55,-927.91,-3073.5,70.13,-0.030002625760086943
0,-1716.2,-928.48,-3072.44,69.66,-0.025002188133406378
0,-1724.66,-932.96,-3073.39,65.86,-0.020001750506725813
0,-1720.33,-928.07,-3067.39,66.01,-0.015001312880041695
0,-1721.37,-928.2,-3063.68,72.42,-0.01000087525336113
0,-1718.31,-920.12,-3064.8,68.63,-0.005000437626680565
0,-1714.03,-933.15,-3067.83,67.98,0.0
0,-1723.93,-927.16,-3072.66,66.05,0.005000437626680565
0,-1723.09,-926.31,-3068.6,64.61,0.010000875253364683
0,-1717.5,-928.79,-3070.15,59.74,0.015001312880045248
0,-1723.51,-937.0,-3076.19,59.14,0.020001750506725813
0,-1728.42,-942.19,-3080.16,60.45,0.025002188133406378
0,-1740.28,-943.31,-3082.86,52.82,0.030002625760086943
0,-1732.77,-939.3,-3077.67,53.02,0.03500306338677106
0,-1730.82,-944.55,-3081.33,47.84,0.040003501013451626
0,-1735.46,-946.85,-3089.88,44.67,0.04500393864013219
0,-1730.65,-937.84,-3082.76,46.15,0.050004376266812756
0,-1724.45,-940.1,-3078.71,53.66,0.05500481389349332
0,-1721.69,-935.21,-3075.88,65.97,0.06000525152017744
0,-1728.33,-936.55,-3084.07,53.58,0.065005689146858
0,-1727.67,-936.45,-3081.73,52.47,0.07000612677353857
0,-1724.23,-935.68,-3078.3,52.85,0.07500656440021913
0,-1719.27,-917.96,-3071.37,57.95,0.0800070020268997
0,-1725.74,-940.35,-3074.09,55.1,0.08500743965358382
0,-1734.06,-939.64,-3085.51,52.11,0.09000787728026438
0,-1729.66,-937.71,-3082.79,53.24,0.09500831490694495
0,-1729.08,-941.38,-3082.21,51.77,0.10000875253362551
0,-1730.33,-945.13,-3087.74,49.08,0.10500919016030608
0,-1726.68,-936.11,-3083.55,48.94,0.1100096277869902
0,-1729.33,-937.05,-3083.13,51.23,0.11501006541367076
0,-1726.36,-934.47,-3079.1,53.38,0.12001050304035132
0,-1732.25,-936.51,-3083.08,50.77,0.1250109406670319
0,-1732.66,-932.88,-3087.66,43.46,0.13001137829371245
0,-1727.92,-939.6,-3084.2,52.69,0.13501181592039657
0,-1725.32,-933.36,-3084.44,53.92,0.14001225354707714
0,-1727.67,-941.47,-3085.36,53.95,0.1450126911737577
0,-1724.91,-936.79,-3077.98,56.23,0.15001312880043827
0,-1715.31,-926.29,-3067.05,71.41,0.15501356642712238
0,-1715.85,-922.71,-3068.61,65.28,0.16001400405380295
0,-1716.48,-926.34,-3069.75,64.87,0.16501444168048351
0,-1725.42,-924.45,-3065.81,66.86,0.17001487930716408
0,-1718.15,-937.32,-3067.71,62.73,0.17501531693384464
0,-1721.16,-929.3,-3069.53,64.94,0.18001575456052876
0,-1724.55,-928.3,-3077.39,66.78,0.18501619218720933
0,-1723.84,-929.62,-3078.84,66.11,0.1900166298138899
0,-1722.1,-934.4,-3074.06,65.09,0.19501706744057046
0,-1723.7,-943.11,-3076.14,61.51,0.20001750506725102
0,-1722.92,-937.93,-3075.35,67.06,0.20501794269393514
0,-1724.94,-935.15,-3079.82,59.45,0.2100183803206157
0,-1720.37,-937.92,-3081.24,58.82,0.21501881794729627
0,-1728.28,-933.03,-3075.71,61.24,0.22001925557397684
0,-1733.67,-935.64,-3079.5,58.96,0.2250196932006574
0,-1730.92,-943.34,-3081.55,56.06,0.23002013082734152
0,-1726.07,-941.29,-3080.25,59.26,0.23502056845402208
0,-1720.74,-939.77,-3076.96,62.78,0.24002100608070265
0,-1723.28,-934.05,-3072.09,66.45,0.2450214437073832
0,-1715.71,-927.92,-3069.83,72.31,0.2500218813340638
0,-1716.99,-920.48,-3069.58,70.08,0.2550223189607479
0,-1730.94,-936.74,-3084.52,58.14,0.26002275658742846
0,-1730.78,-942.14,-3083.64,55.41,0.265023194214109
0,-1728.16,-936.58,-3080.17,54.6,0.2700236318407896
0,-1726.91,-941.58,-3082.52,54.38,0.27502406946747016
0,-1735.3,-942.5,-3086.18,50.73,0.2800245070941543
0,-1736.1,-940.07,-3082.83,54.47,0.28502494472083484
0,-1736.74,-940.32,-3087.91,50.54,0.2900253823475154
0,-1724.96,-932.29,-3081.17,56.54,0.29502581997419597
0,-1724.69,-937.37,-3078.66,54.32,0.30002625760087653
0,-1725.74,-934.33,-3082.14,56.75,0.30502669522756065
0,-1721.34,-940.74,-3080.19,58.88,0.3100271328542412
0,-1724.9,-938.43,-3078.01,55.35,0.3150275704809218
0,-1719.4,-930.97,-3074.37,59.8,0.32002800810760235
0,-1719.19,-926.17,-3076.07,60.22,0.3250284457342829
0,-1726.08,-933.96,-3075.14,59.7,0.33002888336096703
0,-1722.46,-932.81,-3073.12,57.08,0.3350293209876476
0,-1726.88,-931.35,-3079.7,55.3,0.34002975861432816
0,-1730.98,-942.82,-3080.7,57.51,0.3450301962410087
0,-1719.17,-927.44,-3074.08,68.4,0.3500306338676893
0,-1719.58,-919.82,-3067.2,68.09,0.3550310714943734
0,-1720.21,-931.98,-3074.05,61.32,0.36003150912105397
0,-1730.51,-933.3,-3073.96,58.11,0.36503194674773454
0,-1725.64,-930.17,-3075.0,59.78,0.3700323843744151
0,-1724.47,-934.62,-3078.07,59.25,0.37503282200109567
0,-1737.81,-946.92,-3088.86,50.47,0.3800332596277798
0,-1734.2,-945.13,-3089.27,54.86,0.38503369725446035
0,-1726.94,-944.22,-3084.71,61.15,0.3900341348811409
0,-1720.13,-925.48,-3073.69,63.13,0.3950345725078215
0,-1726.98,-934.92,-3075.22,58.93,0.40003501013450204
0,-1715.02,-935.67,-3073.72,60.67,0.40503544776118616
0,-1730.45,-943.44,-3081.84,58.27,0.4100358853878667
0,-1720.46,-942.08,-3076.46,64.32,0.4150363230145473
0,-1725.2,-939.11,-3078.51,62.06,0.42003676064122786
0,-1725.41,-934.19,-3078.28,60.6,0.4250371982679084
0,-1727.48,-927.32,-3077.99,61.99,0.43003763589459254
0,-1718.88,-925.9,-3070.64,65.69,0.4350380735212731
0,-1719.27,-923.57,-3068.46,66.85,0.44003851114795367
0,-1724.75,-925.55,-3073.22,66.87,0.44503894877463424
0,-1717.2,-930.84,-3075.19,60.11,0.4500393864013148
0,-1723.14,-929.56,-3073.92,60.46,0.4550398240279989
0,-1726.79,-941.77,-3080.57,57.49,0.4600402616546795
0,-1720.54,-937.19,-3077.61,59.44,0.46504069928136005
0,-1727.47,-936.52,-3080.04,55.15,0.4700411369080406
0,-1735.86,-938.1,-3082.84,49.06,0.4750415745347212
0,-1732.01,-936.93,-3082.85,53.99,0.4800420121614053
0,-1728.73,-942.61,-3091.48,47.06,0.48504244978808586
0,-1732.13,-944.99,-3091.12,46.91,0.4900428874147664
0,-1735.5,-938.88,-3090.8,49.04,0.495043325041447
0,-1733.29,-943.09,-3091.14,54.55,0.5000437626681311
0,-1732.68,-940.29,-3089.66,52.26,0.5050442002948117
0,-1733.2,-938.04,-3087.75,57.1,0.5100446379214922
0,-1724.92,-930.61,-3084.85,54.84,0.5150450755481728
0,-1730.11,-943.11,-3084.54,48.77,0.5200455131748534
0,-1730.45,-945.49,-3087.47,47.28,0.5250459508015375
0,-1727.05,-945.46,-3090.21,57.47,0.530046388428218
0,-1731.06,-936.4,-3082.68,56.31,0.5350468260548986
0,-1727.01,-936.27,-3082.05,57.5,0.5400472636815792
0,-1726.23,-938.73,-3081.98,53.45,0.5450477013082597
0,-1725.88,-937.42,-3081.04,57.28,0.5500481389349439
0,-1723.66,-932.28,-3075.43,60.23,0.5550485765616244
0,-1725.98,-936.19,-3079.23,49.6,0.560049014188305
0,-1725.85,-936.23,-3079.8,51.06,0.5650494518149856
0,-1721.68,-932.36,-3078.32,48.33,0.5700498894416661
0,-1728.04,-930.08,-3072.14,52.27,0.5750503270683502
0,-1727.05,-935.57,-3073.92,51.99,0.5800507646950308
0,-1734.26,-939.79,-3086.84,51.74,0.5850512023217114
0,-1731.36,-935.62,-3080.1,53.29,0.5900516399483919
0,-1727.03,-947.51,-3085.11,50.36,0.5950520775750725
0,-1723.55,-937.74,-3078.95,58.42,0.6000525152017566
0,-1723.35,-941.81,-3073.46,58.56,0.6050529528284372
0,-1723.13,-939.37,-3075.04,58.91,0.6100533904551177
0,-1719.95,-927.45,-3069.61,55.45,0.6150538280817983
0,-1720.23,-929.75,-3070.1,58.66,0.6200542657084789
0,-1723.88,-933.29,-3073.51,60.74,0.625054703335163
0,-1719.92,-933.19,-3074.53,56.89,0.6300551409618436
0,-1720.91,-934.97,-3078.52,58.58,0.6350555785885241
0,-1723.0,-940.25,-3078.42,56.98,0.6400560162152047
0,-1723.19,-940.22,-3079.4,57.04,0.6450564538418853
0,-1723.25,-928.07,-3075.38,58.29,0.6500568914685694
0,-1728.95,-938.77,-3078.23,55.95,0.6550573290952499
0,-1719.77,-932.08,-3068.59,69.42,0.6600577667219341
0,-1728.02,-942.15,-3080.58,53.66,0.6650582043486111
0,-1731.96,-942.0,-3084.35,55.37,0.6700586419752952
0,-1720.83,-939.18,-3076.87,60.15,0.6750590796019722
0,-1719.08,-930.53,-3075.39,55.4,0.6800595172286563
0,-1721.66,-932.4,-3077.29,55.49,0.6850599548553404
0,-1722.78,-935.98,-3080.85,55.46,0.6900603924820174
0,-1721.13,-932.5,-3077.66,62.57,0.6950608301087016
0,-1722.85,-933.73,-3073.46,58.77,0.7000612677353786
0,-1714.56,-932.42,-3072.15,60.41,0.7050617053620627
0,-1721.7,-927.85,-3073.08,61.35,0.7100621429887468
0,-1726.57,-930.32,-3073.89,57.87,0.7150625806154238
0,-1728.18,-937.33,-3078.73,55.74,0.7200630182421079
0,-1729.25,-938.55,-3080.25,57.71,0.725063455868785
0,-1727.78,-937.16,-3082.72,52.84,0.7300638934954691
0,-1729.77,-934.53,-3078.94,54.68,0.7350643311221532
0,-1725.68,-934.15,-3076.12,60.35,0.7400647687488302
0,-1715.37,-934.7,-3074.75,62.12,0.7450652063755143
0,-1722.39,-928.92,-3077.93,61.13,0.7500656440021913
0,-1726.0,-923.56,-3076.41,65.3,0.7550660816288755
0,-1725.39,-928.99,-3078.44,64.15,0.7600665192555596
0,-1726.14,-934.71,-3076.41,60.97,0.7650669568822366
0,-1724.08,-935.78,-3078.71,64.57,0.7700673945089207
0,-1724.91,-930.31,-3074.65,63.12,0.7750678321355977
0,-1726.98,-925.72,-3078.61,56.52,0.7800682697622818
0,-1729.71,-941.85,-3077.66,56.61,0.785068707388966
0,-1729.63,-929.19,-3077.44,52.94,0.790069145015643
0,-1726.88,-932.8,-3079.72,51.89,0.7950695826423271
0,-1726.48,-933.15,-3072.39,55.54,0.8000700202690041
0,-1724.56,-928.75,-3072.79,62.89,0.8050704578956882
0,-1720.99,-933.57,-3077.48,63.09,0.8100708955223723
0,-1718.18,-936.28,-3076.2,63.19,0.8150713331490493
0,-1728.5,-934.36,-3080.41,61.94,0.8200717707757335
0,-1729.43,-933.37,-3078.43,60.61,0.8250722084024105
0,-1723.64,-931.2,-3072.43,67.75,0.8300726460290946
0,-1720.07,-924.54,-3071.99,60.65,0.8350730836557787
0,-1723.1,-925.07,-3074.65,64.94,0.8400735212824557
0,-1720.91,-933.46,-3073.9,69.54,0.8450739589091398
0,-1716.19,-931.11,-3072.47,65.78,0.8500743965358168
0,-1725.03,-930.98,-3078.6,62.49,0.855074834162501
0,-1721.03,-930.66,-3071.45,62.84,0.8600752717891851
0,-1720.04,-927.89,-3070.92,62.43,0.8650757094158621
0,-1719.19,-923.5,-3071.99,67.06,0.8700761470425462
0,-1716.86,-931.43,-3072.72,62.35,0.8750765846692232
0,-1715.39,-928.67,-3068.69,66.8,0.8800770222959073
0,-1726.81,-935.35,-3074.12,54.98,0.8850774599225915
0,-1726.02,-929.68,-3077.9,54.43,0.8900778975492685
0,-1720.63,-923.77,-3069.59,63.43,0.8950783351759526
0,-1720.77,-920.42,-3071.18,59.43,0.9000787728026296
0,-1729.21,-932.3,-3076.4,54.08,0.9050792104293137
0,-1725.06,-934.7,-3081.5,57.49,0.9100796480559978
0,-1723.58,-934.4,-3079.47,55.68,0.9150800856826748
0,-1729.24,-949.56,-3083.09,52.02,0.920080523309359
0,-1727.41,-942.77,-3084.74,52.93,0.925080960936036
0,-1732.33,-946.36,-3088.1,52.28,0.9300813985627201
0,-1732.09,-936.68,-3082.02,58.14,0.9350818361894042
0,-1729.44,-928.93,-3080.45,56.11,0.9400822738160812
0,-1725.05,-924.85,-3071.56,61.78,0.9450827114427653
0,-1731.64,-936.53,-3077.34,55.62,0.9500831490694424
0,-1735.76,-945.94,-3086.78,52.82,0.9550835866961265
0,-1734.43,-939.23,-3087.85,58.49,0.9600840243228106
0,-1731.91,-939.79,-3085.1,54.42,0.9650844619494876
0,-1723.27,-925.27,-3076.57,67.69,0.9700848995761717
0,-1725.1,-938.6,-3077.12,58.86,0.9750853372028487
0,-1721.77,-937.34,-3077.52,64.09,0.9800857748295329
0,-1724.09,-943.17,-3076.52,60.41,0.985086212456217
0,-1728.26,-938.02,-3080.01,59.86,0.990086650082894
0,-1725.48,-931.62,-3077.25,58.8,0.9950870877095781
0,-1726.06,-929.75,-3075.23,62.97,1.0000875253362551
0,-1724.91,-928.07,-3074.57,67.42,1.0050879629629392
0,-1729.62,-938.77,-3080.52,61.5,1.0100884005896233
0,-1730.12,-924.15,-3075.93,57.34,1.0150888382163004
0,-1727.05,-933.31,-3079.08,59.54,1.0200892758429845
0,-1729.98,-942.08,-3082.41,52.35,1.0250897134696615
0,-1715.42,-928.2,-3073.04,63.74,1.0300901510963456
0,-1711.31,-921.18,-3066.76,67.88,1.0350905887230297
0,-1718.04,-928.12,-3072.29,68.36,1.0400910263497067
0,-1719.33,-930.02,-3072.22,64.27,1.0450914639763909
0,-1727.94,-931.69,-3083.65,51.39,1.0500919016030679
0,-1723.74,-933.95,-3081.56,58.94,1.055092339229752
0,-1723.31,-925.73,-3068.28,65.06,1.060092776856436
0,-1720.75,-930.22,-3069.84,63.8,1.0650932144831131
0,-1728.48,-935.49,-3075.36,56.15,1.0700936521097972
0,-1725.82,-931.23,-3073.03,61.79,1.0750940897364742
0,-1729.84,-939.6,-3085.36,49.79,1.0800945273631584
0,-1723.15,-932.34,-3079.94,59.42,1.0850949649898425
0,-1718.83,-928.27,-3075.02,60.4,1.0900954026165195
0,-1718.35,-926.48,-3068.51,60.14,1.0950958402432036
0,-1719.73,-929.18,-3071.4,64.27,1.1000962778698806
0,-1720.55,-929.02,-3073.04,61.04,1.1050967154965647
0,-1730.71,-942.6,-3083.85,54.72,1.1100971531232489
0,-1727.57,-936.4,-3077.58,56.89,1.1150975907499259
0,-1727.27,-936.45,-3078.66,56.74,1.12009802837661
0,-1726.75,-941.47,-3083.31,56.08,1.125098466003287
0,-1720.93,-926.4,-3077.27,58.02,1.1300989036299711
0,-1719.62,-936.92,-3075.96,59.31,1.1350993412566552
0,-1732.08,-942.84,-3088.51,51.73,1.1400997788833322
0,-1731.58,-941.79,-3085.09,51.38,1.1451002165100164
0,-1727.19,-933.83,-3084.41,53.68,1.1501006541366934
0,-1733.08,-947.57,-3092.58,52.68,1.1551010917633775
0,-1732.79,-941.81,-3085.47,51.88,1.1601015293900616
0,-1738.29,-943.41,-3086.83,47.5,1.1651019670167386
0,-1736.88,-942.33,-3087.24,48.21,1.1701024046434227
0,-1731.07,-945.82,-3086.55,49.78,1.1751028422700998
0,-1732.77,-941.02,-3085.17,45.6,1.1801032798967839
0,-1729.66,-934.38,-3082.99,46.81,1.185103717523468
0,-1729.32,-932.74,-3085.61,56.0,1.190104155150145
0,-1730.84,-938.69,-3079.89,57.18,1.1951045927768291
0,-1724.29,-936.58,-3078.06,59.36,1.2001050304035061
0,-1721.81,-935.84,-3077.0,55.29,1.2051054680301903
0,-1731.5,-941.01,-3084.96,50.0,1.2101059056568744
0,-1727.95,-931.89,-3078.97,54.16,1.2151063432835514
0,-1726.05,-934.16,-3075.97,53.1,1.2201067809102355
0,-1724.85,-936.24,-3078.12,53.15,1.2251072185369125
0,-1724.04,-939.43,-3083.53,55.63,1.2301076561635966
0,-1728.61,-936.65,-3078.33,54.84,1.2351080937902807
0,-1728.22,-924.88,-3075.55,58.65,1.2401085314169578
0,-1722.65,-938.53,-3076.7,57.04,1.2451089690436419
0,-1727.33,-939.07,-3082.95,56.09,1.250109406670319
0,-1727.71,-943.07,-3084.12,54.92,1.255109844297003
0,-1726.86,-941.36,-3083.56,50.43,1.2601102819236871
0,-1728.94,-942.95,-3086.51,53.09,1.2651107195503641
0,-1727.84,-937.14,-3079.56,59.09,1.2701111571770483
0,-1731.56,-937.23,-3082.33,53.69,1.2751115948037253
0,-1725.06,-933.72,-3080.82,56.6,1.2801120324304094
0,-1723.69,-932.07,-3078.53,59.12,1.2851124700570935
0,-1728.86,-925.53,-3072.49,58.37,1.2901129076837705
0,-1725.84,-933.5,-3072.11,59.48,1.2951133453104546
0,-1723.59,-938.99,-3076.68,59.37,1.3001137829371316
0,-1732.07,-944.41,-3086.35,52.76,1.3051142205638158
0,-1727.86,-940.5,-3081.34,57.83,1.3101146581904999
0,-1730.49,-944.16,-3082.15,59.64,1.315115095817177
0,-1723.0,-929.65,-3072.53,61.78,1.320115533443861
0,-1721.37,-923.13,-3069.0,63.69,1.3251159710705451
0,-1718.71,-926.58,-3071.74,63.08,1.3301164086972221
0,-1714.39,-921.51,-3065.98,65.8,1.3351168463239063
0,-1724.5,-920.97,-3064.0,64.31,1.3401172839505833
0,-1722.93,-930.8,-3067.76,58.48,1.3451177215772674
0,-1720.6,-929.71,-3078.0,58.35,1.3501181592039515
0,-1719.55,-927.21,-3073.99,62.29,1.3551185968306285
0,-1724.77,-936.87,-3073.71,62.94,1.3601190344573126
0,-1716.92,-925.25,-3069.02,73.63,1.3651194720839896
0,-1721.99,-920.58,-3072.91,66.83,1.3701199097106738
0,-1718.92,-934.9,-3073.19,67.25,1.3751203473373579
0,-1713.66,-930.5,-3070.73,65.9,1.380120784964035
0,-1719.78,-921.35,-3067.2,67.21,1.385121222590719
0,-1720.03,-923.73,-3064.55,67.05,1.390121660217396
0,-1725.8,-923.98,-3071.3,66.52,1.3951220978440801
0,-1722.31,-927.67,-3074.24,64.44,1.4001225354707643
0,-1727.82,-936.97,-3084.04,58.03,1.4051229730974413
0,-1730.14,-947.26,-3084.73,54.12,1.4101234107241254
0,-1732.19,-938.88,-3081.16,58.99,1.4151238483508024
0,-1725.41,-928.16,-3079.15,56.67,1.4201242859774865
0,-1723.51,-933.66,-3082.9,55.92,1.4251247236041706
0,-1724.34,-932.88,-3076.97,57.49,1.4301251612308477
0,-1723.86,-936.6,-3075.7,57.35,1.4351255988575318
0,-1734.46,-940.61,-3083.45,57.73,1.4401260364842088
0,-1731.84,-938.4,-3083.19,60.81,1.445126474110893
0,-1728.46,-932.91,-3078.59,61.83,1.450126911737577
0,-1727.48,-935.49,-3080.3,57.07,1.455127349364254
0,-1720.52,-926.74,-3077.61,65.0,1.4601277869909381
0,-1719.12,-926.96,-3074.89,65.21,1.4651282246176152
0,-1719.64,-928.33,-3076.06,65.93,1.4701286622442993
0,-1719.49,-926.56,-3072.42,70.18,1.4751290998709834
0,-1713.73,-927.53,-3067.94,73.07,1.4801295374976604
0,-1712.2,-931.7,-3070.6,64.26,1.4851299751243445
0,-1718.75,-931.88,-3071.35,66.63,1.4901304127510215
0,-1722.26,-936.6,-3073.94,62.88,1.4951308503777057
0,-1720.96,-932.3,-3080.39,61.29,1.5001312880043898
0,-1725.2,-937.04,-3070.41,61.44,1.5051317256310668
0,-1718.3,-929.62,-3070.46,63.65,1.510132163257751
0,-1722.14,-931.33,-3067.57,68.62,1.515132600884428
0,-1713.49,-927.6,-3061.92,78.37,1.520133038511112
0,-1723.08,-932.09,-3073.72,57.83,1.5251334761377962
0,-1730.82,-946.56,-3086.35,43.79,1.5301339137644732
0,-1726.52,-943.94,-3081.0,50.32,1.5351343513911573
0,-1720.37,-942.33,-3084.97,48.66,1.5401347890178343
0,-1726.65,-933.49,-3079.59,52.01,1.5451352266445184
0,-1726.8,-944.32,-3082.68,42.18,1.5501356642712025
0,-1724.64,-948.99,-3090.4,43.46,1.5551361018978795
0,-1724.61,-942.48,-3089.19,44.7,1.5601365395245637
0,-1722.9,-939.1,-3088.56,45.9,1.5651369771512407
0,-1737.8,-952.44,-3093.76,42.64,1.5701374147779248
0,-1731.2,-947.15,-3092.41,41.55,1.575137852404609
0,-1735.18,-953.54,-3094.98,41.07,1.580138290031286
0,-1734.81,-952.92,-3095.14,45.65,1.58513872765797
0,-1732.33,-942.27,-3089.25,45.06,1.590139165284647
0,-1729.89,-938.11,-3076.71,54.47,1.5951396029113312
0,-1727.68,-945.92,-3078.0,55.4,1.6001400405380153
0,-1735.94,-943.29,-3086.4,48.53,1.6051404781646923
0,-1731.22,-940.97,-3084.73,52.7,1.6101409157913764
0,-1730.75,-946.28,-3083.97,53.6,1.6151413534180534
0,-1728.22,-941.06,-3083.64,57.6,1.6201417910447375
0,-1721.73,-928.22,-3077.11,64.83,1.6251422286714217
0,-1718.79,-927.07,-3075.09,67.55,1.6301426662980987
0,-1719.3,-930.3,-3072.5,64.94,1.6351431039247828
0,-1719.33,-933.62,-3073.22,61.01,1.6401435415514598
0,-1714.3,-918.65,-3068.25,67.79,1.645143979178144
0,-1717.76,-908.63,-3062.97,71.61,1.650144416804828
0,-1722.96,-933.68,-3069.38,66.33,1.655144854431505
0,-1722.9,-936.8,-3076.16,65.54,1.6601452920581892
0,-1724.21,-934.97,-3079.13,61.28,1.6651457296848662
0,-1722.09,-936.32,-3076.17,59.83,1.6701461673115503
0,-1716.06,-933.89,-3070.93,68.81,1.6751466049382344
0,-1719.05,-932.82,-3072.35,69.6,1.6801470425649114
0,-1725.61,-935.78,-3081.6,64.39,1.6851474801915955
0,-1723.93,-930.59,-3077.54,64.46,1.6901479178182726
0,-1723.92,-930.78,-3074.1,63.84,1.6951483554449567
0,-1720.51,-931.95,-3071.64,62.0,1.7001487930716408
0,-1717.23,-928.95,-3072.41,65.06,1.7051492306983178
0,-1722.52,-937.3,-3077.54,67.98,1.710149668325002
0,-1724.62,-924.26,-3081.35,59.76,1.715150105951679
0,-1716.97,-920.72,-3074.6,65.08,1.720150543578363
0,-1724.47,-932.99,-3072.42,64.14,1.7251509812050472
0,-1722.96,-932.42,-3072.2,65.48,1.7301514188317242
0,-1724.96,-943.5,-3078.04,64.28,1.7351518564584083
0,-1726.93,-935.38,-3077.85,59.39,1.7401522940850853
0,-1726.48,-930.2,-3077.02,61.98,1.7451527317117694
0,-1720.78,-924.71,-3069.17,67.64,1.7501531693384536
0,-1721.3,-923.98,-3073.49,64.2,1.7551536069651306
0,-1716.58,-916.97,-3068.2,59.97,1.7601540445918147
0,-1718.97,-933.36,-3073.49,57.67,1.7651544822184917
0,-1721.78,-931.78,-3072.3,61.86,1.7701549198451758
0,-1718.86,-923.82,-3069.69,58.31,1.77515535747186
0,-1715.07,-927.62,-3070.84,62.15,1.780155795098537
0,-1718.63,-921.81,-3068.0,63.23,1.785156232725221
0,-1719.23,-926.55,-3069.95,60.3,1.790156670351898
0,-1720.2,-928.71,-3071.5,60.68,1.7951571079785822
0,-1717.86,-931.56,-3072.81,62.15,1.8001575456052663
0,-1721.84,-937.9,-3074.55,60.03,1.8051579832319433
0,-1722.49,-934.72,-3079.57,57.54,1.8101584208586274
0,-1726.78,-936.09,-3079.78,65.56,1.8151588584853044
0,-1726.85,-936.75,-3081.65,59.82,1.8201592961119886
0,-1729.18,-931.73,-3082.05,52.5,1.8251597337386727
0,-1729.61,-931.27,-3078.29,63.03,1.8301601713653497
0,-1726.77,-932.17,-3079.54,53.87,1.8351606089920338
0,-1724.68,-929.64,-3080.02,56.66,1.8401610466187108
0,-1726.28,-937.63,-3085.65,51.99,1.845161484245395
0,-1730.13,-939.76,-3081.93,48.45,1.850161921872079
0,-1726.67,-928.3,-3078.38,53.87,1.855162359498756
0,-1730.33,-932.9,-3079.61,52.53,1.8601627971254402
0,-1733.07,-934.09,-3078.82,55.15,1.8651632347521172
0,-1731.71,-926.84,-3079.68,55.55,1.8701636723788013
0,-1733.45,-945.7,-3091.08,52.03,1.8751641100054854
0,-1734.23,-950.65,-3088.62,53.15,1.8801645476321625
0,-1729.23,-947.94,-3087.1,53.29,1.8851649852588466
0,-1728.41,-946.83,-3081.63,56.89,1.8901654228855236
0,-1733.04,-938.74,-3083.76,54.5,1.8951658605122077
0,-1740.08,-950.36,-3091.27,47.7,1.9001662981388918
0,-1736.91,-952.69,-3093.63,49.25,1.9051667357655688
0,-1740.35,-935.54,-3083.38,52.91,1.910167173392253
0,-1731.3,-933.23,-3084.12,53.94,1.91516761101893
0,-1730.24,-938.4,-3084.96,52.25,1.920168048645614
0,-1728.13,-931.93,-3076.34,56.06,1.9251684862722982
0,-1722.59,-936.93,-3077.57,59.02,1.9301689238989752
0,-1723.36,-936.89,-3081.35,61.99,1.9351693615256593
0,-1733.92,-943.17,-3088.14,56.14,1.9401697991523363
0,-1729.92,-937.4,-3079.06,62.31,1.9451702367790205
0,-1732.15,-940.76,-3086.39,51.75,1.9501706744057046
0,-1729.63,-937.27,-3084.66,51.98,1.9551711120323816
0,-1730.71,-939.04,-3080.63,53.56,1.9601715496590657
0,-1729.14,-934.58,-3080.27,51.45,1.9651719872857427
0,-1719.45,-920.37,-3073.91,63.54,1.9701724249124268
0,-1720.45,-934.76,-3072.79,64.11,1.975172862539111
0,-1718.84,-929.22,-3074.85,60.82,1.980173300165788
0,-1716.57,-929.09,-3071.44,66.33,1.985173737792472
0,-1718.89,-927.5,-3074.05,64.72,1.990174175419149
0,-1721.56,-929.86,-3072.58,69.52,1.9951746130458332
0,-1723.56,-926.58,-3070.96,70.04,2.0001750506725173
0,-1721.72,-925.02,-3073.05,61.86,2.0051754882991943
0,-1728.2,-939.45,-3076.75,58.31,2.0101759259258785
0,-1726.04,-926.98,-3074.67,63.49,2.0151763635525626
0,-1724.71,-934.43,-3077.31,56.6,2.0201768011792396
0,-1722.68,-932.93,-3076.82,58.26,2.0251772388059237
0,-1721.83,-936.78,-3075.61,65.47,2.0301776764326007
0,-1723.96,-933.46,-3075.41,62.02,2.035178114059285
0,-1721.23,-930.5,-3076.18,61.78,2.040178551685969
0,-1722.3,-932.74,-3075.16,62.26,2.045178989312646
0,-1721.38,-925.88,-3071.03,67.49,2.05017942693933
0,-1718.58,-917.84,-3070.3,74.67,2.055179864566007
0,-1722.75,-932.48,-3074.14,63.11,2.060180302192691
0,-1708.31,-916.07,-3061.65,79.1,2.0651807398193753
0,-1715.49,-927.14,-3066.0,71.05,2.0701811774460523
0,-1724.89,-935.67,-3083.78,59.97,2.0751816150727365
0,-1726.05,-945.68,-3085.59,51.13,2.0801820526994135
0,-1726.55,-949.74,-3086.08,52.01,2.0851824903260976
0,-1719.28,-945.49,-3082.56,52.59,2.0901829279527817
0,-1721.53,-936.64,-3082.78,47.39,2.0951833655794587
0,-1727.65,-940.55,-3079.13,47.51,2.100183803206143
0,-1725.45,-935.34,-3080.69,48.75,2.10518424083282
0,-1727.45,-938.3,-3080.54,51.79,2.110184678459504
0,-1724.74,-932.27,-3085.67,48.79,2.115185116086188
0,-1726.78,-934.77,-3083.62,55.26,2.120185553712865
0,-1730.34,-941.41,-3086.26,54.79,2.125185991339549
0,-1726.06,-944.98,-3085.34,55.81,2.1301864289662262
0,-1729.63,-944.42,-3082.57,54.52,2.1351868665929103
0,-1728.49,-938.47,-3079.51,61.66,2.1401873042195945
0,-1726.7,-942.79,-3080.59,55.83,2.1451877418462715
0,-1732.46,-939.13,-3085.62,50.22,2.1501881794729556
0,-1729.58,-930.65,-3078.26,53.99,2.1551886170996326
0,-1731.65,-936.15,-3083.97,54.03,2.1601890547263167
0,-1726.24,-936.54,-3083.86,48.21,2.165189492353001
0,-1725.74,-940.94,-3082.68,53.74,2.170189929979678
0,-1731.38,-944.28,-3081.94,53.73,2.175190367606362
0,-1727.84,-932.12,-3079.47,57.09,2.180190805233039
0,-1724.51,-934.72,-3078.81,55.12,2.185191242859723
0,-1725.91,-942.27,-3082.8,47.64,2.190191680486407
0,-1733.32,-940.9,-3083.92,49.95,2.1951921181130842
0,-1727.03,-933.03,-3080.6,47.84,2.2001925557397684
0,-1733.9,-942.42,-3089.42,54.02,2.2051929933664454
0,-1731.58,-938.27,-3085.74,51.21,2.2101934309931295
0,-1726.84,-931.83,-3081.05,55.19,2.2151938686198136
0,-1732.34,-936.71,-3081.74,55.57,2.2201943062464906
0,-1722.07,-935.59,-3081.2,53.17,2.2251947438731747
0,-1723.24,-931.36,-3075.52,55.2,2.2301951814998517
0,-1727.06,-939.3,-3075.52,57.57,2.235195619126536
0,-1726.89,-939.75,-3083.38,57.14,2.24019605675322
0,-1723.4,-932.04,-3077.05,59.35,2.245196494379897
0,-1721.95,-934.47,-3074.41,61.18,2.250196932006581
0,-1719.48,-933.23,-3076.92,58.31,2.255197369633258
0,-1719.28,-929.79,-3071.13,60.47,2.2601978072599422
0,-1719.42,-926.84,-3072.88,69.3,2.2651982448866264
0,-1722.26,-928.78,-3076.2,66.27,2.2701986825133034
0,-1731.3,-931.93,-3076.82,62.21,2.2751991201399875
0,-1725.61,-934.45,-3077.47,65.51,2.2801995577666645
0,-1726.56,-940.87,-3078.5,60.99,2.2851999953933486
0,-1724.74,-925.58,-3073.86,55.61,2.2902004330200327
0,-1723.28,-933.04,-3075.53,55.06,2.2952008706467097
0,-1724.7,-938.38,-3078.35,61.91,2.300201308273394
0,-1725.99,-932.79,-3079.89,62.86,2.305201745900071
0,-1724.36,-934.53,-3079.41,62.46,2.310202183526755
0,-1722.33,-933.15,-3075.34,61.9,2.315202621153439
0,-1730.09,-947.17,-3083.95,57.02,2.320203058780116
0,-1733.89,-943.35,-3089.69,51.02,2.3252034964068002
0,-1729.29,-934.81,-3080.65,53.7,2.3302039340334773
0,-1725.66,-930.99,-3077.78,58.69,2.3352043716601614
0,-1723.45,-940.56,-3084.03,51.42,2.3402048092868455
0,-1729.68,-937.29,-3083.06,56.11,2.3452052469135225
0,-1726.89,-934.48,-3078.12,56.65,2.3502056845402066
0,-1718.15,-931.53,-3073.07,66.23,2.3552061221668836
0,-1724.48,-933.76,-3077.6,53.47,2.3602065597935677
0,-1726.76,-938.5,-3085.83,47.38,2.365206997420252
0,-1735.32,-941.73,-3085.33,47.04,2.370207435046929
0,-1732.74,-942.91,-3085.0,47.39,2.375207872673613
0,-1732.68,-945.62,-3085.86,44.97,2.38020831030029
0,-1727.82,-933.39,-3085.58,55.47,2.385208747926974
0,-1729.35,-940.36,-3085.33,54.49,2.3902091855536582
0,-1726.74,-936.53,-3084.62,56.06,2.3952096231803353
0,-1722.76,-930.19,-3075.62,47.66,2.4002100608070194
0,-1729.86,-937.49,-3081.66,57.0,2.4052104984336964
0,-1721.17,-938.21,-3078.48,56.27,2.4102109360603805
0,-1725.55,-937.22,-3078.17,55.02,2.4152113736870646
0,-1728.06,-942.38,-3081.68,53.85,2.4202118113137416
0,-1723.65,-932.91,-3075.13,62.69,2.4252122489404258
0,-1723.41,-938.46,-3076.83,60.48,2.4302126865671028
0,-1722.27,-929.36,-3073.67,62.8,2.435213124193787
0,-1727.84,-937.42,-3076.88,57.86,2.440213561820471
0,-1722.15,-936.06,-3082.59,55.32,2.445213999447148
0,-1725.28,-933.94,-3082.6,51.69,2.450214437073832
0,-1727.07,-931.96,-3081.53,55.12,2.455214874700509
0,-1729.67,-938.57,-3084.16,51.67,2.4602153123271933
0,-1723.46,-934.71,-3073.0,54.69,2.4652157499538774
0,-1719.66,-930.5,-3074.79,54.09,2.4702161875805544
0,-1731.29,-937.06,-3078.26,50.99,2.4752166252072385
0,-1727.85,-933.15,-3075.18,58.89,2.4802170628339155
0,-1725.15,-937.28,-3073.04,59.85,2.4852175004605996
0,-1723.75,-937.41,-3073.7,61.5,2.4902179380872838
0,-1719.82,-929.34,-3075.18,62.5,2.4952183757139608
0,-1723.98,-933.96,-3075.68,60.26,2.500218813340645
0,-1719.8,-929.07,-3071.23,61.39,2.505219250967322
0,-1717.17,-927.5,-3073.12,61.57,2.510219688594006
0,-1714.54,-924.53,-3072.27,63.23,2.51522012622069
0,-1712.91,-923.74,-3074.21,63.94,2.520220563847367
0,-1711.14,-922.65,-3064.73,65.61,2.5252210014740513
0,-1707.32,-922.01,-3064.59,68.92,2.5302214391007283
0,-1697.66,-910.1,-3047.21,76.59,2.5352218767274124
0,-1699.27,-903.53,-3048.18,77.45,2.5402223143540965
0,-1694.23,-899.24,-3049.16,74.66,2.5452227519807735
0,-1686.0,-895.33,-3043.36,77.38,2.5502231896074576
0,-1687.88,-893.4,-3043.77,80.11,2.5552236272341347
0,-1688.91,-893.64,-3043.97,75.39,2.5602240648608188
0,-1694.45,-893.21,-3049.52,77.78,2.565224502487503
0,-1685.67,-877.25,-3042.92,79.7,2.57022494011418
0,-1685.73,-891.93,-3047.8,75.12,2.575225377740864
0,-1700.87,-912.63,-3057.6,67.49,2.580225815367541
0,-1704.52,-927.16,-3064.45,69.16,2.585226252994225
0,-1717.61,-932.03,-3069.74,63.09,2.5902266906209093
0,-1719.09,-929.85,-3075.05,65.65,2.5952271282475863
0,-1722.11,-929.19,-3073.41,65.9,2.6002275658742704
0,-1720.0,-930.88,-3072.65,62.93,2.6052280035009474
0,-1726.2,-934.83,-3076.0,63.47,2.6102284411276315
0,-1720.97,-933.3,-3074.65,67.0,2.6152288787543156
0,-1719.29,-929.5,-3070.81,67.42,2.6202293163809927
0,-1733.56,-940.79,-3085.48,51.29,2.6252297540076768
0,-1734.58,-938.41,-3084.29,54.6,2.630230191634354
0,-1735.07,-939.73,-3083.61,54.75,2.635230629261038
0,-1740.82,-943.9,-3087.05,53.73,2.640231066887722
0,-1745.19,-960.63,-3093.33,46.0,2.645231504514399
0,-1748.52,-964.14,-3096.69,45.31,2.650231942141083
0,-1746.84,-956.28,-3096.6,47.18,2.65523237976776
0,-1742.63,-954.29,-3093.89,48.81,2.6602328173944443
0,-1743.05,-951.34,-3090.31,51.75,2.6652332550211284
0,-1739.07,-950.42,-3091.36,49.3,2.6702336926478054
0,-1739.97,-949.24,-3092.88,47.64,2.6752341302744895
0,-1734.61,-945.66,-3089.25,48.6,2.6802345679011736
0,-1743.88,-956.97,-3095.25,44.42,2.6852350055278507
0,-1747.38,-956.6,-3099.24,44.73,2.6902354431545348
0,-1744.14,-955.56,-3096.93,46.86,2.695235880781212
0,-1746.67,-954.9,-3097.48,45.81,2.700236318407896
0,-1740.34,-947.49,-3092.6,51.6,2.70523675603458
0,-1744.83,-942.45,-3091.6,53.69,2.710237193661257
0,-1739.66,-943.82,-3087.54,56.19,2.715237631287941
0,-1727.85,-938.72,-3081.05,59.93,2.720238068914618
0,-1735.66,-950.39,-3087.06,55.91,2.7252385065413023
0,-1734.38,-948.08,-3091.71,55.17,2.7302389441679864
0,-1731.01,-950.67,-3087.94,52.79,2.7352393817946634
0,-1735.1,-943.58,-3086.5,52.74,2.7402398194213475
0,-1729.14,-941.2,-3085.35,55.83,2.7452402570480245
0,-1730.24,-935.13,-3080.71,57.09,2.7502406946747087
0,-1730.89,-934.59,-3073.96,57.69,2.755241132301393
0,-1733.29,-941.34,-3084.46,62.02,2.76024156992807
0,-1730.96,-930.66,-3082.54,53.82,2.765242007554754
0,-1730.69,-918.38,-3078.04,54.22,2.770242445181431
0,-1726.53,-927.3,-3075.27,54.95,2.775242882808115
0,-1722.77,-933.53,-3078.29,53.98,2.780243320434799
0,-1726.01,-941.03,-3083.32,53.99,2.785243758061476
0,-1719.74,-927.16,-3078.15,57.46,2.7902441956881603
0,-1727.6,-935.79,-3081.74,53.16,2.7952446333148373
0,-1725.1,-938.28,-3076.72,56.2,2.8002450709415214
0,-1728.25,-939.42,-3081.39,54.63,2.8052455085682055
0,-1729.64,-938.76,-3085.76,55.93,2.8102459461948825
0,-1720.34,-928.35,-3077.17,61.33,2.8152463838215667
0,-1730.52,-933.83,-3079.41,58.28,2.8202468214482437
0,-1723.35,-934.23,-3077.78,61.82,2.825247259074928
0,-1728.94,-937.23,-3082.56,54.23,2.830247696701612
0,-1725.24,-935.97,-3079.33,65.78,2.835248134328289
0,-1726.6,-939.48,-3078.45,56.91,2.840248571954973
0,-1723.15,-932.81,-3074.57,59.38,2.84524900958165
0,-1725.38,-933.46,-3076.4,53.17,2.850249447208334
0,-1726.93,-939.99,-3081.29,57.68,2.8552498848350183
0,-1722.51,-935.98,-3078.28,57.87,2.8602503224616953
0,-1726.92,-934.63,-3074.97,54.8,2.8652507600883794
0,-1729.19,-940.35,-3078.89,53.81,2.8702511977150564
0,-1728.2,-934.56,-3076.83,55.0,2.8752516353417406
0,-1730.2,-936.54,-3081.97,53.63,2.8802520729684247
0,-1726.52,-934.08,-3078.67,58.38,2.8852525105951017
0,-1723.56,-930.49,-3076.48,63.06,2.890252948221786
0,-1721.06,-931.53,-3074.31,58.82,2.895253385848463
0,-1727.69,-935.27,-3078.84,58.51,2.900253823475147
0,-1733.52,-942.63,-3091.31,55.55,2.905254261101831
0,-1728.63,-942.38,-3090.3,48.73,2.910254698728508
0,-1736.92,-946.73,-3087.7,49.36,2.915255136355192
0,-1735.65,-946.51,-3095.02,49.43,2.920255573981869
0,-1734.4,-941.84,-3087.55,48.56,2.9252560116085533
0,-1733.44,-937.31,-3089.59,50.83,2.9302564492352374
0,-1729.75,-935.57,-3084.99,52.53,2.9352568868619144
0,-1719.64,-935.56,-3077.71,62.09,2.9402573244885986
0,-1725.79,-932.6,-3073.93,63.82,2.9452577621152756
0,-1725.75,-934.74,-3079.65,55.62,2.9502581997419597
0,-1730.87,-935.72,-3083.82,57.02,2.955258637368644
0,-1732.2,-931.05,-3076.85,62.24,2.960259074995321
0,-1728.98,-933.97,-3078.71,61.25,2.965259512622005
0,-1728.0,-938.03,-3084.48,59.8,2.970259950248682
0,-1718.94,-929.74,-3078.72,65.17,2.975260387875366
0,-1716.82,-925.0,-3074.73,61.15,2.98026082550205
0,-1723.7,-937.06,-3077.18,63.58,2.985261263128727
0,-1721.56,-928.64,-3068.3,66.96,2.9902617007554113
0,-1716.8,-928.82,-3072.46,62.92,2.9952621383820883
0,-1714.25,-928.94,-3070.12,58.16,3.0002625760087724
0,-1715.57,-924.08,-3070.27,62.5,3.0052630136354566
0,-1722.64,-922.85,-3074.64,63.53,3.0102634512621336
0,-1722.37,-934.34,-3073.74,59.26,3.0152638888888177
0,-1722.99,-931.12,-3075.55,63.01,3.0202643265154947
0,-1724.21,-935.5,-3080.22,62.21,3.025264764142179
0,-1720.14,-933.42,-3078.87,63.74,3.030265201768863
0,-1720.38,-933.54,-3076.66,67.06,3.03526563939554
0,-1729.95,-929.62,-3078.28,62.38,3.040266077022224
0,-1722.68,-923.62,-3071.39,67.89,3.045266514648901
0,-1724.42,-930.06,-3078.16,63.15,3.050266952275585
0,-1728.83,-932.38,-3084.78,51.14,3.0552673899022693
0,-1726.98,-931.54,-3085.69,51.72,3.0602678275289463
0,-1729.18,-940.32,-3083.65,51.22,3.0652682651556304
0,-1728.6,-934.44,-3078.34,61.02,3.0702687027823075
0,-1724.6,-931.2,-3077.67,59.01,3.0752691404089916
0,-1722.34,-931.07,-3073.86,64.75,3.0802695780356757
0,-1715.42,-927.28,-3068.26,67.01,3.0852700156623527
0,-1715.62,-925.66,-3071.04,60.12,3.090270453289037
0,-1715.88,-921.24,-3068.57,68.34,3.095270890915714
0,-1715.36,-929.0,-3067.45,68.72,3.100271328542398
0,-1723.62,-935.37,-3073.71,55.95,3.105271766169082
0,-1720.77,-928.74,-3070.1,60.96,3.110272203795759
0,-1725.12,-932.45,-3071.88,62.16,3.115272641422443
0,-1726.13,-925.6,-3069.21,62.96,3.12027307904912
0,-1724.69,-927.64,-3070.0,60.28,3.1252735166758043
0,-1725.95,-932.68,-3073.77,63.97,3.1302739543024884
0,-1726.11,-938.8,-3077.09,71.32,3.1352743919291655
0,-1727.45,-940.32,-3080.16,61.11,3.1402748295558496
0,-1720.39,-924.94,-3072.89,66.97,3.1452752671825266
0,-1719.99,-926.79,-3075.3,62.28,3.1502757048092107
0,-1717.57,-923.97,-3074.59,57.86,3.155276142435895
0,-1716.77,-938.9,-3077.36,60.85,3.160276580062572
0,-1722.09,-940.38,-3081.65,60.26,3.165277017689256
0,-1727.47,-942.99,-3083.97,53.01,3.170277455315933
0,-1733.71,-944.68,-3088.04,48.07,3.175277892942617
0,-1738.62,-945.58,-3090.82,47.83,3.180278330569301
0,-1731.64,-943.99,-3088.91,50.13,3.185278768195978
0,-1728.47,-938.22,-3083.22,52.33,3.1902792058226623
0,-1722.76,-937.1,-3079.1,55.48,3.1952796434493393
0,-1719.55,-936.41,-3086.15,56.08,3.2002800810760235
0,-1723.77,-938.1,-3079.71,55.62,3.2052805187027076
0,-1728.97,-936.56,-3077.93,58.18,3.2102809563293846
0,-1728.46,-934.48,-3079.84,59.68,3.2152813939560687
0,-1733.42,-940.46,-3084.89,57.3,3.2202818315827457
0,-1728.95,-948.23,-3084.21,54.31,3.22528226920943
0,-1732.7,-945.18,-3082.38,55.19,3.230282706836114
0,-1724.36,-928.98,-3074.68,64.78,3.235283144462791
0,-1725.23,-932.64,-3070.93,58.63,3.240283582089475
0,-1719.0,-922.41,-3072.42,61.01,3.245284019716152
0,-1717.26,-928.83,-3075.29,61.58,3.250284457342836
0,-1712.65,-914.92,-3064.96,63.94,3.2552848949695203
0,-1714.32,-920.48,-3066.57,62.3,3.2602853325961973
0,-1723.88,-933.32,-3075.47,58.27,3.2652857702228815
0,-1726.96,-940.05,-3080.46,59.11,3.2702862078495585
0,-1730.49,-931.47,-3078.39,60.23,3.2752866454762426
0,-1724.85,-929.77,-3075.94,68.4,3.2802870831029267
0,-1726.89,-931.06,-3077.69,61.1,3.2852875207296037
0,-1730.87,-930.97,-3076.87,57.27,3.290287958356288
0,-1725.44,-931.28,-3073.86,61.33,3.295288395982965
0,-1731.14,-933.67,-3077.3,58.7,3.300288833609649
0,-1728.91,-934.27,-3079.27,57.66,3.305289271236333
0,-1725.39,-931.02,-3077.89,63.95,3.31028970886301
0,-1719.22,-924.57,-3074.25,60.86,3.3152901464896942
0,-1718.51,-919.42,-3071.05,64.36,3.3202905841163712
0,-1721.33,-922.8,-3072.25,63.06,3.3252910217430554
0,-1723.32,-925.07,-3071.69,63.97,3.3302914593697395
0,-1722.67,-930.38,-3073.44,64.81,3.3352918969964165
0,-1722.14,-927.39,-3073.5,64.87,3.3402923346231006
0,-1722.51,-927.85,-3074.77,59.09,3.3452927722497847
0,-1721.84,-927.52,-3070.4,62.98,3.3502932098764617
0,-1719.42,-931.76,-3069.87,66.27,3.355293647503146
0,-1722.48,-926.07,-3078.47,67.1,3.360294085129823
0,-1723.13,-938.37,-3078.48,70.12,3.365294522756507
0,-1731.17,-949.05,-3086.13,59.31,3.370294960383191
0,-1734.91,-945.21,-3088.0,51.3,3.375295398009868
0,-1724.8,-944.15,-3083.58,50.41,3.3802958356365522
0,-1726.14,-934.51,-3077.06,54.45,3.3852962732632292
0,-1728.92,-936.47,-3079.77,54.26,3.3902967108899134
0,-1722.94,-931.72,-3079.15,56.34,3.3952971485165975
0,-1729.21,-937.16,-3084.7,54.76,3.4002975861432745
0,-1727.64,-935.72,-3082.85,48.72,3.4052980237699586
0,-1736.61,-939.15,-3082.19,48.18,3.4102984613966356
0,-1735.34,-938.45,-3087.87,51.2,3.4152988990233197
0,-1728.46,-940.12,-3082.96,55.7,3.420299336650004
0,-1729.79,-944.56,-3087.54,48.06,3.425299774276681
0,-1733.32,-943.23,-3086.35,49.58,3.430300211903365
0,-1729.12,-942.8,-3084.64,51.42,3.435300649530042
0,-1732.89,-939.2,-3086.59,47.56,3.440301087156726
0,-1723.12,-937.11,-3082.44,46.06,3.4453015247834102
0,-1723.85,-933.46,-3083.55,45.35,3.4503019624100872
0,-1729.11,-939.94,-3089.1,49.56,3.4553024000367714
0,-1732.56,-942.44,-3086.02,48.15,3.4603028376634484
0,-1724.64,-928.31,-3074.96,64.73,3.4653032752901325
0,-1720.81,-934.55,-3072.48,62.7,3.4703037129168166
0,-1724.4,-939.02,-3076.4,62.78,3.4753041505434936
0,-1725.36,-931.74,-3079.03,66.07,3.4803045881701777
0,-1723.62,-930.2,-3076.42,60.52,3.4853050257968547
0,-1726.23,-933.74,-3076.53,61.09,3.490305463423539
0,-1724.93,-936.18,-3079.31,53.53,3.495305901050223
0,-1729.81,-931.59,-3074.87,56.96,3.5003063386769
0,-1726.76,-928.42,-3076.42,62.51,3.505306776303584
0,-1716.04,-927.6,-3069.26,66.36,3.510307213930261
0,-1718.51,-926.26,-3072.23,59.19,3.5153076515569452
0,-1724.32,-930.2,-3076.14,59.29,3.5203080891836294
0,-1722.28,-928.14,-3077.88,60.95,3.5253085268103064
0,-1721.61,-928.3,-3080.94,56.27,3.5303089644369905
0,-1729.75,-929.17,-3080.81,56.93,3.5353094020636675
0,-1724.97,-938.94,-3083.44,58.61,3.5403098396903516
0,-1723.85,-933.12,-3075.72,56.17,3.5453102773170357
0,-1724.29,-929.85,-3080.19,59.11,3.5503107149437128
0,-1726.86,-935.96,-3078.96,56.96,3.555311152570397
0,-1734.88,-941.14,-3079.6,54.57,3.560311590197074
0,-1729.14,-938.02,-3080.68,57.92,3.565312027823758
0,-1725.12,-935.31,-3075.3,61.84,3.570312465450442
0,-1719.96,-935.48,-3080.9,52.58,3.575312903077119
0,-1727.01,-932.25,-3079.87,49.81,3.5803133407038032
0,-1723.77,-935.45,-3078.58,54.28,3.5853137783304803
0,-1724.55,-934.2,-3080.84,52.98,3.5903142159571644
0,-1724.07,-932.22,-3078.99,58.23,3.5953146535838485
0,-1726.23,-936.56,-3075.22,58.34,3.6003150912105255
0,-1722.73,-930.02,-3077.92,59.15,3.6053155288372096
0,-1722.79,-924.77,-3073.92,62.04,3.6103159664638866
0,-1726.01,-939.72,-3079.98,47.18,3.6153164040905708
0,-1726.43,-945.02,-3083.28,52.91,3.620316841717255
0,-1726.8,-938.12,-3080.29,52.36,3.625317279343932
0,-1727.63,-937.46,-3079.39,61.05,3.630317716970616
0,-1723.85,-932.7,-3075.75,60.39,3.635318154597293
0,-1722.13,-928.09,-3070.0,60.43,3.640318592223977
0,-1724.47,-933.16,-3076.69,60.17,3.6453190298506613
0,-1721.35,-927.53,-3075.92,59.31,3.6503194674773383
0,-1730.01,-937.31,-3080.01,58.28,3.6553199051040224
0,-1729.17,-940.8,-3084.13,56.08,3.6603203427306994
0,-1733.42,-939.06,-3093.41,55.56,3.6653207803573835
0,-1728.47,-935.75,-3085.01,53.78,3.6703212179840676
0,-1731.51,-930.17,-3081.35,53.02,3.6753216556107446
0,-1724.45,-931.37,-3078.07,58.66,3.6803220932374288
0,-1717.93,-934.25,-3074.84,56.67,3.6853225308641058
0,-1724.57,-931.32,-3078.13,53.15,3.69032296849079
0,-1724.15,-934.7,-3080.4,49.06,3.695323406117474
0,-1728.95,-937.99,-3079.21,54.05,3.700323843744151
0,-1731.35,-941.59,-3084.87,55.93,3.705324281370835
0,-1724.61,-938.8,-3086.45,62.22,3.710324718997512
0,-1725.22,-932.89,-3070.3,68.76,3.7153251566241963
0,-1733.5,-933.14,-3081.82,59.91,3.7203255942508804
0,-1726.28,-928.9,-3080.22,57.12,3.7253260318775574
0,-1720.95,-928.09,-3069.7,67.49,3.7303264695042415
0,-1723.84,-931.19,-3073.92,59.65,3.7353269071309185
0,-1730.4,-928.93,-3075.3,59.51,3.7403273447576026
0,-1727.18,-935.32,-3076.85,63.41,3.7453277823842868
0,-1728.33,-942.29,-3080.65,58.74,3.7503282200109638
0,-1724.81,-934.91,-3079.82,63.07,3.755328657637648
0,-1729.18,-932.91,-3079.07,56.09,3.760329095264325
0,-1718.68,-933.17,-3074.33,54.67,3.765329532891009
0,-1729.63,-936.13,-3076.12,57.81,3.770329970517693
0,-1723.42,-939.32,-3079.27,59.87,3.77533040814437
0,-1720.61,-935.37,-3077.62,63.6,3.7803308457710543
0,-1728.26,-925.3,-3070.18,66.44,3.7853312833977313
0,-1720.89,-930.7,-3071.9,60.55,3.7903317210244154
0,-1718.17,-925.75,-3072.86,65.17,3.7953321586510995
0,-1724.34,-934.19,-3078.35,59.31,3.8003325962777765
0,-1724.9,-932.35,-3077.68,59.77,3.8053330339044606
0,-1725.1,-942.12,-3076.48,60.65,3.8103334715311377
0,-1723.08,-935.06,-3075.59,69.19,3.815333909157822
0,-1728.26,-937.22,-3078.09,58.99,3.820334346784506
0,-1722.18,-924.92,-3072.84,62.69,3.825334784411183
0,-1720.93,-931.58,-3068.11,63.0,3.830335222037867
0,-1721.61,-929.98,-3073.16,62.32,3.835335659664544
0,-1720.43,-923.99,-3074.23,63.23,3.840336097291228
0,-1722.46,-932.95,-3083.43,55.46,3.8453365349179123
0,-1725.19,-934.11,-3079.48,61.13,3.8503369725445893
0,-1725.29,-937.69,-3081.25,58.19,3.8553374101712734
0,-1732.19,-940.76,-3086.41,54.35,3.8603378477979504
0,-1723.45,-937.4,-3079.59,57.77,3.8653382854246345
0,-1723.39,-937.24,-3078.19,53.72,3.8703387230513187
0,-1722.99,-922.89,-3074.8,60.98,3.8753391606779957
0,-1717.57,-922.08,-3067.11,61.08,3.88033959830468
0,-1720.12,-927.27,-3069.05,61.89,3.885340035931357
0,-1723.95,-929.95,-3073.81,62.05,3.890340473558041
0,-1717.9,-930.97,-3075.88,59.24,3.895340911184725
0,-1723.22,-927.8,-3077.4,57.07,3.900341348811402
0,-1716.85,-929.29,-3072.34,60.14,3.905341786438086
0,-1726.2,-925.64,-3076.32,55.41,3.910342224064763
0,-1726.09,-930.4,-3076.46,56.05,3.9153426616914473
0,-1728.29,-927.24,-3077.31,54.97,3.9203430993181314
0,-1728.89,-928.41,-3079.34,53.47,3.9253435369448084
0,-1722.21,-926.5,-3073.99,58.48,3.9303439745714925
0,-1716.95,-924.39,-3067.56,66.2,3.9353444121981696
0,-1715.83,-937.06,-3068.65,61.49,3.9403448498248537
0,-1713.15,-932.76,-3069.79,65.59,3.945345287451538
0,-1722.91,-939.31,-3082.28,54.93,3.950345725078215
0,-1724.51,-941.58,-3077.1,55.4,3.955346162704899
0,-1724.34,-935.5,-3077.97,55.01,3.960346600331576
0,-1715.7,-923.05,-3071.29,65.23,3.96534703795826
0,-1715.13,-924.26,-3070.69,64.98,3.970347475584944
0,-1726.12,-934.51,-3077.74,60.75,3.975347913211621
0,-1735.17,-936.04,-3082.03,57.6,3.9803483508383053
0,-1725.35,-930.32,-3082.13,58.53,3.9853487884649823
0,-1724.45,-931.28,-3079.83,53.94,3.9903492260916664
0,-1726.79,-928.3,-3078.64,57.67,3.9953496637183505
0,-1724.97,-916.68,-3070.03,66.04,4.0003501013450276
0,-1738.19,-945.17,-3086.98,48.23,4.005350538971712
0,-1735.78,-951.77,-3090.48,35.9,4.010350976598389
0,-1734.51,-944.69,-3084.23,45.52,4.015351414225073
0,-1726.34,-942.53,-3081.78,49.62,4.020351851851757
0,-1725.32,-939.57,-3083.12,53.02,4.025352289478434
0,-1729.86,-940.22,-3083.84,54.16,4.030352727105118
0,-1731.21,-929.49,-3083.13,54.84,4.035353164731802
0,-1729.79,-936.3,-3086.09,54.18,4.040353602358479
0,-1725.8,-939.55,-3084.45,61.57,4.045354039985163
0,-1727.87,-938.96,-3083.16,61.85,4.05035447761184
0,-1721.06,-931.51,-3074.96,64.1,4.055354915238524
0,-1720.72,-928.67,-3073.9,69.31,4.0603553528652085
0,-1731.41,-929.94,-3076.53,62.19,4.065355790491886
0,-1721.67,-928.42,-3074.53,68.81,4.07035622811857
0,-1728.13,-939.85,-3079.98,61.85,4.075356665745247
0,-1728.07,-938.27,-3078.81,62.07,4.080357103371931
0,-1719.01,-928.08,-3076.3,65.71,4.085357540998615
0,-1726.41,-920.08,-3072.43,64.91,4.090357978625292
0,-1723.42,-936.3,-3076.95,64.28,4.095358416251976
0,-1723.4,-939.68,-3075.78,62.83,4.100358853878653
0,-1728.94,-941.1,-3084.77,55.24,4.105359291505337
0,-1736.29,-943.47,-3087.21,57.41,4.110359729132021
0,-1734.11,-946.84,-3088.92,55.8,4.115360166758698
0,-1730.59,-935.79,-3086.94,60.95,4.120360604385382
0,-1729.38,-936.93,-3083.75,56.11,4.125361042012059
0,-1732.67,-937.56,-3084.56,52.32,4.130361479638744
0,-1727.7,-934.19,-3081.74,52.42,4.135361917265428
0,-1726.31,-931.87,-3079.54,58.11,4.140362354892105
0,-1731.74,-944.35,-3081.87,62.76,4.145362792518789
0,-1733.92,-947.58,-3084.64,57.25,4.150363230145466
0,-1730.09,-937.46,-3084.89,56.32,4.15536366777215
0,-1728.24,-934.58,-3081.5,59.81,4.160364105398834
0,-1726.16,-930.8,-3074.24,61.55,4.165364543025511
0,-1719.41,-935.32,-3072.73,64.07,4.170364980652195
0,-1723.85,-938.02,-3083.59,66.36,4.175365418278872
0,-1723.89,-926.09,-3074.07,65.53,4.180365855905556
0,-1718.24,-918.46,-3071.45,66.29,4.18536629353224
0,-1726.82,-930.37,-3073.93,61.94,4.1903667311589174
0,-1733.47,-939.64,-3076.31,59.49,4.195367168785602
0,-1728.43,-938.32,-3078.82,60.03,4.200367606412279
0,-1726.68,-940.19,-3079.19,60.34,4.205368044038963
0,-1720.47,-934.35,-3075.19,61.47,4.210368481665647
0,-1720.46,-928.64,-3071.65,62.46,4.215368919292324
0,-1720.44,-926.28,-3072.42,58.46,4.220369356919008
0,-1716.18,-923.94,-3067.31,62.42,4.225369794545685
0,-1721.97,-933.71,-3074.31,61.25,4.230370232172369
0,-1724.14,-935.1,-3075.44,57.73,4.235370669799053
0,-1726.65,-937.37,-3076.96,61.13,4.24037110742573
0,-1724.04,-932.63,-3074.13,65.61,4.245371545052414
0,-1721.91,-926.84,-3071.65,63.56,4.250371982679091
0,-1718.45,-924.14,-3074.27,63.72,4.2553724203057754
0,-1721.01,-924.82,-3076.57,58.67,4.26037285793246
0,-1721.3,-930.23,-3075.92,60.58,4.265373295559137
0,-1721.85,-929.36,-3074.75,56.24,4.270373733185821
0,-1723.28,-933.6,-3079.4,58.05,4.275374170812498
0,-1724.91,-931.98,-3078.47,59.1,4.280374608439182
0,-1723.74,-928.62,-3072.48,63.47,4.285375046065866
0,-1723.06,-916.88,-3072.18,65.06,4.290375483692543
0,-1721.29,-933.18,-3073.49,64.24,4.295375921319227
0,-1717.4,-927.26,-3073.53,66.79,4.300376358945904
0,-1719.19,-928.96,-3076.72,58.94,4.305376796572588
0,-1717.78,-937.35,-3079.51,58.63,4.310377234199272
0,-1724.1,-930.98,-3079.85,58.42,4.315377671825949
0,-1728.56,-942.01,-3082.08,52.76,4.3203781094526335
0,-1718.08,-935.09,-3075.93,58.66,4.3253785470793105
0,-1716.99,-929.59,-3073.51,60.61,4.330378984705995
0,-1715.22,-920.91,-3070.01,62.31,4.335379422332679
0,-1722.81,-929.24,-3073.26,62.01,4.340379859959356
0,-1721.18,-933.76,-3081.09,55.55,4.34538029758604
0,-1716.34,-931.74,-3077.36,56.98,4.350380735212717
0,-1727.36,-931.64,-3081.62,57.07,4.355381172839401
0,-1730.21,-936.76,-3077.41,58.06,4.360381610466085
0,-1722.99,-943.55,-3079.17,61.07,4.365382048092762
0,-1717.59,-926.96,-3069.84,59.16,4.370382485719446
0,-1722.52,-925.68,-3073.1,61.48,4.375382923346123
0,-1728.38,-935.36,-3072.78,61.48,4.380383360972807
0,-1725.7,-931.61,-3077.56,55.17,4.3853837985994915
0,-1731.68,-944.83,-3081.28,53.77,4.3903842362261685
0,-1731.27,-948.11,-3089.8,50.94,4.395384673852853
0,-1728.34,-938.94,-3084.67,59.51,4.40038511147953
0,-1734.74,-939.04,-3088.22,52.93,4.405385549106214
0,-1735.94,-940.32,-3084.88,54.29,4.410385986732898
0,-1731.94,-928.49,-3075.72,59.9,4.415386424359575
0,-1726.19,-935.96,-3078.98,57.82,4.420386861986259
0,-1725.81,-931.01,-3080.71,59.71,4.425387299612936
0,-1717.97,-927.73,-3072.13,65.82,4.43038773723962
0,-1720.33,-925.39,-3070.09,63.88,4.435388174866304
0,-1705.26,-919.18,-3059.96,84.29,4.440388612492981
0,-1714.62,-928.44,-3068.27,68.62,4.445389050119665
0,-1725.11,-936.67,-3083.73,53.4,4.450389487746342
0,-1722.44,-939.61,-3076.33,61.46,4.4553899253730265
0,-1719.83,-931.23,-3072.76,59.14,4.460390362999711
0,-1720.82,-933.16,-3074.76,56.7,4.465390800626388
0,-1730.93,-935.03,-3078.42,55.62,4.470391238253072
0,-1725.05,-939.67,-3081.8,57.33,4.475391675879749
0,-1719.56,-934.24,-3078.77,59.54,4.480392113506433
0,-1722.96,-937.64,-3078.34,56.92,4.485392551133117
0,-1723.57,-928.31,-3077.51,57.2,4.490392988759794
0,-1719.94,-933.21,-3071.53,56.88,4.495393426386478
0,-1725.03,-934.4,-3084.5,45.67,4.500393864013155
0,-1724.67,-937.7,-3079.46,55.64,4.505394301639839
0,-1727.67,-937.54,-3078.71,56.03,4.510394739266523
0,-1725.87,-933.7,-3075.04,64.86,4.5153951768932
0,-1728.68,-936.1,-3077.74,66.24,4.5203956145198845
0,-1733.12,-939.15,-3080.78,58.45,4.5253960521465615
0,-1728.1,-929.88,-3077.75,55.13,4.530396489773246
0,-1726.73,-920.16,-3069.89,65.6,4.53539692739993
0,-1723.48,-922.44,-3075.89,59.17,4.540397365026607
0,-1724.19,-933.98,-3080.61,61.55,4.545397802653291
0,-1726.38,-939.4,-3084.46,57.34,4.550398240279968
0,-1731.39,-929.93,-3074.89,56.54,4.555398677906652
0,-1723.67,-923.78,-3071.48,64.03,4.560399115533336
0,-1722.88,-925.29,-3074.06,62.14,4.565399553160013
0,-1724.24,-928.88,-3074.33,65.09,4.570399990786697
0,-1728.76,-928.77,-3070.87,63.75,4.575400428413374
0,-1720.76,-924.16,-3071.58,63.98,4.580400866040058
0,-1720.62,-935.87,-3074.97,57.55,4.5854013036667425
0,-1720.86,-931.19,-3072.64,59.06,4.5904017412934195
0,-1722.05,-924.41,-3068.63,64.17,4.595402178920104
0,-1716.29,-920.09,-3067.1,63.67,4.600402616546781
0,-1723.18,-926.56,-3075.77,53.62,4.605403054173465
0,-1721.15,-938.62,-3075.28,58.83,4.610403491800149
0,-1719.79,-936.79,-3079.78,61.32,4.615403929426826
0,-1718.88,-940.74,-3081.73,54.17,4.62040436705351
0,-1728.53,-939.72,-3085.53,49.98,4.625404804680187
0,-1727.48,-939.49,-3082.95,49.21,4.630405242306871
0,-1731.78,-948.68,-3084.56,49.03,4.635405679933555
0,-1734.19,-944.3,-3086.86,52.77,4.640406117560232
0,-1728.5,-939.63,-3084.67,49.17,4.645406555186916
0,-1732.65,-945.61,-3088.33,52.83,4.650406992813593
0,-1733.07,-945.07,-3092.88,52.29,4.6554074304402775
0,-1730.14,-940.55,-3084.52,45.7,4.660407868066962
0,-1732.42,-939.35,-3089.47,50.46,4.665408305693639
0,-1733.12,-933.62,-3086.63,52.96,4.670408743320323
0,-1723.15,-928.31,-3073.86,57.38,4.675409180947
0,-1719.78,-916.18,-3070.04,60.69,4.680409618573684
0,-1716.77,-937.67,-3078.34,57.66,4.685410056200368
0,-1718.74,-941.6,-3077.54,57.87,4.690410493827045
0,-1722.3,-939.12,-3081.46,60.05,4.695410931453729
0,-1720.25,-924.64,-3071.42,68.32,4.700411369080413
0,-1718.73,-923.11,-3066.67,63.4,4.70541180670709
0,-1718.21,-927.09,-3075.61,62.5,4.710412244333774
0,-1719.54,-929.35,-3076.66,60.0,4.715412681960451
0,-1722.39,-928.16,-3073.47,63.05,4.7204131195871355
0,-1725.52,-928.68,-3079.74,59.59,4.72541355721382
0,-1720.71,-933.92,-3083.61,59.43,4.730413994840497
0,-1720.98,-935.37,-3076.4,62.74,4.735414432467181
0,-1718.28,-935.42,-3074.62,59.63,4.740414870093858
0,-1719.6,-935.77,-3076.01,55.14,4.745415307720542
0,-1725.51,-928.18,-3076.52,60.62,4.750415745347226
0,-1721.75,-932.88,-3072.92,61.31,4.755416182973903
0,-1725.22,-935.3,-3076.74,62.27,4.760416620600587
0,-1718.31,-922.56,-3069.5,62.62,4.765417058227264
0,-1710.25,-914.42,-3062.71,62.82,4.770417495853948
0,-1716.65,-928.77,-3064.41,63.94,4.775417933480632
0,-1719.26,-933.45,-3074.39,61.8,4.780418371107309
0,-1726.35,-930.33,-3072.4,62.02,4.7854188087339935
0,-1720.14,-925.22,-3068.5,68.04,4.7904192463606705
0,-1717.31,-917.73,-3063.61,68.24,4.795419683987355
0,-1716.88,-925.3,-3068.64,65.36,4.800420121614039
0,-1719.58,-931.21,-3069.17,69.54,4.805420559240716
0,-1726.08,-925.73,-3075.12,65.65,4.8104209968674
0,-1726.38,-929.71,-3079.4,62.27,4.815421434494077
0,-1724.92,-931.79,-3072.88,62.47,4.820421872120761
0,-1728.04,-935.7,-3082.78,59.85,4.825422309747445
0,-1727.61,-931.4,-3079.51,62.72,4.830422747374122
0,-1727.73,-931.5,-3078.84,64.62,4.835423185000806
0,-1732.68,-945.3,-3084.26,61.3,4.840423622627483
0,-1736.21,-944.0,-3087.09,56.57,4.845424060254167
0,-1728.59,-937.49,-3086.27,52.22,4.8504244978808515
0,-1727.68,-938.07,-3082.09,51.2,4.8554249355075285
0,-1728.83,-943.8,-3085.02,55.03,4.860425373134213
0,-1727.4,-943.2,-3086.87,54.18,4.86542581076089
0,-1733.66,-930.72,-3086.77,53.91,4.870426248387574
0,-1729.35,-939.22,-3085.49,48.33,4.875426686014258
0,-1733.45,-940.5,-3084.93,54.02,4.880427123640935
0,-1718.43,-938.21,-3081.73,56.4,4.885427561267619
0,-1729.03,-928.07,-3081.55,53.34,4.890427998894296
0,-1727.21,-930.01,-3074.59,62.5,4.89542843652098
0,-1734.68,-950.25,-3087.7,50.09,4.900428874147664
0,-1730.9,-947.9,-3086.2,53.43,4.905429311774341
0,-1727.94,-941.14,-3083.5,57.15,4.910429749401025
0,-1719.59,-934.24,-3077.23,61.13,4.915430187027702
0,-1722.65,-930.84,-3076.44,62.49,4.9204306246543865
0,-1720.51,-927.11,-3073.92,58.5,4.925431062281071
0,-1725.22,-929.97,-3075.73,61.44,4.930431499907748
0,-1723.8,-933.93,-3074.51,64.07,4.935431937534432
0,-1719.69,-928.5,-3072.61,64.96,4.940432375161109
0,-1722.07,-926.83,-3075.85,60.08,4.945432812787793
0,-1720.94,-923.45,-3071.08,61.53,4.950433250414477
0,-1729.54,-928.62,-3079.22,57.9,4.955433688041154
0,-1733.1,-936.8,-3081.85,56.09,4.960434125667838
0,-1726.51,-953.41,-3084.76,48.78,4.965434563294515
0,-1728.45,-947.9,-3087.39,55.19,4.970435000921199
0,-1733.37,-944.47,-3084.71,51.81,4.975435438547883
0,-1734.68,-943.74,-3089.88,45.15,4.98043587617456
0,-1729.66,-940.92,-3085.6,52.41,4.9854363138012445
0,-1739.13,-939.61,-3090.34,43.01,4.9904367514279215
0,-1731.79,-948.55,-3088.26,45.96,4.995437189054606
0,-1731.18,-940.75,-3081.36,52.08,5.00043762668129
0,-1728.18,-942.65,-3080.72,46.34,5.005438064307967
0,-1726.42,-933.02,-3081.61,58.25,5.010438501934651
0,-1731.33,-929.78,-3076.9,59.18,5.015438939561328
0,-1725.68,-924.89,-3079.14,62.69,5.020439377188012
0,-1725.93,-932.85,-3072.72,61.7,5.025439814814696
0,-1724.38,-937.95,-3076.25,60.86,5.030440252441373
0,-1725.32,-934.74,-3078.99,56.52,5.035440690068057
0,-1719.92,-924.7,-3075.96,65.37,5.040441127694734
0,-1723.04,-926.04,-3069.9,67.96,5.045441565321418
0,-1719.87,-936.34,-3078.6,59.75,5.0504420029481025
0,-1728.65,-946.25,-3081.17,62.58,5.0554424405747795
0,-1725.61,-939.17,-3076.47,59.11,5.060442878201464
0,-1724.57,-934.51,-3077.81,60.1,5.065443315828141
0,-1718.91,-916.94,-3069.81,67.73,5.070443753454825
0,-1712.57,-925.97,-3065.49,72.01,5.075444191081509
0,-1715.23,-932.53,-3070.85,70.54,5.080444628708186
0,-1712.3,-919.81,-3069.13,70.83,5.08544506633487
0,-1718.61,-929.82,-3069.77,68.24,5.090445503961547
0,-1722.24,-932.32,-3075.24,65.51,5.095445941588231
0,-1719.77,-924.41,-3073.79,64.75,5.100446379214915
0,-1708.81,-926.14,-3064.97,71.31,5.105446816841592
0,-1711.53,-921.16,-3066.95,71.79,5.110447254468276
0,-1713.38,-922.35,-3069.98,70.64,5.115447692094953
0,-1715.87,-924.22,-3068.57,62.89,5.1204481297216375
0,-1718.06,-930.57,-3071.09,69.31,5.125448567348322
0,-1712.73,-919.93,-3065.79,72.14,5.130449004974999
0,-1720.33,-922.26,-3068.7,66.94,5.135449442601683
0,-1724.64,-929.6,-3069.61,60.22,5.14044988022836
0,-1723.81,-935.22,-3079.59,54.05,5.145450317855044
0,-1724.66,-936.26,-3073.07,60.18,5.150450755481728
0,-1723.88,-933.13,-3073.9,60.56,5.155451193108405
0,-1716.59,-931.53,-3071.69,64.86,5.160451630735089
0,-1715.07,-929.26,-3070.85,61.83,5.165452068361766
0,-1710.77,-925.28,-3062.25,71.64,5.17045250598845
0,-1717.85,-930.17,-3067.14,73.33,5.175452943615134
0,-1723.93,-936.72,-3079.92,59.13,5.180453381241811
0,-1728.07,-936.92,-3081.67,57.45,5.1854538188684955
0,-1718.66,-921.35,-3071.41,60.67,5.190454256495173
0,-1722.06,-937.75,-3075.3,56.77,5.195454694121857
0,-1721.61,-939.88,-3075.05,56.88,5.200455131748541
0,-1727.93,-939.94,-3077.42,59.19,5.205455569375218
0,-1723.11,-933.68,-3080.42,56.41,5.210456007001902
0,-1726.32,-930.74,-3081.63,55.27,5.215456444628579
0,-1724.77,-935.32,-3078.43,60.48,5.220456882255263
0,-1725.12,-932.54,-3076.34,53.94,5.225457319881947
0,-1715.83,-932.14,-3074.58,60.39,5.230457757508624
0,-1732.0,-940.55,-3084.89,50.68,5.235458195135308
0,-1734.07,-949.0,-3087.98,49.8,5.240458632761985
0,-1732.98,-939.7,-3088.9,50.36,5.245459070388669
0,-1736.73,-937.94,-3079.63,56.03,5.2504595080153535
0,-1739.68,-939.1,-3085.28,51.51,5.255459945642031
0,-1738.65,-945.61,-3090.73,45.12,5.260460383268715
0,-1738.49,-949.52,-3098.75,40.54,5.265460820895392
0,-1740.19,-945.86,-3093.4,43.78,5.270461258522076
0,-1739.79,-941.78,-3087.66,48.86,5.27546169614876
0,-1735.87,-939.78,-3087.73,51.93,5.280462133775437
0,-1731.33,-936.57,-3084.29,55.82,5.285462571402121
0,-1729.13,-936.29,-3081.84,57.59,5.290463009028798
0,-1732.1,-935.65,-3086.91,52.92,5.295463446655482
0,-1723.08,-935.13,-3083.22,63.72,5.300463884282166
0,-1730.78,-933.42,-3076.73,60.99,5.305464321908843
0,-1733.1,-944.96,-3084.85,54.52,5.310464759535527
0,-1734.15,-944.98,-3087.33,55.09,5.3154651971622044
0,-1728.0,-930.21,-3082.62,61.51,5.320465634788889
0,-1731.21,-936.9,-3080.05,58.86,5.325466072415573
0,-1725.35,-931.26,-3075.88,63.79,5.33046651004225
0,-1724.78,-928.06,-3076.1,60.48,5.335466947668934
0,-1720.84,-929.06,-3077.93,68.17,5.340467385295611
0,-1716.81,-933.73,-3076.89,63.98,5.345467822922295
0,-1715.42,-929.46,-3071.14,66.55,5.350468260548979
0,-1713.03,-927.56,-3067.53,71.51,5.355468698175656
0,-1724.61,-929.95,-3075.19,68.11,5.36046913580234
0,-1722.47,-930.1,-3076.22,68.31,5.365469573429024
0,-1724.27,-934.34,-3080.62,66.93,5.370470011055701
0,-1721.81,-929.85,-3071.98,71.41,5.375470448682385
0,-1721.1,-928.79,-3069.31,62.49,5.3804708863090625
0,-1721.65,-922.21,-3069.77,66.47,5.385471323935747
0,-1722.43,-927.5,-3073.65,65.83,5.390471761562431
0,-1714.86,-928.04,-3068.6,64.6,5.395472199189108
0,-1716.78,-937.07,-3076.31,61.37,5.400472636815792
0,-1716.66,-927.12,-3074.63,64.11,5.405473074442469
0,-1723.24,-922.12,-3071.09,65.32,5.410473512069153
0,-1721.92,-936.11,-3072.28,64.52,5.415473949695837
0,-1724.91,-933.08,-3076.62,59.43,5.420474387322514
0,-1723.8,-931.56,-3073.57,61.13,5.425474824949198
0,-1722.55,-932.78,-3071.7,60.1,5.430475262575875
0,-1726.46,-921.06,-3072.41,56.97,5.435475700202559
0,-1727.87,-930.87,-3078.44,54.78,5.440476137829243
0,-1727.02,-935.81,-3078.82,53.38,5.4454765754559205
0,-1730.52,-943.0,-3081.24,57.36,5.450477013082605
0,-1726.74,-942.41,-3074.92,57.0,5.455477450709282
0,-1725.79,-935.62,-3076.65,60.43,5.460477888335966
0,-1722.21,-928.84,-3077.4,55.01,5.46547832596265
0,-1730.67,-938.21,-3085.43,47.41,5.470478763589327
0,-1730.8,-938.69,-3084.28,50.27,5.475479201216011
0,-1733.34,-934.28,-3085.05,45.85,5.480479638842688
0,-1728.96,-936.15,-3083.74,47.68,5.485480076469372
0,-1735.58,-932.64,-3086.57,50.16,5.490480514096056
0,-1736.26,-936.15,-3079.95,53.12,5.495480951722733
0,-1738.01,-951.05,-3093.26,45.41,5.500481389349417
0,-1721.06,-948.36,-3086.95,50.51,5.505481826976094
0,-1728.65,-938.21,-3084.02,53.19,5.5104822646027785
0,-1728.03,-935.58,-3085.19,53.6,5.515482702229463
0,-1735.48,-932.31,-3085.05,50.83,5.52048313985614
0,-1732.53,-928.22,-3084.95,55.08,5.525483577482824
0,-1720.78,-926.55,-3078.76,59.57,5.530484015109501
0,-1727.96,-938.42,-3082.8,49.85,5.535484452736185
0,-1725.29,-944.19,-3088.62,53.52,5.540484890362869
0,-1735.26,-943.22,-3094.99,47.96,5.545485327989546
0,-1731.24,-944.1,-3090.86,52.7,5.55048576561623
0,-1730.82,-940.48,-3087.51,53.56,5.555486203242907
0,-1732.86,-939.35,-3083.79,49.66,5.560486640869591
0,-1729.96,-937.74,-3077.94,56.9,5.565487078496275
0,-1723.52,-927.7,-3078.05,57.01,5.570487516122952
0,-1729.37,-941.48,-3082.51,54.77,5.5754879537496365
0,-1726.48,-934.57,-3079.92,54.36,5.5804883913763135
0,-1723.99,-928.53,-3077.15,57.75,5.585488829002998
0,-1723.24,-933.42,-3078.73,56.44,5.590489266629682
0,-1723.04,-930.06,-3071.95,59.52,5.595489704256359
0,-1714.54,-932.58,-3075.25,55.28,5.600490141883043
0,-1717.23,-938.16,-3078.42,58.56,5.60549057950972
0,-1727.7,-939.31,-3078.57,62.83,5.610491017136404
0,-1716.69,-929.8,-3069.95,70.87,5.615491454763088
0,-1721.96,-932.52,-3064.39,71.62,5.620491892389765
0,-1722.95,-919.72,-3073.17,58.14,5.625492330016449
0,-1726.37,-919.83,-3067.39,63.11,5.630492767643126
0,-1718.97,-931.44,-3068.39,59.76,5.63549320526981
0,-1724.58,-931.23,-3075.48,60.95,5.6404936428964945
0,-1720.02,-931.99,-3075.31,57.74,5.6454940805231715
0,-1721.93,-929.66,-3068.46,60.91,5.650494518149856
0,-1732.51,-927.81,-3071.76,62.23,5.655494955776533
0,-1728.51,-930.99,-3078.47,59.45,5.660495393403217
0,-1723.3,-934.06,-3078.08,59.17,5.665495831029901
0,-1726.48,-935.7,-3075.42,60.77,5.670496268656578
0,-1731.48,-935.46,-3077.3,53.77,5.675496706283262
0,-1738.21,-946.43,-3091.12,44.23,5.680497143909939
0,-1734.11,-946.72,-3085.61,50.3,5.685497581536623
0,-1731.86,-945.89,-3091.44,47.8,5.690498019163307
0,-1732.9,-944.4,-3086.87,48.2,5.695498456789984
0,-1733.32,-940.74,-3088.26,49.96,5.700498894416668
0,-1728.41,-941.68,-3086.25,55.87,5.705499332043345
0,-1727.13,-945.77,-3086.6,54.11,5.7104997696700295
0,-1734.54,-940.99,-3088.44,50.22,5.715500207296714
0,-1731.49,-946.42,-3085.71,48.62,5.720500644923391
0,-1730.58,-945.16,-3090.59,47.41,5.725501082550075
0,-1731.51,-953.13,-3091.5,46.13,5.730501520176752
0,-1730.42,-946.64,-3088.62,42.04,5.735501957803436
0,-1736.56,-945.1,-3087.43,46.08,5.74050239543012
0,-1730.69,-942.19,-3089.08,47.81,5.745502833056797
0,-1728.05,-936.1,-3085.62,52.36,5.750503270683481
0,-1731.47,-941.57,-3084.12,56.08,5.755503708310158
0,-1727.13,-937.93,-3082.09,52.05,5.760504145936842
0,-1726.78,-933.68,-3079.2,53.75,5.765504583563526
0,-1728.82,-930.03,-3082.24,51.25,5.770505021190203
0,-1725.98,-934.34,-3081.28,60.18,5.7755054588168875
0,-1724.02,-932.2,-3077.57,65.21,5.7805058964435645
0,-1724.69,-928.16,-3078.01,64.48,5.785506334070249
0,-1725.07,-921.94,-3069.94,72.29,5.790506771696933
0,-1720.47,-924.93,-3067.63,73.06,5.79550720932361
0,-1720.57,-925.81,-3072.51,63.3,5.800507646950294
0,-1718.06,-924.58,-3068.1,71.61,5.805508084576971
0,-1718.5,-923.38,-3073.66,67.86,5.810508522203655
0,-1714.21,-927.79,-3068.7,62.55,5.815508959830339
0,-1723.06,-918.22,-3070.73,64.42,5.820509397457016
0,-1721.03,-918.64,-3074.25,58.25,5.8255098350837
0,-1718.12,-931.55,-3073.71,61.04,5.830510272710377
0,-1727.88,-938.16,-3079.47,53.63,5.835510710337061
0,-1731.86,-938.96,-3085.29,47.68,5.8405111479637455
0,-1731.48,-940.66,-3083.1,53.76,5.8455115855904225
0,-1735.93,-941.37,-3083.03,48.82,5.850512023217107
0,-1726.57,-934.74,-3077.71,56.67,5.855512460843784
0,-1726.74,-935.6,-3080.59,57.76,5.860512898470468
0,-1729.73,-930.08,-3076.0,62.81,5.865513336097152
0,-1732.19,-927.62,-3081.47,58.87,5.870513773723829
0,-1728.32,-930.43,-3078.8,62.39,5.875514211350513
0,-1721.67,-928.87,-3072.69,66.31,5.88051464897719
0,-1714.07,-934.14,-3076.17,64.13,5.885515086603874
0,-1714.77,-923.19,-3067.91,74.24,5.890515524230558
0,-1723.69,-938.22,-3076.58,71.44,5.895515961857235
0,-1725.68,-929.01,-3070.83,69.65,5.900516399483919
0,-1721.65,-931.71,-3073.06,70.21,5.905516837110596
0,-1717.89,-926.89,-3069.88,70.84,5.9105172747372805
0,-1713.69,-922.25,-3064.69,66.64,5.915517712363965
0,-1718.48,-921.12,-3068.5,63.17,5.920518149990642
0,-1720.22,-925.52,-3070.22,63.47,5.925518587617326
0,-1719.18,-916.77,-3065.45,60.78,5.930519025244003
0,-1724.41,-929.86,-3070.91,65.78,5.935519462870687
0,-1733.91,-932.48,-3077.46,58.25,5.940519900497371
0,-1730.4,-941.31,-3083.06,52.68,5.945520338124048
0,-1724.38,-930.93,-3080.51,56.06,5.950520775750732
0,-1723.19,-932.82,-3077.98,56.7,5.955521213377409
0,-1726.66,-931.0,-3079.2,57.85,5.960521651004093
0,-1722.6,-920.48,-3070.85,70.75,5.965522088630777
0,-1714.21,-926.32,-3065.13,79.32,5.970522526257454
0,-1719.26,-939.18,-3077.25,57.13,5.9755229638841385
0,-1726.19,-938.04,-3081.11,47.19,5.9805234015108155
0,-1723.15,-930.62,-3077.9,51.61,5.9855238391375
0,-1719.42,-940.85,-3084.68,51.83,5.990524276764184
0,-1715.6,-938.63,-3078.87,52.25,5.995524714390861
0,-1720.93,-937.09,-3079.77,50.85,6.000525152017545
0,-1728.45,-940.91,-3086.65,55.95,6.005525589644222
0,-1729.55,-940.51,-3085.05,50.05,6.010526027270906
0,-1721.81,-946.52,-3084.01,51.14,6.01552646489759
0,-1721.36,-940.43,-3084.98,51.66,6.020526902524267
0,-1729.98,-939.78,-3084.75,51.91,6.025527340150951
0,-1728.0,-937.65,-3085.06,49.59,6.030527777777628
0,-1727.24,-944.86,-3083.9,50.34,6.035528215404312
0,-1724.64,-938.38,-3085.48,58.3,6.0405286530309965
0,-1731.11,-939.89,-3091.52,55.4,6.0455290906576735
0,-1734.78,-941.15,-3092.93,54.06,6.050529528284358
0,-1734.53,-938.51,-3092.42,54.74,6.055529965911042
0,-1735.0,-945.41,-3093.91,47.32,6.060530403537719
0,-1729.96,-935.93,-3082.03,47.01,6.065530841164403
0,-1735.86,-947.41,-3089.53,50.9,6.07053127879108
0,-1730.36,-947.63,-3088.36,49.47,6.075531716417764
0,-1729.52,-941.7,-3091.59,49.84,6.080532154044448
0,-1724.85,-938.54,-3076.9,55.04,6.085532591671125
0,-1732.58,-936.68,-3083.07,50.11,6.090533029297809
0,-1722.0,-935.73,-3079.37,53.48,6.095533466924486
0,-1721.99,-930.83,-3080.16,54.03,6.10053390455117
0,-1728.99,-928.52,-3078.48,52.55,6.1055343421778545
0,-1722.67,-933.91,-3075.95,58.28,6.1105347798045315
0,-1726.91,-926.81,-3075.56,61.06,6.115535217431216
0,-1720.67,-922.64,-3072.25,61.35,6.120535655057893
0,-1734.33,-935.77,-3081.08,56.63,6.125536092684577
0,-1721.85,-924.55,-3077.38,61.4,6.130536530311261
0,-1721.95,-927.18,-3073.93,63.73,6.135536967937938
0,-1724.95,-934.52,-3070.92,65.78,6.140537405564622
0,-1721.44,-939.61,-3072.2,66.87,6.145537843191299
0,-1722.08,-936.32,-3076.42,65.96,6.150538280817983
0,-1728.36,-937.19,-3077.86,57.24,6.155538718444667
0,-1721.69,-936.94,-3077.67,60.18,6.160539156071344
0,-1728.27,-940.17,-3080.39,56.23,6.165539593698028
0,-1729.76,-935.51,-3084.73,54.85,6.170540031324705
0,-1731.09,-949.66,-3087.58,50.19,6.1755404689513895
0,-1731.07,-942.79,-3091.1,52.09,6.180540906578074
0,-1736.86,-941.5,-3092.32,48.4,6.185541344204751
0,-1730.5,-936.23,-3086.64,48.59,6.190541781831435
0,-1732.06,-944.82,-3088.5,48.33,6.195542219458112
0,-1728.82,-938.08,-3081.64,53.51,6.200542657084796
0,-1730.89,-937.01,-3079.47,55.11,6.20554309471148
0,-1731.48,-933.08,-3085.57,53.11,6.210543532338157
0,-1738.99,-936.74,-3089.3,47.82,6.215543969964841
0,-1735.76,-939.16,-3090.52,51.09,6.220544407591518
0,-1727.67,-941.79,-3083.14,55.06,6.225544845218202
0,-1732.85,-936.02,-3086.32,51.85,6.230545282844886
0,-1723.81,-927.15,-3075.1,60.77,6.235545720471563
0,-1725.59,-929.38,-3071.44,60.09,6.2405461580982475
0,-1722.67,-932.7,-3071.74,59.96,6.2455465957249245
0,-1726.45,-934.11,-3072.94,63.61,6.250547033351609
0,-1727.81,-942.34,-3078.82,61.99,6.255547470978293
0,-1728.46,-940.99,-3079.35,63.59,6.26054790860497
0,-1725.19,-932.64,-3076.36,65.15,6.265548346231654
0,-1720.46,-926.63,-3073.98,70.52,6.270548783858331
0,-1720.27,-928.62,-3068.74,71.37,6.275549221485015
0,-1717.22,-932.11,-3064.89,68.85,6.280549659111699
0,-1713.23,-919.05,-3065.0,71.09,6.285550096738376
0,-1719.86,-924.78,-3066.97,67.95,6.29055053436506
0,-1718.34,-922.7,-3065.32,67.22,6.295550971991737
0,-1719.07,-929.11,-3067.43,65.01,6.300551409618421
0,-1719.7,-930.98,-3076.98,54.02,6.3055518472451055
0,-1724.6,-931.93,-3075.24,54.5,6.3105522848717825
0,-1722.59,-926.09,-3071.2,60.12,6.315552722498467
0,-1719.41,-917.23,-3075.82,50.16,6.320553160125144
0,-1716.88,-926.45,-3073.0,56.58,6.325553597751828
0,-1714.78,-937.54,-3075.67,57.73,6.330554035378512
0,-1721.31,-937.5,-3080.7,53.75,6.335554473005189
0,-1724.09,-936.44,-3079.57,61.23,6.340554910631873
0,-1722.31,-930.22,-3078.71,66.15,6.34555534825855
0,-1725.16,-942.53,-3083.13,57.44,6.350555785885234
0,-1727.26,-940.71,-3081.08,58.31,6.355556223511918
0,-1724.7,-932.23,-3079.09,55.23,6.360556661138595
0,-1721.18,-930.34,-3077.7,59.57,6.365557098765279
0,-1727.42,-936.38,-3079.18,64.17,6.370557536391956
0,-1737.33,-940.78,-3084.66,62.04,6.3755579740186406
0,-1735.08,-936.44,-3082.84,63.81,6.380558411645325
0,-1729.0,-942.62,-3085.15,58.28,6.385558849272002
0,-1732.19,-941.3,-3085.08,58.69,6.390559286898686
0,-1724.91,-923.15,-3079.66,67.18,6.395559724525363
0,-1723.96,-919.61,-3068.94,64.21,6.400560162152047
0,-1725.3,-937.57,-3078.7,61.63,6.405560599778731
0,-1726.65,-945.63,-3081.08,57.34,6.410561037405408
0,-1722.67,-937.87,-3078.18,55.41,6.415561475032092
0,-1719.96,-930.4,-3073.58,63.27,6.420561912658769
0,-1718.29,-932.37,-3075.47,62.64,6.425562350285453
0,-1716.79,-923.87,-3072.39,66.97,6.430562787912137
0,-1724.65,-925.73,-3069.49,63.44,6.435563225538814
0,-1721.98,-932.29,-3077.0,66.2,6.4405636631654986
0,-1724.99,-933.73,-3077.76,66.66,6.445564100792176
0,-1727.67,-929.14,-3079.28,56.39,6.45056453841886
0,-1725.16,-923.85,-3075.24,59.02,6.455564976045544
0,-1730.62,-930.63,-3076.92,58.32,6.460565413672221
0,-1722.76,-919.29,-3069.47,60.69,6.465565851298905
0,-1725.82,-926.54,-3073.23,63.05,6.470566288925582
0,-1722.77,-923.19,-3074.34,57.88,6.475566726552266
0,-1724.69,-920.14,-3071.45,60.07,6.48056716417895
0,-1719.99,-922.35,-3073.23,65.17,6.485567601805627
0,-1719.03,-934.85,-3075.86,63.31,6.490568039432311
0,-1717.95,-926.99,-3075.66,65.65,6.495568477058988
0,-1725.02,-928.3,-3081.67,62.28,6.500568914685672
0,-1723.65,-933.09,-3074.5,65.48,6.505569352312357
0,-1725.52,-927.23,-3074.87,65.9,6.510569789939034
0,-1726.66,-931.92,-3080.97,61.39,6.515570227565718
0,-1733.38,-932.78,-3081.13,55.28,6.520570665192395
0,-1722.32,-931.72,-3076.34,55.07,6.525571102819079
0,-1718.25,-935.73,-3077.74,59.59,6.530571540445763
0,-1711.94,-933.45,-3074.96,63.2,6.53557197807244
0,-1720.45,-939.45,-3075.27,59.49,6.540572415699124
0,-1725.38,-930.5,-3081.13,51.15,6.545572853325801
0,-1733.52,-935.89,-3085.77,48.76,6.550573290952485
0,-1735.39,-942.2,-3088.15,46.92,6.555573728579169
0,-1729.06,-932.0,-3079.26,59.23,6.560574166205846
0,-1716.74,-920.91,-3065.65,68.34,6.56557460383253
0,-1715.1,-923.73,-3065.71,69.71,6.5705750414592075
0,-1713.75,-928.19,-3072.71,68.38,6.575575479085892
0,-1718.29,-927.12,-3071.19,69.93,6.580575916712576
0,-1722.1,-923.27,-3075.71,69.97,6.585576354339253
0,-1722.93,-927.9,-3079.07,72.39,6.590576791965937
0,-1721.46,-927.13,-3072.19,70.72,6.595577229592614
0,-1728.28,-928.02,-3075.12,69.51,6.600577667219298
0,-1721.75,-930.05,-3076.08,62.18,6.605578104845982
0,-1718.66,-921.45,-3069.32,67.57,6.610578542472659
0,-1721.96,-933.0,-3073.51,63.1,6.615578980099343
0,-1716.66,-935.15,-3073.63,65.22,6.62057941772602
0,-1721.37,-929.22,-3069.54,70.59,6.625579855352704
0,-1725.44,-923.84,-3076.25,61.47,6.6305802929793884
0,-1731.4,-931.3,-3080.6,57.99,6.6355807306060655
0,-1730.04,-933.49,-3084.07,63.8,6.64058116823275
0,-1727.29,-941.18,-3078.79,60.69,6.645581605859427
0,-1728.42,-941.15,-3087.28,51.57,6.650582043486111
0,-1725.64,-932.09,-3082.35,55.1,6.655582481112795
0,-1725.0,-931.79,-3081.61,53.52,6.660582918739472
0,-1721.8,-929.41,-3081.79,54.96,6.665583356366156
0,-1719.24,-936.72,-3076.75,58.89,6.670583793992833
0,-1725.71,-932.26,-3081.3,53.37,6.675584231619517
0,-1732.99,-950.13,-3090.85,49.19,6.680584669246201
0,-1736.45,-941.64,-3086.39,47.71,6.685585106872878
0,-1732.76,-935.71,-3084.84,49.05,6.690585544499562
0,-1735.11,-936.58,-3086.5,43.46,6.695585982126239
0,-1732.14,-937.2,-3084.92,42.51,6.7005864197529235
0,-1722.55,-933.77,-3082.4,52.79,6.705586857379608
0,-1719.84,-931.29,-3078.57,55.74,6.710587295006285
0,-1721.37,-927.56,-3074.23,57.34,6.715587732632969
0,-1718.3,-927.13,-3069.35,58.03,6.720588170259653
0,-1725.03,-932.11,-3073.28,59.13,6.72558860788633
0,-1722.95,-932.45,-3075.68,60.39,6.730589045513014
0,-1722.16,-932.53,-3077.95,55.22,6.735589483139691
0,-1723.33,-936.63,-3074.61,57.95,6.740589920766375
0,-1725.65,-932.58,-3080.93,56.1,6.745590358393059
0,-1726.01,-937.2,-3077.62,60.22,6.750590796019736
0,-1738.03,-941.61,-3085.29,53.43,6.75559123364642
0,-1731.95,-935.69,-3085.35,53.19,6.760591671273097
0,-1732.1,-936.82,-3083.95,50.08,6.7655921088997815
0,-1732.25,-937.7,-3081.04,53.33,6.770592546526466
0,-1722.04,-930.08,-3073.98,68.85,6.775592984153143
0,-1728.08,-947.33,-3084.34,51.88,6.780593421779827
0,-1731.6,-943.23,-3094.56,41.72,6.785593859406504
0,-1726.49,-935.73,-3083.08,45.09,6.790594297033188
0,-1725.33,-940.02,-3083.82,55.13,6.795594734659872
0,-1728.63,-936.12,-3083.46,58.57,6.800595172286549
0,-1724.52,-933.7,-3074.41,66.28,6.805595609913233
0,-1728.53,-930.55,-3074.59,60.67,6.81059604753991
0,-1726.94,-929.53,-3078.78,55.07,6.815596485166594
0,-1716.95,-917.19,-3074.52,60.39,6.820596922793278
0,-1723.86,-934.83,-3078.16,57.43,6.825597360419955
0,-1725.14,-927.82,-3075.61,60.06,6.8305977980466395
0,-1728.59,-934.81,-3080.48,58.16,6.8355982356733165
0,-1723.7,-932.93,-3078.68,55.13,6.840598673300001
0,-1724.71,-939.66,-3080.72,54.88,6.845599110926685
0,-1727.33,-939.23,-3081.97,57.35,6.850599548553362
0,-1726.18,-937.33,-3080.1,63.92,6.855599986180046
0,-1733.71,-941.69,-3088.04,47.01,6.860600423806723
0,-1731.36,-939.48,-3087.47,49.73,6.865600861433407
0,-1735.64,-939.05,-3091.56,49.16,6.870601299060091
0,-1735.64,-946.76,-3084.39,57.38,6.875601736686768
0,-1732.43,-948.29,-3085.43,49.56,6.880602174313452
0,-1723.93,-938.55,-3078.83,60.35,6.885602611940129
0,-1725.16,-925.12,-3069.91,63.02,6.890603049566813
0,-1718.17,-929.43,-3072.24,62.39,6.8956034871934975
0,-1717.44,-930.52,-3072.65,69.45,6.9006039248201745
0,-1712.02,-926.23,-3067.81,66.5,6.905604362446859
0,-1712.77,-922.23,-3066.52,64.68,6.910604800073536
0,-1710.45,-924.93,-3066.67,72.0,6.91560523770022
0,-1715.19,-922.21,-3062.94,72.48,6.920605675326904
0,-1715.05,-913.73,-3062.5,74.84,6.925606112953581
0,-1712.47,-928.27,-3073.66,65.37,6.930606550580265
0,-1719.07,-927.33,-3068.59,66.25,6.935606988206942
0,-1712.21,-927.51,-3073.36,66.45,6.940607425833626
0,-1718.28,-931.35,-3075.43,60.31,6.94560786346031
0,-1715.67,-929.58,-3077.19,65.88,6.950608301086987
0,-1729.61,-940.53,-3083.41,60.39,6.955608738713671
0,-1733.36,-934.52,-3081.66,60.66,6.960609176340348
0,-1726.45,-939.63,-3083.02,55.83,6.9656096139670325
0,-1729.74,-933.38,-3080.5,53.29,6.970610051593717
0,-1730.51,-937.09,-3081.2,57.34,6.975610489220394
0,-1726.11,-935.58,-3082.52,55.05,6.980610926847078
0,-1719.19,-928.69,-3078.99,57.36,6.985611364473755
0,-1729.33,-939.32,-3079.36,52.84,6.990611802100439
0,-1726.73,-938.74,-3083.61,59.16,6.995612239727123
0,-1728.41,-924.65,-3081.43,63.09,7.0006126773538
0,-1735.68,-935.59,-3084.92,57.82,7.005613114980484
0,-1726.93,-933.8,-3081.83,54.74,7.010613552607161
0,-1724.91,-936.44,-3086.22,57.48,7.015613990233845
0,-1732.12,-937.37,-3083.42,53.46,7.020614427860529
0,-1727.94,-931.74,-3077.33,57.44,7.025614865487206
0,-1727.76,-929.53,-3076.08,58.06,7.0306153031138905
0,-1729.88,-931.12,-3078.44,64.09,7.0356157407405675
0,-1723.52,-930.98,-3074.4,69.07,7.040616178367252
0,-1722.89,-928.15,-3069.41,63.76,7.045616615993936
0,-1722.51,-922.41,-3069.83,61.19,7.050617053620613
0,-1723.43,-931.37,-3073.3,63.35,7.055617491247297
0,-1727.77,-930.37,-3072.48,64.99,7.060617928873974
0,-1719.63,-929.18,-3073.1,70.84,7.065618366500658
0,-1719.26,-931.23,-3074.3,65.96,7.070618804127342
0,-1726.05,-926.97,-3070.52,64.6,7.075619241754019
0,-1722.53,-921.14,-3074.74,60.92,7.080619679380703
0,-1720.7,-930.8,-3076.78,62.8,7.08562011700738
0,-1722.46,-927.87,-3077.9,66.49,7.090620554634064
0,-1728.63,-938.59,-3084.03,53.65,7.0956209922607485
0,-1722.94,-937.64,-3078.41,56.18,7.1006214298874255
0,-1725.32,-933.28,-3077.59,54.32,7.10562186751411
0,-1726.64,-929.43,-3074.48,57.37,7.110622305140787
0,-1726.74,-932.29,-3082.49,60.81,7.115622742767471
0,-1730.52,-939.69,-3079.8,60.82,7.120623180394155
0,-1721.35,-930.68,-3076.72,72.3,7.125623618020832
0,-1721.78,-928.11,-3072.59,71.97,7.130624055647516
0,-1722.27,-934.44,-3072.76,73.19,7.135624493274193
0,-1721.44,-933.91,-3075.5,71.33,7.140624930900877
0,-1721.67,-931.55,-3080.03,67.34,7.145625368527561
0,-1723.84,-929.56,-3076.82,66.91,7.150625806154238
0,-1723.54,-935.11,-3078.83,65.67,7.155626243780922
0,-1720.96,-932.88,-3078.17,64.66,7.160626681407599
0,-1718.62,-938.23,-3077.24,66.19,7.1656271190342835
0,-1729.4,-932.85,-3081.43,62.49,7.170627556660968
0,-1726.23,-934.8,-3080.14,58.59,7.175627994287645
0,-1725.71,-928.69,-3075.19,59.94,7.180628431914329
0,-1727.63,-932.33,-3074.09,61.84,7.185628869541006
0,-1722.34,-933.31,-3076.15,60.83,7.19062930716769
0,-1731.99,-937.51,-3083.23,51.26,7.195629744794374
0,-1726.82,-935.37,-3080.51,59.26,7.200630182421051
0,-1725.28,-931.56,-3079.25,62.35,7.205630620047735
0,-1724.41,-930.71,-3077.52,59.01,7.210631057674412
0,-1719.17,-925.34,-3074.75,59.38,7.215631495301096
0,-1720.47,-917.98,-3073.81,56.47,7.22063193292778
0,-1720.05,-913.9,-3074.5,59.6,7.225632370554457
0,-1721.5,-929.37,-3072.14,61.58,7.2306328081811415
0,-1721.82,-931.95,-3071.45,62.71,7.2356332458078185
0,-1723.08,-932.75,-3081.32,64.09,7.240633683434503
0,-1722.59,-940.72,-3079.52,59.72,7.245634121061187
0,-1717.86,-936.3,-3080.88,61.4,7.250634558687864
0,-1722.78,-924.41,-3073.37,60.66,7.255634996314548
0,-1728.34,-934.82,-3077.3,59.18,7.260635433941225
0,-1732.99,-940.34,-3082.89,55.17,7.265635871567909
0,-1727.5,-939.75,-3085.8,53.23,7.270636309194593
0,-1733.51,-939.23,-3088.1,47.2,7.27563674682127
0,-1730.79,-932.54,-3080.82,49.69,7.280637184447954
0,-1728.34,-937.31,-3082.04,48.87,7.285637622074631
0,-1731.96,-933.35,-3086.66,47.4,7.290638059701315
0,-1731.8,-940.87,-3082.17,48.46,7.2956384973279995
0,-1728.25,-940.01,-3087.85,53.24,7.3006389349546765
0,-1725.57,-937.82,-3083.9,56.35,7.305639372581361
0,-1729.56,-928.6,-3082.31,46.66,7.310639810208038
0,-1726.97,-930.01,-3077.31,47.29,7.315640247834722
0,-1726.39,-945.1,-3083.27,51.92,7.320640685461406
0,-1727.55,-936.45,-3085.61,56.35,7.325641123088083
0,-1728.55,-936.13,-3082.73,57.25,7.330641560714767
0,-1731.16,-936.98,-3082.13,59.34,7.335641998341444
0,-1728.23,-925.65,-3072.15,61.85,7.340642435968128
0,-1726.53,-932.39,-3075.25,63.02,7.345642873594812
0,-1728.46,-928.97,-3076.51,70.88,7.350643311221489
0,-1731.92,-932.27,-3083.11,60.95,7.355643748848173
0,-1724.16,-931.84,-3080.02,66.72,7.36064418647485
0,-1724.09,-928.04,-3080.06,67.77,7.3656446241015345
0,-1723.41,-930.07,-3078.58,67.69,7.370645061728219
0,-1725.95,-928.46,-3078.99,64.14,7.375645499354896
0,-1724.03,-919.51,-3070.16,68.26,7.38064593698158
0,-1723.16,-933.47,-3074.07,63.78,7.385646374608264
0,-1730.83,-935.06,-3080.35,60.23,7.390646812234941
0,-1724.57,-929.35,-3073.43,64.91,7.395647249861625
0,-1720.67,-927.72,-3070.63,66.0,7.400647687488302
0,-1725.12,-929.07,-3078.95,59.66,7.405648125114986
0,-1725.6,-928.27,-3074.94,59.36,7.41064856274167
0,-1730.92,-936.2,-3077.31,57.65,7.415649000368347
0,-1728.0,-939.67,-3081.6,54.83,7.420649437995031
0,-1722.58,-931.87,-3078.03,59.93,7.425649875621708
0,-1721.24,-939.92,-3076.99,56.85,7.4306503132483925
0,-1730.4,-937.31,-3086.62,46.38,7.435650750875077
0,-1724.98,-934.88,-3077.85,56.11,7.440651188501754
0,-1724.01,-934.97,-3078.33,52.34,7.445651626128438
0,-1724.44,-938.86,-3083.58,50.87,7.450652063755115
0,-1726.69,-940.67,-3080.1,50.78,7.455652501381799
0,-1728.05,-938.72,-3083.95,52.99,7.460652939008483
0,-1733.56,-945.97,-3088.18,45.88,7.46565337663516
0,-1732.39,-940.39,-3083.87,48.47,7.470653814261844
0,-1733.81,-934.27,-3083.32,52.59,7.475654251888521
0,-1734.18,-936.98,-3081.64,49.04,7.480654689515205
0,-1734.73,-939.24,-3086.11,48.78,7.485655127141889
0,-1728.5,-945.57,-3080.85,51.45,7.490655564768566
0,-1727.52,-941.37,-3080.72,57.03,7.4956560023952505
0,-1729.92,-938.08,-3085.58,56.31,7.5006564400219276
0,-1729.37,-948.72,-3085.14,56.15,7.505656877648612
0,-1732.97,-962.96,-3093.0,51.66,7.510657315275296
0,-1726.91,-951.8,-3087.49,56.49,7.515657752901973
0,-1729.31,-945.71,-3086.69,52.88,7.520658190528657
0,-1727.0,-935.15,-3082.13,58.02,7.525658628155334
0,-1725.1,-935.57,-3082.98,56.02,7.530659065782018
0,-1730.38,-949.67,-3087.24,50.07,7.535659503408702
0,-1731.65,-942.68,-3081.31,56.59,7.540659941035379
0,-1733.04,-939.44,-3082.38,55.82,7.545660378662063
0,-1726.78,-934.11,-3082.61,55.19,7.55066081628874
0,-1727.17,-927.53,-3078.8,58.04,7.555661253915424
0,-1735.16,-930.23,-3082.47,48.43,7.5606616915421085
0,-1735.52,-950.85,-3089.16,45.6,7.5656621291687856
0,-1730.57,-941.47,-3088.41,48.29,7.57066256679547
0,-1729.85,-933.64,-3087.94,51.31,7.575663004422147
0,-1736.19,-947.13,-3091.79,46.13,7.580663442048831
0,-1738.88,-947.16,-3091.18,50.41,7.585663879675515
0,-1742.05,-950.37,-3090.52,46.31,7.590664317302192
0,-1729.31,-940.05,-3088.46,48.59,7.595664754928876
0,-1731.25,-936.5,-3086.26,51.14,7.600665192555553
0,-1736.53,-946.43,-3092.06,52.62,7.605665630182237
0,-1734.47,-941.2,-3086.03,52.76,7.610666067808921
0,-1728.96,-931.83,-3083.41,58.29,7.615666505435598
0,-1727.62,-933.65,-3081.33,59.01,7.620666943062282
0,-1730.67,-938.1,-3082.52,57.78,7.625667380688959
0,-1724.48,-939.89,-3083.38,55.01,7.630667818315644
0,-1729.14,-926.97,-3077.42,59.09,7.635668255942328
0,-1730.41,-938.18,-3077.01,59.12,7.640668693569005
0,-1721.01,-925.02,-3072.17,71.17,7.645669131195689
0,-1716.43,-919.62,-3068.38,76.15,7.650669568822366
0,-1721.14,-929.17,-3072.52,69.89,7.65567000644905
0,-1722.19,-930.02,-3077.52,68.74,7.660670444075734
0,-1718.89,-930.94,-3072.56,63.41,7.665670881702411
0,-1722.53,-925.82,-3064.97,63.83,7.670671319329095
0,-1720.17,-922.83,-3067.42,65.79,7.675671756955772
0,-1716.93,-927.36,-3073.91,64.51,7.680672194582456
0,-1720.34,-930.87,-3079.16,65.12,7.68567263220914
0,-1722.08,-930.77,-3080.06,62.09,7.690673069835817
0,-1721.79,-930.75,-3074.06,66.88,7.695673507462502
0,-1722.27,-932.51,-3074.29,61.02,7.700673945089179
0,-1720.36,-920.97,-3069.58,63.97,7.705674382715863
0,-1724.81,-933.25,-3078.66,61.32,7.710674820342547
0,-1718.24,-925.53,-3076.36,60.72,7.715675257969224
0,-1721.77,-922.52,-3071.87,64.89,7.720675695595908
0,-1720.36,-931.06,-3071.67,61.58,7.725676133222585
0,-1719.72,-920.87,-3068.52,64.21,7.730676570849269
0,-1724.03,-929.95,-3076.1,57.14,7.735677008475953
0,-1730.13,-937.63,-3082.48,56.43,7.74067744610263
0,-1728.81,-944.57,-3090.74,53.61,7.745677883729314
0,-1725.78,-941.24,-3082.21,58.68,7.750678321355991
0,-1732.95,-940.21,-3086.06,56.88,7.7556787589826754
0,-1734.05,-930.52,-3083.46,52.94,7.76067919660936
0,-1727.73,-938.11,-3074.76,63.88,7.765679634236037
0,-1727.66,-937.14,-3074.25,61.3,7.770680071862721
0,-1730.68,-932.51,-3082.35,56.44,7.775680509489398
0,-1734.01,-929.25,-3078.52,59.4,7.780680947116082
0,-1733.97,-926.85,-3082.62,54.09,7.785681384742766
0,-1726.05,-925.8,-3081.08,55.75,7.790681822369443
0,-1727.11,-934.88,-3081.12,54.63,7.795682259996127
0,-1724.72,-938.06,-3076.61,56.21,7.800682697622804
0,-1729.56,-938.24,-3080.85,62.12,7.805683135249488
0,-1723.34,-931.06,-3073.1,65.3,7.810683572876172
0,-1721.84,-920.51,-3068.33,65.67,7.815684010502849
0,-1717.73,-926.98,-3072.08,69.28,7.8206844481295335
0,-1721.8,-932.88,-3069.9,69.07,7.8256848857562105
0,-1724.25,-934.71,-3077.51,70.58,7.830685323382895
0,-1720.92,-935.27,-3079.66,63.33,7.835685761009579
0,-1723.58,-928.8,-3072.4,66.93,7.840686198636256
0,-1725.5,-926.41,-3076.28,66.12,7.84568663626294
0,-1726.55,-924.22,-3072.48,59.77,7.850687073889617
0,-1730.39,-931.52,-3082.63,51.09,7.855687511516301
0,-1725.76,-925.06,-3075.26,58.34,7.860687949142985
0,-1728.04,-932.44,-3073.48,55.21,7.865688386769662
0,-1732.6,-932.62,-3083.27,56.2,7.870688824396346
0,-1727.52,-931.97,-3079.84,57.8,7.875689262023023
0,-1724.11,-923.13,-3074.06,58.86,7.880689699649707
0,-1722.01,-935.35,-3074.99,63.4,7.8856901372763915
0,-1717.56,-935.89,-3073.6,60.6,7.8906905749030685
0,-1723.64,-935.09,-3077.06,55.57,7.895691012529753
0,-1722.03,-922.6,-3073.79,60.92,7.90069145015643
0,-1726.56,-926.0,-3078.54,54.68,7.905691887783114
0,-1727.29,-942.49,-3081.68,53.36,7.910692325409798
0,-1720.21,-933.98,-3081.14,55.94,7.915692763036475
0,-1727.16,-936.83,-3082.26,49.74,7.920693200663159
0,-1726.34,-929.83,-3073.94,54.92,7.925693638289836
0,-1731.55,-934.67,-3083.32,49.98,7.93069407591652
0,-1723.03,-930.37,-3075.65,60.85,7.935694513543204
0,-1722.92,-924.75,-3076.59,61.01,7.940694951169881
0,-1723.39,-934.24,-3073.63,62.18,7.945695388796565
0,-1720.1,-925.52,-3071.76,65.76,7.950695826423242
0,-1714.31,-918.46,-3064.71,66.39,7.9556962640499265
0,-1718.73,-928.56,-3071.03,67.24,7.960696701676611
0,-1721.08,-927.43,-3071.22,68.45,7.965697139303288
0,-1722.64,-923.53,-3072.56,65.17,7.970697576929972
0,-1725.86,-929.79,-3072.42,67.57,7.975698014556649
0,-1724.74,-933.35,-3076.75,64.17,7.980698452183333
0,-1722.54,-935.65,-3081.27,61.82,7.985698889810017
0,-1724.46,-929.64,-3079.82,60.31,7.990699327436694
0,-1715.28,-927.7,-3069.88,64.23,7.995699765063378
0,-1721.95,-923.9,-3073.55,57.25,8.000700202690055
0,-1724.68,-922.81,-3072.47,63.82,8.00570064031674
0,-1727.83,-928.19,-3078.32,57.88,8.010701077943423
0,-1726.37,-929.77,-3078.65,56.78,8.0157015155701
0,-1721.69,-933.54,-3077.94,57.97,8.020701953196784
0,-1729.45,-934.84,-3082.0,53.84,8.025702390823461
0,-1732.85,-930.46,-3080.74,52.78,8.030702828450146
0,-1726.64,-934.54,-3084.5,52.61,8.03570326607683
0,-1724.75,-932.54,-3076.21,59.13,8.040703703703507
0,-1715.71,-921.37,-3068.38,71.58,8.04570414133019
0,-1726.62,-936.52,-3079.24,57.76,8.050704578956868
0,-1731.51,-942.51,-3094.27,44.92,8.055705016583552
0,-1735.17,-952.96,-3092.44,47.12,8.060705454210236
0,-1729.38,-941.9,-3092.06,51.74,8.065705891836913
0,-1735.15,-946.41,-3093.56,48.45,8.070706329463597
0,-1735.85,-936.34,-3083.95,52.5,8.075706767090281
0,-1736.97,-933.82,-3087.13,49.59,8.080707204716958
0,-1729.56,-930.14,-3083.6,55.83,8.085707642343642
0,-1732.21,-933.92,-3081.92,54.48,8.09070807997032
0,-1729.28,-928.48,-3076.88,58.52,8.095708517597004
0,-1726.29,-937.65,-3078.18,58.54,8.100708955223688
0,-1730.04,-939.71,-3080.22,61.64,8.105709392850365
0,-1725.78,-946.63,-3079.32,62.22,8.110709830477049
0,-1727.94,-940.23,-3083.26,59.33,8.115710268103726
0,-1727.73,-939.96,-3078.14,61.28,8.12071070573041
0,-1727.09,-933.02,-3075.24,66.92,8.125711143357094
0,-1718.93,-932.43,-3071.14,62.38,8.130711580983771
0,-1724.06,-938.24,-3076.36,56.2,8.135712018610455
0,-1719.45,-936.72,-3076.31,60.16,8.140712456237132
0,-1722.21,-936.51,-3081.5,58.33,8.145712893863816
0,-1723.9,-932.14,-3077.81,60.8,8.1507133314905
0,-1724.68,-929.21,-3076.96,67.34,8.155713769117177
0,-1719.88,-927.18,-3070.02,62.56,8.160714206743862
0,-1716.74,-927.05,-3069.16,66.5,8.165714644370539
0,-1727.99,-927.91,-3077.54,61.85,8.170715081997223
0,-1728.7,-933.79,-3076.41,64.32,8.175715519623907
0,-1724.37,-931.92,-3077.22,65.79,8.180715957250584
0,-1723.55,-930.61,-3073.95,64.54,8.185716394877268
0,-1722.68,-928.5,-3077.89,63.28,8.190716832503945
0,-1726.76,-929.33,-3078.58,67.25,8.19571727013063
0,-1725.74,-928.37,-3072.92,61.68,8.200717707757313
0,-1725.17,-930.58,-3073.35,63.14,8.20571814538399
0,-1723.68,-927.47,-3073.87,61.92,8.210718583010674
0,-1722.97,-927.1,-3075.8,60.18,8.215719020637351
0,-1725.49,-930.3,-3080.74,57.44,8.220719458264035
0,-1730.6,-937.62,-3086.02,60.4,8.22571989589072
0,-1735.37,-933.17,-3086.51,55.69,8.230720333517397
0,-1731.65,-940.76,-3082.44,55.2,8.23572077114408
0,-1729.97,-934.84,-3086.23,46.97,8.240721208770758
0,-1730.46,-935.27,-3082.77,48.79,8.245721646397442
0,-1727.01,-935.32,-3086.98,47.15,8.250722084024126
0,-1729.49,-936.62,-3085.05,44.09,8.255722521650803
0,-1730.68,-939.73,-3086.59,38.01,8.260722959277487
0,-1735.55,-939.53,-3088.03,38.42,8.265723396904164
0,-1739.61,-949.43,-3090.79,34.57,8.270723834530848
0,-1737.03,-952.71,-3092.01,42.29,8.275724272157532
0,-1728.03,-939.36,-3088.19,50.32,8.28072470978421
0,-1721.78,-941.65,-3081.44,53.1,8.285725147410893
0,-1726.18,-931.26,-3077.08,56.15,8.29072558503757
0,-1729.97,-941.01,-3082.64,51.28,8.295726022664255
0,-1722.66,-934.42,-3079.65,62.95,8.300726460290939
0,-1725.0,-935.21,-3078.33,63.58,8.305726897917616
0,-1719.31,-928.07,-3075.38,67.95,8.3107273355443
0,-1720.4,-927.47,-3072.16,73.78,8.315727773170977
0,-1723.88,-937.67,-3079.19,65.14,8.320728210797661
0,-1723.77,-924.57,-3068.78,69.11,8.325728648424345
0,-1722.65,-940.11,-3078.07,63.51,8.330729086051022
0,-1727.16,-943.75,-3083.52,54.48,8.335729523677706
0,-1734.75,-941.36,-3085.59,59.01,8.340729961304383
0,-1728.0,-927.51,-3077.34,60.01,8.345730398931067
0,-1728.0,-939.57,-3083.91,53.7,8.350730836557752
0,-1728.59,-935.79,-3082.19,58.34,8.355731274184429
0,-1722.47,-928.68,-3075.41,63.88,8.360731711811113
0,-1721.45,-938.2,-3081.74,67.61,8.36573214943779
0,-1721.02,-935.89,-3080.57,64.22,8.370732587064474
0,-1729.69,-936.59,-3080.58,59.3,8.375733024691158
0,-1728.15,-926.98,-3079.17,66.98,8.380733462317835
0,-1723.56,-921.96,-3073.7,64.92,8.385733899944519
0,-1725.03,-936.91,-3071.99,62.37,8.390734337571196
0,-1722.03,-942.03,-3071.06,67.73,8.39573477519788
0,-1718.2,-944.45,-3068.09,68.68,8.400735212824564
0,-1718.26,-935.89,-3070.36,66.15,8.405735650451241
0,-1720.68,-939.96,-3074.89,67.39,8.410736088077925
0,-1721.27,-945.05,-3076.03,61.89,8.415736525704602
0,-1725.04,-941.02,-3073.59,63.11,8.420736963331287
0,-1724.83,-939.92,-3077.99,55.78,8.42573740095797
0,-1727.46,-940.11,-3075.01,58.99,8.430737838584648
0,-1723.23,-934.74,-3072.92,64.03,8.435738276211332
0,-1724.36,-934.16,-3073.0,61.47,8.440738713838009
0,-1724.26,-935.87,-3077.44,60.52,8.445739151464693
0,-1721.56,-933.36,-3078.45,64.54,8.450739589091377
0,-1728.16,-935.27,-3079.06,57.58,8.455740026718054
0,-1723.86,-927.13,-3081.55,55.71,8.460740464344738
0,-1723.47,-931.8,-3082.71,54.98,8.465740901971415
0,-1724.38,-932.28,-3081.09,62.02,8.4707413395981
0,-1724.05,-936.23,-3080.67,51.99,8.475741777224783
0,-1727.55,-938.0,-3085.41,51.5,8.48074221485146
0,-1726.67,-932.4,-3080.51,53.98,8.485742652478145
0,-1726.31,-931.56,-3077.99,54.99,8.490743090104822
0,-1720.71,-933.56,-3077.24,58.29,8.495743527731506
0,-1723.11,-935.58,-3080.39,58.75,8.50074396535819
0,-1727.27,-924.2,-3073.34,59.83,8.505744402984867
0,-1730.25,-927.89,-3077.84,58.99,8.510744840611551
0,-1729.44,-944.49,-3077.75,55.99,8.515745278238228
0,-1720.81,-939.0,-3082.26,52.98,8.520745715864912
0,-1719.64,-933.98,-3077.52,62.32,8.525746153491596
0,-1719.06,-935.64,-3073.48,63.35,8.530746591118273
0,-1721.22,-930.75,-3072.49,54.53,8.535747028744957
0,-1715.71,-921.57,-3065.83,65.23,8.540747466371634
0,-1721.26,-930.0,-3073.18,58.16,8.545747903998318
0,-1723.19,-925.88,-3076.35,54.59,8.550748341625003
0,-1722.67,-934.75,-3078.71,57.37,8.55574877925168
0,-1723.1,-934.86,-3077.44,60.58,8.560749216878364
0,-1721.92,-929.72,-3077.38,63.53,8.56574965450504
0,-1726.81,-937.79,-3082.34,56.55,8.570750092131725
0,-1729.74,-952.11,-3092.48,30.01,8.575750529758409
0,-1729.19,-943.02,-3085.7,38.28,8.580750967385086
0,-1738.71,-944.04,-3092.4,38.48,8.58575140501177
0,-1740.99,-949.52,-3094.39,37.2,8.590751842638447
0,-1732.91,-943.72,-3085.19,49.51,8.595752280265131
0,-1729.58,-944.1,-3085.69,48.98,8.600752717891815
0,-1730.1,-937.39,-3086.8,54.14,8.605753155518492
0,-1722.35,-933.75,-3072.76,62.09,8.610753593145176
0,-1724.31,-932.69,-3077.39,65.9,8.615754030771853
0,-1724.49,-937.88,-3078.18,64.03,8.620754468398538
0,-1724.15,-925.42,-3077.13,68.43,8.625754906025222
0,-1722.23,-926.6,-3077.48,69.61,8.630755343651899
0,-1725.41,-934.23,-3076.31,72.39,8.635755781278583
0,-1720.29,-931.71,-3072.42,73.85,8.64075621890526
0,-1720.78,-930.48,-3076.76,69.4,8.645756656531944
0,-1725.46,-929.48,-3073.24,67.22,8.650757094158628
0,-1727.18,-920.79,-3075.13,63.64,8.655757531785305
0,-1721.31,-919.25,-3067.09,69.71,8.66075796941199
0,-1721.62,-927.33,-3072.81,65.84,8.665758407038666
0,-1725.01,-938.04,-3074.12,68.61,8.67075884466535
0,-1724.46,-924.91,-3073.2,66.68,8.675759282292034
0,-1726.71,-926.95,-3076.75,60.42,8.680759719918711
0,-1724.79,-928.58,-3074.5,59.16,8.685760157545396
0,-1723.22,-926.56,-3074.17,66.75,8.690760595172073
0,-1725.04,-930.27,-3073.39,62.54,8.695761032798757
0,-1729.77,-938.06,-3078.87,61.12,8.70076147042544
0,-1720.75,-931.08,-3073.97,59.92,8.705761908052118
0,-1722.12,-927.9,-3073.84,61.49,8.710762345678802
0,-1728.7,-931.01,-3076.2,60.91,8.715762783305479
0,-1730.35,-940.65,-3080.48,54.96,8.720763220932163
0,-1731.91,-929.04,-3079.49,57.73,8.725763658558847
0,-1725.78,-930.79,-3077.37,62.18,8.730764096185524
0,-1730.53,-933.65,-3081.3,61.56,8.735764533812208
0,-1733.18,-932.63,-3081.67,58.86,8.740764971438892
0,-1722.5,-924.84,-3077.33,63.19,8.74576540906557
0,-1723.43,-931.57,-3077.86,62.41,8.750765846692254
0,-1726.99,-930.28,-3079.07,61.04,8.75576628431893
0,-1724.85,-933.84,-3075.94,61.42,8.760766721945615
0,-1730.3,-940.6,-3085.54,58.03,8.765767159572299
0,-1731.02,-942.16,-3084.88,59.46,8.770767597198976
0,-1722.33,-939.22,-3075.78,67.68,8.77576803482566
0,-1722.21,-936.12,-3073.11,66.38,8.780768472452337
0,-1726.54,-934.55,-3080.03,59.57,8.785768910079021
0,-1726.32,-935.72,-3080.55,62.79,8.790769347705705
0,-1725.23,-934.66,-3081.19,58.85,8.795769785332382
0,-1727.95,-926.0,-3080.01,63.01,8.800770222959066
0,-1723.77,-936.14,-3080.32,64.64,8.805770660585743
0,-1727.45,-937.41,-3082.64,58.45,8.810771098212427
0,-1725.45,-933.55,-3078.15,60.08,8.815771535839112
0,-1722.01,-923.16,-3074.58,62.41,8.820771973465789
0,-1727.77,-940.08,-3078.36,54.15,8.825772411092473
0,-1722.86,-937.85,-3082.31,61.2,8.83077284871915
0,-1722.05,-934.25,-3078.57,60.23,8.835773286345834
0,-1721.57,-928.74,-3077.8,59.16,8.840773723972518
0,-1721.17,-929.67,-3077.58,61.98,8.845774161599195
0,-1718.27,-934.2,-3072.8,62.74,8.850774599225879
0,-1715.67,-926.43,-3066.36,67.97,8.855775036852556
0,-1715.29,-922.15,-3065.1,68.28,8.86077547447924
0,-1708.46,-909.94,-3054.57,84.43,8.865775912105924
0,-1717.62,-913.39,-3062.13,70.09,8.870776349732601
0,-1721.76,-918.22,-3067.92,54.33,8.875776787359285
0,-1721.45,-935.69,-3076.91,52.96,8.880777224985962
0,-1723.06,-938.86,-3077.42,55.81,8.885777662612647
0,-1721.53,-936.16,-3077.7,62.7,8.89077810023933
0,-1718.05,-940.7,-3080.6,61.33,8.895778537866008
0,-1720.32,-945.16,-3084.09,59.83,8.900778975492692
0,-1728.3,-940.63,-3087.69,51.04,8.905779413119369
0,-1729.57,-943.33,-3081.02,57.57,8.910779850746053
0,-1725.78,-937.19,-3084.75,56.44,8.915780288372737
0,-1721.62,-928.17,-3079.24,54.66,8.920780725999414
0,-1721.52,-930.63,-3077.97,54.29,8.925781163626098
0,-1723.65,-933.62,-3079.61,61.21,8.930781601252775
0,-1724.23,-931.57,-3083.84,56.03,8.93578203887946
0,-1727.05,-932.97,-3080.49,62.42,8.940782476506143
0,-1726.55,-943.48,-3081.7,61.07,8.94578291413282
0,-1727.94,-932.97,-3081.81,58.1,8.950783351759505
0,-1723.91,-932.58,-3074.25,58.02,8.955783789386182
0,-1721.54,-930.91,-3072.93,61.02,8.960784227012866
0,-1717.09,-924.64,-3070.49,68.43,8.96578466463955
0,-1717.45,-924.0,-3071.9,65.03,8.970785102266227
0,-1723.67,-933.99,-3077.52,61.77,8.975785539892911
0,-1728.25,-932.79,-3081.08,56.63,8.980785977519588
0,-1721.18,-934.49,-3075.59,58.54,8.985786415146272
0,-1721.29,-932.83,-3078.14,61.44,8.990786852772956
0,-1727.07,-937.39,-3081.47,59.07,8.995787290399633
0,-1727.63,-927.18,-3079.99,54.88,9.000787728026317
0,-1715.96,-916.52,-3066.92,62.55,9.005788165652994
0,-1714.7,-913.6,-3068.57,58.98,9.010788603279678
0,-1710.31,-908.91,-3063.71,64.33,9.015789040906363
0,-1704.15,-901.13,-3052.7,66.36,9.02078947853304
0,-1696.59,-896.4,-3053.2,68.2,9.025789916159724
0,-1704.79,-906.68,-3056.49,60.15,9.0307903537864
0,-1692.53,-897.17,-3047.02,75.11,9.035790791413085
0,-1692.94,-889.92,-3047.89,75.02,9.040791229039769
0,-1693.97,-892.21,-3050.64,70.28,9.045791666666446
0,-1692.42,-886.97,-3042.0,73.57,9.05079210429313
0,-1690.21,-888.91,-3043.57,73.26,9.055792541919807
0,-1691.58,-896.29,-3049.81,69.12,9.060792979546491
0,-1696.93,-906.81,-3050.75,68.08,9.065793417173175
0,-1703.17,-909.24,-3056.98,59.74,9.070793854799852
0,-1711.51,-915.32,-3061.43,63.28,9.075794292426536
0,-1704.74,-911.91,-3064.46,64.99,9.080794730053213
0,-1713.27,-913.07,-3063.83,64.53,9.085795167679898
0,-1712.39,-914.17,-3067.2,67.48,9.090795605306582
0,-1714.15,-927.52,-3070.32,69.31,9.095796042933259
0,-1724.22,-937.42,-3076.71,61.7,9.100796480559943
0,-1723.83,-926.93,-3071.71,59.76,9.10579691818662
0,-1732.65,-942.77,-3079.39,55.41,9.110797355813304
0,-1733.41,-938.62,-3086.11,53.78,9.115797793439988
0,-1732.06,-943.08,-3088.65,53.71,9.120798231066665
0,-1732.34,-937.77,-3083.35,59.88,9.12579866869335
0,-1742.88,-950.8,-3099.34,48.54,9.130799106320026
0,-1737.46,-945.28,-3092.43,57.21,9.13579954394671
0,-1742.41,-960.17,-3096.91,53.8,9.140799981573394
0,-1745.12,-953.09,-3099.59,47.21,9.145800419200071
0,-1741.29,-943.3,-3092.43,48.62,9.150800856826756
0,-1743.02,-952.4,-3096.71,51.45,9.155801294453433
0,-1748.41,-965.16,-3102.99,53.5,9.160801732080117
0,-1747.76,-951.22,-3097.3,57.17,9.1658021697068
0,-1742.04,-949.97,-3089.54,60.78,9.170802607333478
0,-1745.06,-957.86,-3093.16,51.32,9.175803044960162
0,-1744.26,-964.94,-3097.68,52.69,9.180803482586839
0,-1740.95,-953.59,-3094.83,52.93,9.185803920213523
0,-1743.58,-949.81,-3095.49,43.43,9.190804357840207
0,-1738.71,-949.92,-3090.61,48.95,9.195804795466884
0,-1737.45,-954.16,-3090.11,55.93,9.200805233093568
0,-1740.08,-941.73,-3087.12,52.88,9.205805670720245
0,-1737.5,-940.33,-3088.21,58.32,9.21080610834693
0,-1728.18,-927.33,-3084.62,62.73,9.215806545973614
0,-1736.53,-937.95,-3083.85,60.22,9.22080698360029
0,-1732.37,-940.35,-3081.44,60.22,9.225807421226975
0,-1726.82,-935.01,-3079.38,61.61,9.230807858853652
0,-1723.8,-927.68,-3073.29,64.84,9.235808296480336
0,-1724.54,-934.65,-3076.54,61.71,9.24080873410702
0,-1728.89,-944.48,-3077.99,62.89,9.245809171733697
0,-1728.32,-938.98,-3081.84,59.39,9.250809609360381
0,-1730.75,-941.78,-3085.29,54.61,9.255810046987058
0,-1733.84,-945.96,-3089.65,55.87,9.260810484613742
0,-1728.83,-936.96,-3086.13,54.73,9.265810922240426
0,-1731.91,-938.36,-3088.26,46.46,9.270811359867103
0,-1737.17,-942.09,-3090.05,47.78,9.275811797493787
0,-1731.73,-943.95,-3089.29,51.32,9.280812235120464
0,-1733.1,-942.73,-3084.92,54.28,9.285812672747149
0,-1732.24,-934.76,-3080.82,60.05,9.290813110373833
0,-1730.1,-942.32,-3084.01,57.87,9.29581354800051
0,-1728.1,-936.24,-3086.57,59.61,9.300813985627194
0,-1728.39,-926.64,-3073.52,63.51,9.30581442325387
0,-1735.3,-938.16,-3083.35,54.56,9.310814860880555
0,-1729.63,-939.12,-3080.74,63.38,9.315815298507239
0,-1735.41,-939.51,-3084.01,61.83,9.320815736133916
0,-1731.17,-939.69,-3083.0,61.62,9.3258161737606
0,-1727.55,-938.87,-3081.37,62.16,9.330816611387277
0,-1726.56,-935.87,-3072.43,66.59,9.335817049013961
0,-1724.05,-928.88,-3073.07,68.83,9.340817486640645
0,-1722.04,-930.85,-3072.22,67.62,9.345817924267322
0,-1723.55,-937.57,-3078.46,65.49,9.350818361894007
0,-1726.45,-924.15,-3076.01,64.03,9.355818799520684
0,-1727.79,-942.08,-3085.77,64.94,9.360819237147368
0,-1730.35,-944.53,-3084.53,62.33,9.365819674774052
0,-1730.04,-942.69,-3086.78,61.7,9.370820112400729
0,-1729.09,-939.98,-3082.52,57.44,9.375820550027413
0,-1725.26,-937.32,-3082.35,61.98,9.38082098765409
0,-1727.55,-935.58,-3078.6,55.75,9.385821425280774
0,-1732.15,-937.58,-3085.29,53.21,9.390821862907458
0,-1729.68,-933.36,-3084.12,58.89,9.395822300534135
0,-1722.76,-930.07,-3076.08,64.4,9.40082273816082
0,-1719.97,-926.87,-3073.97,64.62,9.405823175787503
0,-1720.9,-932.37,-3074.0,63.03,9.41082361341418
0,-1719.69,-928.55,-3078.5,61.24,9.415824051040865
0,-1731.72,-932.54,-3078.93,59.43,9.420824488667542
0,-1727.64,-933.91,-3079.75,56.63,9.425824926294226
0,-1723.14,-929.42,-3071.46,62.57,9.43082536392091
0,-1727.12,-929.56,-3078.36,57.79,9.435825801547587
0,-1726.12,-932.52,-3077.27,58.29,9.440826239174271
0,-1723.68,-931.73,-3078.67,59.97,9.445826676800948
0,-1724.42,-928.56,-3077.62,61.84,9.450827114427632
0,-1722.44,-932.23,-3073.64,62.85,9.455827552054316
0,-1727.01,-930.19,-3077.04,58.79,9.460827989680993
0,-1726.89,-931.98,-3080.25,56.4,9.465828427307677
0,-1732.49,-940.07,-3081.49,52.54,9.470828864934354
0,-1722.39,-939.37,-3079.78,55.46,9.475829302561039
0,-1727.43,-932.32,-3078.38,54.07,9.480829740187723
0,-1723.73,-925.77,-3075.71,58.71,9.4858301778144
