labels,F4,F3,Fz,Cz,timestamps
0,3.8526422581886033,10.325525783528455,22.01316724745179,12.11218056852963,-2.0000382701874706
0,18.112294374310245,13.935402408137207,9.612524208157026,8.73199885471647,-1.9950381745120005
0,-15.788054990191716,0.8252791636179648,-8.128120461346304,-7.8181840569371115,-1.990038078836534
0,-1.1184058625749427,-1.8648439742852845,-11.758766787467264,-9.64836817135543,-1.9850379831610638
0,6.951241730000337,-1.3749670302073693,-12.559414796323178,-11.238553493159364,-1.9800378874855973
0,-12.189112239406384,-6.125090028749214,-11.010064513090166,-15.1387400261157,-1.9750377918101272
0,5.030532202400341,-8.955212994217115,-11.660715961810357,-11.378927772858445,-1.970037696134657
0,-17.789824971116072,-12.815335950352871,-14.281369165374858,-12.539116734784036,-1.9650376004591905
0,-26.90018378582416,-6.645458920061164,-6.362024145518287,-1.6093069121211332,-1.9600375047837204
0,-4.180544266310061,-7.565581925315435,-10.182680922885666,1.5605016957590474,-1.9550374091082539
0,1.2690935643191112,-9.70570498723578,-18.233339517111673,-5.179690910086947,-1.9500373134327837
0,-33.05127031595716,-22.73582812605208,-25.873999946615285,-13.859884728334869,-1.9450372177573136
0,-26.391635927975287,-25.005951360708522,-36.594662228010925,-15.980079757064601,-1.940037122081847
0,-19.85200329060487,-19.256074708310692,-24.975326375417314,-0.7302759933380596,-1.935037026406377
0,-0.8823724204673742,-20.186198183845597,-16.875992400165153,1.2495265667439404,-1.9300369307309104
0,-15.792743332495764,-15.396321800264465,-16.986660311109773,1.8093279275408691,-1.9250368350554403
0,-13.893116040478963,-22.036445568651143,-23.797330115099676,-9.620871906504785,-1.9200367393799702
0,-14.713490557057618,-10.656569498315983,-9.78800181716208,7.298927069147465,-1.9150366437045037
0,-19.74386689349726,-15.126693596915839,-13.25867542061841,6.71872485911963,-1.9100365480290336
0,-1.674245059599933,-14.326817870631718,-3.389350927406315,3.228521467806364,-1.905036452353567
0,-9.614625063904281,-15.49694232425541,-4.540028338485979,-2.8516831008232812,-1.900036356678097
0,1.5449930859075356,-3.177066961225418,-0.47070765419770755,6.4481111569045035,-1.8950362610026268
0,-0.43539061737042983,-1.9671917838836235,13.89861112537422,9.317904244434057,-1.8900361653271602
0,-0.10577618074397571,6.93268320601436,20.82792799982807,13.287696164715946,-1.8850360696516901
0,-3.726163611156879,-4.837441993183045,1.0972429677809465,4.717486919868327,-1.8800359739762236
0,19.243447084424634,0.4124326168023419,13.976556026640411,12.447276511067564,-1.8750358783007535
0,17.833055898599653,21.2223070341287,25.805867172685247,15.10706493854197,-1.8700357826252834
0,6.242662822883451,6.922181256456172,6.525176400862094,-2.873147798480722,-1.8650356869498168
0,-1.4577321524500746,4.132055280495381,-3.9455162953072342,-7.953361701538112,-1.8600355912743467
0,-14.288129037783424,-3.0380708978978985,-7.186210923113212,-17.643576772205872,-1.8550354955988801
0,-5.84852784332292,-5.058197283211048,-1.976907489830559,-11.383793011291397,-1.85003539992341
0,-19.62892857849358,-12.35832387976518,-18.177606002256745,-23.29401041832803,-1.84503530424794
0,-22.289331251536286,-13.768450691263391,-11.77830646640342,-24.31422899124005,-1.8400352085724734
0,-35.40973586898686,-28.238577720307866,-29.189008887062077,-26.16444872596401,-1.8350351128970033
0,-27.000142435027474,-23.12870496783779,-17.049713267324204,-20.744669616148894,-1.8300350172215367
0,-20.540550951100844,-26.648832432624936,-21.04041960827462,-18.54489165313571,-1.8250349215460666
0,-22.560961416028256,-22.578960111038274,-26.41112790891957,-15.505114826176632,-1.8200348258705965
0,-6.611373826418315,-13.579087997105727,-13.32183816617973,-8.665339122751522,-1.81503473019513
0,-10.64178817716434,-15.599216082814607,0.5274496249267473,-9.95556452892426,-1.8100346345196598
0,-4.42220446195832,-10.849344358498865,0.7567354706225582,-14.53579102962088,-1.8050345388441933
0,-3.122622673678482,-10.759472813124123,2.5860193775612137,-10.12601860868272,-1.8000344431687232
0,-8.773042804612022,-9.569601434477459,-5.3746986475934895,-2.8762472488606567,-1.795034347493253
0,-5.103464846515793,-13.51973020927773,-15.555418598067504,-8.536476931998775,-1.7900342518177865
0,-1.2438887905903635,-2.6798591232212337,-2.786140466562315,1.1532923606989898,-1.7850341561423164
0,13.565685372329797,10.320011838790851,7.823135754924053,9.183060648388569,-1.7800340604668499
0,24.08525765115678,10.809882692025793,27.77241007454656,20.652827950060022,-1.7750339647913798
0,5.174828053749997,5.849753451222398,9.81168249960211,7.252594283844413,-1.7700338691159097
0,13.29439658656004,18.20962413023584,6.040953035923241,16.622359666610706,-1.765033773440443
0,2.2139632548410533,-0.5505052580574924,-12.259778311812614,5.412124113965884,-1.760033677764973
0,4.173528063010519,0.8593652983525615,-6.710511539216645,2.171887640461681,-1.7550335820895064
0,-1.646908985042058,-5.780764188967981,-9.961246641435718,-1.7983497400378372,-1.7500334864140363
0,-11.327347885605496,-6.060893708404759,-12.121983612792603,-17.788588013829294,-1.7450333907385662
0,-0.2777886347459281,-2.3910232479870777,-1.6327224467039287,-12.708827166718452,-1.7400332950630997
0,-26.088231227936046,-21.231152795200426,-19.06346313570373,-18.539067183409124,-1.7350331993876296
0,-19.658675659596703,-13.251282336661921,-27.03420567128168,-14.759308047154825,-1.730033103712163
0,-22.219121922506204,-14.971411857704584,-25.584950043303603,-16.65954973965372,-1.725033008036693
0,-18.799570007432447,-18.14154134217048,-26.055696239392034,-10.099792241067938,-1.7200329123612264
0,-15.010019903144784,-8.891670772406938,-5.156444244794117,-0.7500355302293273,-1.7150328166857562
0,-24.86047159654821,-9.941800129376448,-10.337194042829632,-1.1702795850791454,-1.7100327210102861
0,-19.51092507268207,-7.781929392894179,-11.337945615518962,-6.040524383118564,-1.7050326253348196
0,-23.72138031457881,-12.252058541821285,-12.828698943865936,-8.800769901526195,-1.7000325296593495
0,-18.501837303169918,-15.532187554045002,-18.659454007751638,-14.521016116923374,-1.695032433983883
0,-7.712296017396961,-3.042316406358639,-10.500210785731078,-9.751263005043203,-1.6900323383084128
0,-9.422756434584127,-8.512445074516148,-9.450969254982278,-4.871510540569831,-1.6850322426329427
0,-1.773218530938299,-2.782573533483628,1.3282706084540044,-4.191758697280855,-1.6800321469574762
0,-4.463682281951808,-2.5927017576639226,6.157508829181674,1.4479925516448757,-1.675032051282006
0,8.205852337283712,0.9671702789252419,4.426745431874173,-0.25225676667611285,-1.6700319556065395
0,15.155385351647372,8.01704260240738,7.325980440852456,3.1574933749408545,-1.6650318599310694
0,3.924916785445366,5.226915238724039,10.095213879876884,1.5072430035913094,-1.6600317642555993
0,-0.43555333783563965,7.426788213343732,2.1544457720375325,5.976992146181731,-1.6550316685801327
0,-2.8760249952425445,8.546661551109962,-4.806323860174287,-0.403259170656208,-1.6500315729046626
0,3.6235018360533875,1.3665352762024279,-2.7470949945014365,-7.073510920511304,-1.645031477229196
0,-3.9469728210916135,2.7364094122258793,-5.767867608523913,-12.853763076862649,-1.640031381553726
0,4.622551056187178,6.326283982376535,-1.1286416794699807,-6.214015612606245,-1.6350312858782559
0,8.83207349066119,5.056159009481116,5.3605828157339905,-4.034268499817585,-1.6300311902027893
0,3.201594504773065,5.116034515905383,4.519805900202007,0.8554782901031739,-1.6250310945273192
0,-4.4988858794970294,2.0759105235225377,18.059027596695064,0.5952247861088786,-1.6200309988518526
0,6.820632359539885,5.355787053774548,1.1882479272375202,7.0649710171997935,-1.6150309031763825
0,3.6901492434160827,9.285664127684665,7.26746691297876,7.674717012138824,-1.6100308075009124
0,18.12966479330458,16.995541765669685,20.176684574257923,17.684462799116815,-1.6050307118254459
0,28.119179029492507,21.835419987116957,32.44590093032059,29.474208405258867,-1.6000306161499758
0,12.368691970713016,7.84529880995486,17.355115998595547,17.733953855987412,-1.5950305204745092
0,16.89820363380438,13.075178250573146,11.764329794295683,20.083699174618243,-1.590030424799039
0,7.297714033901617,13.705058324038005,13.20354233072093,17.523444382397248,-1.585030329123569
0,2.887223184855369,11.824939044208165,12.81275361972183,12.043189498725022,-1.5800302334481025
0,14.86673109960109,9.284820423731245,9.451963671904386,11.852934541400415,-1.5750301377726323
0,8.806237790273563,-1.645297525806889,5.391172496750725,5.832679526908652,-1.5700300420971658
0,1.875743268123013,-4.7754147934616515,2.950380102855866,6.192424470722337,-1.5650299464216957
0,-5.494752456312936,-6.155531368372571,-6.200413501724114,3.4921693875666593,-1.5600298507462256
0,13.314750627181487,7.814352760581171,7.558791690874495,20.791914291515344,-1.555029755070759
0,10.124252528538339,5.674237604646557,10.107995688392766,14.161659195736007,-1.550029659395289
0,14.293753256992211,4.564123174798354,9.417198498124591,2.6614041121516863,-1.5450295637198224
0,-1.2867471792232303,-1.5859905184506158,2.6564001266025947,-7.048850948380297,-1.5400294680443523
0,-7.227248772649504,-2.106103464888315,-0.044399420340576645,-10.50910597533619,-1.5350293723688822
0,-15.457751515919865,-8.516215654287276,-11.235200137191384,-22.42936095769299,-1.5300292766934156
0,-5.218255401050825,-5.426327076092136,-11.326002018213403,-23.059615883201616,-1.5250291810179455
0,-18.798760419069826,-14.53643771915434,-26.066805056840867,-26.719870737771515,-1.520029085342479
0,-20.689266559809003,-18.336547571442104,-26.17760924502633,-24.220125505060334,-1.5150289896670088
0,-19.059773811572086,-18.266656619649837,-23.958414572642464,-23.18038016632108,-1.5100288939915387
0,-12.060282160881638,-13.536764848888813,-19.24922102720157,-15.47063470047252,-1.5050287983160722
0,-14.330791592563552,-12.716872242660433,-24.630028593924997,-11.460889084387224,-1.500028702640602
0,-15.081302089972414,-6.006978783068829,-7.100837255946455,0.1988567066167013,-1.4950286069651355
0,-15.211813635070076,-5.957084451130671,3.2783530052689107,1.5386026981437784,-1.4900285112896654
0,-8.782326208420503,-0.39718922710322235,-4.3324577908221595,0.3383489161248836,-1.4850284156141953
0,-6.192839789326566,-0.8972930907873226,-6.873269624411293,1.7980953864805107,-1.4800283199387287
0,-13.223354356076126,-2.647396021749855,-3.8840824753786682,-2.0021578649514704,-1.4750282242632586
0,-9.55386988604461,1.10250200057892,-8.614896323120124,-2.402410812352972,-1.470028128587792
0,8.065613644263042,7.1624009968190565,-7.335711146441829,6.487336570140341,-1.465028032912322
0,15.555096258760376,4.082300987421238,-1.7865269235087662,13.037084308280528,-1.4600279372368519
0,-0.24542201899831495,4.452201992436963,-2.4173436319263413,8.276832427286308,-1.4550278415613853
0,-6.335941166120434,-0.4078959685177985,-1.3381612489375063,1.5065809515454416,-1.4500277458859152
0,8.893538839967194,5.05200712384562,8.251020248374909,10.086329904688752,-1.4450276502104487
0,5.103018021733695,10.161911288513153,13.440200882763037,7.056079309722313,-1.4400275545349785
0,-2.657503598629364,9.361816543964341,1.7793806763869298,2.355829189010161,-1.4350274588595084
0,-2.0180259992177882,7.411722907913591,1.6385596506699045,2.0055795643350454,-1.4300273631840419
0,5.421450841807109,8.901630397221195,7.447737826507216,8.38533045705988,-1.4250272675085718
0,4.250926946233624,6.781539027927955,-2.003084775559609,2.1050818881563678,-1.4200271718331052
0,4.5204023355870016,3.161448815328418,-12.183908135189348,-3.715166121800375,-1.4150270761576351
0,7.039877030963314,-3.758640225847206,-9.24473223180623,-3.845413552415562,-1.410026980482165
0,-5.650648946979158,-7.998728081063161,-6.2155570441216765,-4.845660383138441,-1.4050268848066985
0,-6.9111755777958495,-13.538814735487286,-4.956382550021057,-1.875906593069605,-1.4000267891312284
0,-8.651702840813918,-14.238900173506698,-17.227208726636132,-2.996152160952962,-1.3950266934557618
0,-11.182230714734196,-13.138984378369415,-17.10803555018726,-3.8163970652262864,-1.3900265977802917
0,-4.942759177436832,-3.349067332084585,-6.718862995648036,3.823358715926668,-1.3850265021048216
0,3.136711793961087,4.620850984300942,3.1103089632252665,12.04311520438053,-1.380026406429355
0,3.996182222747061,6.2107705901193455,16.719480353267233,8.962872421632735,-1.375026310753885
0,0.6456521321810744,6.11069150450662,15.948651200962008,19.082630388336387,-1.3700262150784184
0,-5.46487845465201,7.260613746087258,9.077821531704457,22.962389123896738,-1.3650261194029483
0,4.0845904853016,5.48053733287258,8.816991369605415,22.49214864603369,-1.3600260237274782
0,12.784058975078066,6.300462282250484,6.286160737702028,19.081908970445483,-1.3550259280520116
0,-4.3864729625918875,-7.299611388914489,-1.9546703417506412,19.281670110751463,-1.3500258323765415
0,-14.117005305317317,-5.209683663955955,2.0844981530380555,7.441432078671144,-1.345025736701075
0,5.922461969424652,3.160245473979954,-0.2563337563262781,17.841194884328083,-1.3400256410256048
0,-10.258071115381393,-4.55982395797274,-1.4171660482891348,10.110958536493529,-1.3350255453501383
0,-5.218604536313978,-4.979891942482331,1.3120012986998528,5.290723042708265,-1.3300254496746682
0,2.220861730478195,0.1000415380245544,4.491168306178272,-0.5595115904600912,-1.325025353999198
0,-4.739672290774573,-6.5100234985677865,0.2503349955608398,-4.159745356953994,-1.3200252583237315
0,1.2997934243737852,-4.340087034044638,6.899501388025472,-6.109978250746452,-1.3150251626482614
0,-14.690741099421786,-11.920149049747044,-6.101332495506041,-11.910210265457525,-1.3100250669727949
0,-0.5512758370912783,-2.460209526395049,-4.022166634224239,-3.3304413940668756,-1.3050249712973248
0,2.99818923696494,3.029731555914305,1.3569989928224473,-0.7406716288609707,-1.3000248756218546
0,10.167654148581219,2.1996742174026975,-0.34383559319102186,-3.190900961639562,-1.295024779946388
0,18.367118923225362,12.60961847818407,13.63532962892072,7.228870616012615,-1.290024684270918
0,3.7765835854552714,-1.6104356420649066,4.674494679986785,-0.07135688751024266,-1.2850245885954514
0,10.006048158737789,6.889511875797659,8.073659580175116,6.268416535967137,-1.2800244929199813
0,16.73551266554755,10.259461050421564,17.522824348849802,6.078190894277618,-1.2750243972445112
0,3.9149771273583074,3.5794118998959945,21.931989004322705,4.577966194805671,-1.2700243015690447
0,8.494441564619205,8.069364441640532,17.551153563399943,11.90774244437878,-1.2650242058935746
0,1.1139059969539504,1.53931869244715,4.270318041157175,2.9875196491610296,-1.260024110218108
0,7.4733704434063615,-1.1307253313676549,-5.0005175486860685,1.6272978146522936,-1.255024014542638
0,-7.527165077387816,-7.140767613691275,-17.7013531928969,-8.712923054062438,-1.2500239188671678
0,4.962299453009105,-4.260808138255804,-7.0221888777971415,-0.7331429518853776,-1.2450238231917012
0,2.321764052985253,-8.060846888362091,-6.7530245887530915,-7.483361873394926,-1.2400237275162311
0,-4.188771259144783,-5.000883846747205,5.20613968971758,2.936420187223398,-1.2350236318407646
0,-8.01930646507656,3.5290810043931975,4.505303973470998,5.27620323602502,-1.2300235361652945
0,-0.18984154624197402,7.069047683139568,1.8944682782566495,4.285987278990006,-1.2250234404898244
0,-1.5603764836779666,6.26901620740409,5.06363261949866,7.625772321729386,-1.2200233448143578
0,-5.6509112581227186,-4.4610134053405,-13.037202987634574,-1.8744416306233147,-1.2150232491388877
0,1.358554149927273,2.0689588620522814,-4.6480385278862535,5.845345426659854,-1.2100231534634212
0,2.1780197601738442,-2.261066973340497,1.4811260144447087,7.905133497974829,-1.205023057787951
0,2.0974855923497855,-2.711090894375708,-7.759709344472465,-1.6950774126813652,-1.200022962112481
0,-11.533048333870017,-5.231112883752537,-11.070544588073401,-5.6952873016537415,-1.1950228664370144
0,-3.6135819986463447,-2.4811329238862756,-2.811379699231562,-6.915496165273209,-1.1900227707615443
0,-1.5241153816855586,-1.0311509968549903,5.427785339799284,-0.8257039994958174,-1.1850226750860777
0,2.7353515377260926,2.5888329155076417,-0.7430494529425029,-2.1059107998435405,-1.1800225794106076
0,10.984818780383488,1.7688188314235007,2.7361159405199675,1.813883438435492,-1.1750224837351375
0,15.454286366678659,6.668806768977108,8.205281537959356,1.4836787201791775,-1.170022388059671
0,2.0437543161558804,13.388796745887241,20.494447356709003,8.023475050130191,-1.1650222923842009
0,4.693222647433643,6.028788779207648,1.6036134132312476,4.313272432724349,-1.1600221967087343
0,-0.9873086214970953,1.8287828851716923,4.482779722957003,3.2930708719315476,-1.1550221010332642
0,-10.84783947286962,-7.811220920571029,-3.2080536993798687,-4.237129628694391,-1.150022005357794
0,3.1916301112360204,-2.0412226224629193,-13.698886839211685,1.692670934219488,-1.1450219096823275
0,-5.178899850914032,-2.5712222046779103,-11.949719681565973,0.12247256405178322,-1.1400218140068574
0,7.5305706591802375,-1.6212196510627834,-7.250552210583899,0.18227526419831963,-1.1350217183313909
0,1.0500416600062956,-2.481214945219248,-8.091384409391395,-2.5479209619529315,-1.1300216226559208
0,-13.940486830057703,-9.301208070497532,-9.192216260221727,-8.418116110921888,-1.1250215269804507
0,-10.291014792421048,-4.871199009845479,-6.583047744500086,-6.818310178892851,-1.120021431304984
0,-4.2315422077798255,-0.29118774568113365,-4.123878842888183,0.7314968384789011,-1.115021335629514
0,-0.5020690560142662,3.3988257399836153,-4.274709535408789,-1.6986950539994992,-1.1100212399540474
0,10.427404683434391,13.438841465158458,15.164460198294439,5.18111414867976,-1.1050211442785773
0,-3.703120968923073,14.028859447352737,18.893630378390228,7.500924451438229,-1.1000210486031072
0,1.6063540071621176,-4.001120296813244,0.8528010241574442,-2.6892641411214226,-1.0950209529276407
0,2.945829631766211,-1.6610977514724088,-5.688027846144849,-5.949451624684422,-1.0900208572521706
0,5.165305924829449,-3.921072900970255,-8.908856214648322,-13.669637994823656,-1.085020761576704
0,-9.005217093902607,-9.241045729427881,-4.479684063168706,-14.169823246456328,-1.080020665901234
0,8.354260595213711,3.028983779448188,-4.810511372924101,-3.2800073734733326,-1.0750205702257638
0,0.3537390118023256,3.4690156422996945,3.268661875379798,-0.36019036879710087,-1.0700204745502973
0,8.063218175311807,7.809049875774794,13.33783570121456,2.3896277751917068,-1.0650203788748271
0,0.16269810483137248,3.6090864961650926,4.247010123727656,-1.7005529337550218,-1.0600202831993606
0,1.8921788190809803,6.749125519244979,6.786185161383015,6.599267512056856,-1.0550201875238905
0,11.501660336460201,9.449166960223822,12.0153608319073,12.379089120091276,-1.0500200918484204
0,6.181142674928783,1.7092108336890957,6.164537152263495,3.888911897273096,-1.0450199961729538
0,12.960625851749667,0.5192571536509419,-8.676285861311563,-4.381264150143361,-1.0400199004974837
0,5.770109883317908,13.179305933693893,-3.77710819290676,0.05856098371852256,-1.0350198048220172
0,7.349594785148649,4.869357186933572,-1.0079298264188634,-4.5616126952479705,-1.030019709146547
0,6.659080571974548,7.089410925819165,9.40124925453403,-5.2617851809257665,-1.025019613471077
0,8.638567257824372,4.119467162100227,7.360429066242264,-9.831956466817907,-1.0200195177956104
0,-9.361945143882922,-2.240474093018187,-0.17039037547782615,-11.092126545817251,-1.0150194221201403
0,-5.202456619991506,-5.920412828593126,-12.631209055221586,-11.782295409960101,-1.0100193264446737
0,-13.922967157042944,-6.050349033562197,-16.722026957403877,-12.99246305024028,-1.0050192307692036
0,0.396523259123322,-0.9902826964638092,-0.8328440656073696,0.5973705434226841,-1.0000191350937335
0,-6.3639853566112095,-4.590213805405855,4.856339637495837,1.9372053819105117,-0.995019039418267
0,8.375507011095294,5.589857651801568,5.0755241695987285,9.837041476364933,-0.9900189437427969
0,-0.944999622305559,0.36993168743800053,2.8847095481977636,1.4968788376729165,-0.9850188480673303
0,-10.325505241429399,-6.439991686272708,-8.386104209528124,-2.683282523709359,-0.9800187523918602
0,-8.786009830718827,-5.789912457036225,-11.10691708638611,-4.7834425975367765,-0.9750186567163901
0,-5.706513374017386,-12.29983061215066,-12.887729064630474,-8.783601373393289,-0.9700185610409235
0,0.022984145547865764,-1.9497461382362162,-3.7785401255854647,-2.0337588404049742,-0.9650184653654534
0,-7.027517254622464,-7.149659021192633,-8.549350249639271,-2.7639149871777584,-0.9600183696899869
0,-15.878017556668471,-15.739569246244077,-10.700159416387246,-8.66406980188063,-0.9550182740145168
0,-11.008516741985854,-10.399476797783938,-7.590967604634936,-0.20422327226624934,-0.9500181783390502
0,-9.249014790894304,-8.65938165913942,-12.031774792307703,-4.6343753856576955,-0.9450180826635801
0,-21.62951168252552,-12.729283812542276,-22.67258095631087,-13.504526128948003,-0.94001798698811
0,-25.770007394625225,-12.889183239170189,-13.943386072221873,-10.884675488407964,-0.9350178913126435
0,-17.73050190312074,-16.109079919050274,-10.764190114046329,-13.324823449355193,-0.9300177956371734
0,-8.1309951819334,-7.138973830939922,-11.974993054320073,-6.534969995987177,-0.9250176999617068
0,2.788512796601823,-1.528864952433791,-2.305794864402756,-1.4251151115007779,-0.9200176042862367
0,-3.491977939009269,-14.848753260267165,-8.446595514761599,-16.92525877832506,-0.9150175086107666
0,-8.62246735991981,-4.348638730459525,-2.2573949752030305,-12.345400978109202,-0.9100174129353
0,-6.492955436924923,4.9514786616684425,-5.648193215006773,-1.8955416914983683,-0.9050173172598299
0,-5.853442140241955,-0.008401058794744065,-5.39899020297958,5.874319101745207,-0.9000172215843634
0,-4.853927439448471,-5.018277866714328,-14.149785907398677,-2.2558185777973274,-0.8950171259088933
0,-1.3944113035706658,0.8118482630678752,-2.0205802958342876,-5.13595470955148,-0.8900170302334232
0,1.2051062987510832,1.1719773558364732,-2.4213733351118547,2.693910727116017,-0.8850169345579566
0,7.394625399007417,1.0821094369337498,-0.34216499154334,5.99377775294371,-0.8800168388824865
0,-7.015853971429733,8.90224453158919,7.467044768746026,2.343646388550528,-0.8750167432070199
0,-5.326331781275524,0.8923826647369606,14.946255979441322,10.383516654181218,-0.8700166475315498
0,8.06319200090407,7.382523860886341,18.895468673498964,16.063388569481997,-0.8650165518560797
0,7.202717406623613,7.722668144063276,20.604682882564823,14.683262153146304,-0.8600164561806132
0,14.412244467011973,10.632815537695688,12.893898636604014,14.283137422568126,-0.8550163605051431
0,2.5617732124045642,3.632966064463032,15.643115963868677,14.273014393716753,-0.8500162648296765
0,1.28130367231612,6.503119746295264,11.162334891075094,13.95289308115147,-0.8450161691542064
0,6.360835875702244,4.123276604500184,10.55155544359157,14.342773498045887,-0.8400160734787363
0,7.380369851122033,-0.946563340099735,4.720777645634209,3.0226556562615943,-0.8350159778032697
0,-5.960094373287745,-5.026400066959452,2.0700015205385176,-3.6074604333413354,-0.8300158821277996
0,-1.5605567696679898,-0.8462335555119547,4.729227091064096,-0.13757476035976657,-0.8250157864523331
0,3.3389826898569845,3.393936214991469,-4.611545620371976,-3.4276873143950373,-0.820015690776863
0,3.2185240332197913,-0.6958907346200188,3.6876834084859835,-3.6277980848681937,-0.8150155951013929
0,-0.07193271177329574,6.4342856163879425,15.266914199750381,0.1920929390370414,-0.8100154994259263
0,1.5176124824875434,-2.8955347114414165,-5.09385322485696,-16.118014231552415,-0.8050154037504562
0,-12.10284035644672,-8.375351697682456,-7.374618844065489,-21.228119584886766,-0.8000153080749897
0,-2.8932912007873632,-0.4851653217488865,-9.045382636577633,-15.248223107998513,-0.7950152123995196
0,-14.203740022182613,-1.9549755626936085,-7.346144580531254,-12.578324786306865,-0.7900151167240494
0,-11.434186791473138,1.7052176007072277,-5.346904653310592,-5.228424603720404,-0.7850150210485829
0,13.155368521360996,5.095414189738869,-3.0976628316178445,7.701477456893276,-0.7800149253731128
0,0.384925946797837,4.965614225520664,-4.808419091621104,7.351381413023772,-0.7750148296976462
0,1.6444855151810134,3.115817728815939,-6.009173409047241,4.3012872818778485,-0.7700147340221761
0,1.0140472565430496,8.326024719946137,2.1500742407941953,7.121195080090908,-0.765014638346706
0,3.1936112007227746,4.836235218734728,-0.08067611710212486,5.021104823709685,-0.7600145426712395
0,1.5231773773920887,-4.28355075549722,-4.551424457615784,2.3910165282366758,-0.7550144469957694
0,-0.39725418396193324,-6.353333183683802,-1.2621707555206247,1.8509302087203303,-0.7500143513203028
0,-8.607683453931543,-8.663112046563388,-13.602914985321078,-4.189154120063886,-0.7450142556448327
0,-2.6481104029240976,-3.7928873243338646,-2.203657121019752,-3.4292364433719653,-0.7400141599693626
0,5.081464999001378,0.21734100339576434,9.275602863932924,9.210683253659148,-0.735014064293896
0,-5.428957217996523,0.40757295739636135,-4.065135003694845,-1.3193950141073107,-0.7300139686184259
0,1.1406229762985243,0.347808558564317,0.36412930275933664,3.930528767972792,-0.7250138729429594
0,4.300205612137705,2.108047827777378,4.29339580985924,4.010454614268068,-0.7200137772674893
0,16.059790719630797,8.908290785783896,20.682664543967057,8.710382538829109,-0.7150136815920192
0,11.929378328271985,11.708537452955976,23.071935530659548,8.490312555208234,-0.7100135859165526
0,26.428968466404484,9.518787848943953,6.041208794053846,3.270244676291857,-0.7050134902410825
0,-2.3314388391099596,12.029041992435317,-1.7095156432433574,-0.43982108565777145,-0.700013394565616
0,25.778156437136516,22.159299901003074,20.78976224038151,7.910115281205044,-0.6950132988901458
0,22.49775431915611,24.409561590789203,25.459042465655543,4.900053788388284,-0.6900132032146757
0,18.42735482925461,17.27982707607567,18.058325051821598,-5.060005552986916,-0.6850131075392092
0,23.57695798771062,23.690096369075196,17.397610016151063,-5.25006273201233,-0.6800130118637391
0,31.396563812659025,27.330369479896476,24.82689737393376,1.589882262354771,-0.6750129161882725
0,28.2361723198517,35.10064641633407,32.92618713842502,8.539829441351742,-0.6700128205128024
0,37.355783522292796,46.060927183367006,46.79547932035174,17.689778816001514,-0.6650127248373323
0,51.36539742982329,47.911211782469096,52.654773927068945,28.06973039640606,-0.6600126291618658
0,47.89501404849918,41.181500210992624,44.61407096171365,22.54968419098256,-0.6550125334863957
0,53.654633379925045,49.911792461898145,40.263370422829865,31.509640205899895,-0.6500124378109291
0,51.06425542086061,48.39208852368428,40.73267230453482,30.32959844475905,-0.645012342135459
0,38.46388016314917,45.6623883802755,41.971976596820824,25.75955890839505,-0.6400122464599889
0,33.543507594028526,36.932692011025466,41.051283285668255,27.29952159483682,-0.6350121507845223
0,15.863137696848982,32.32299939104142,33.06059235308637,21.50948649944647,-0.6300120551090522
0,23.39277045195817,31.553310491695783,28.419903777336238,20.9894536151244,-0.6250119594335857
0,21.93240583737078,26.52362528107295,24.359217533375794,26.1394229324944,-0.6200118637581156
0,11.87204382905023,17.533943724339853,23.148533593336374,16.519394439985867,-0.6150117680826455
0,14.871684401112196,23.45426578415987,21.767851926868428,26.059368123870655,-0.6100116724071789
0,9.931327526139823,13.644591421063517,10.837172501415807,7.829343968370207,-0.6050115767317088
0,10.370973175445897,4.43492059377676,7.156495282607883,5.039321955971376,-0.6000114810562422
0,-9.719378680648274,1.1752532597342893,-7.834179765120915,-2.0206979319703535,-0.5950113853807721
0,-19.67972807217531,-1.1444106242881071,-6.704852677761185,-5.77071571454863,-0.590011289705302
0,-3.3200750286269445,-3.7140711016984236,-11.265523491025508,-10.790731410747687,-0.5850111940298355
0,-28.430419578348385,-19.773728215706917,-26.4761922398,-21.300745038929556,-0.5800110983543654
0,-2.5107617483174955,-5.943382008850577,-11.106858957635106,-6.540756616350772,-0.5750110026788988
0,-5.1811015641798965,-15.723032522605624,-18.687523676414912,-13.28076615895244,-0.5700109070034287
0,-24.031439050505398,-8.762679797290945,-18.298186426337917,-16.97077368142474,-0.5650108113279622
0,-27.611774230685945,-22.482323872035696,-22.998847235902865,-25.770779197113935,-0.560010715652492
0,-15.252107126329363,-17.36196478457666,-17.449506131750887,-15.420782717661927,-0.555010619977022
0,-28.162437756875008,-19.30160257098019,-25.14016313854576,-14.110784252812962,-0.5500105243015554
0,-21.242766139572147,-17.321237265501672,-18.000818278920026,-16.390783810574476,-0.5450104286260853
0,-14.953092289492174,-7.510868900664519,-15.221471573493002,-2.130781397493053,-0.5400103329506187
0,-8.62341621973559,-15.160497507508545,-18.042123041026713,-7.62077701898174,-0.5350102372751486
0,-21.083737941830478,-11.090123115822763,-3.042772698677851,3.739229320273142,-0.5300101415996785
0,-4.30405746595507,-13.359745754202965,-0.10342056238920794,5.449237615890464,-0.525010045924212
0,-14.944374801022228,-17.909365449990513,-15.334066647364537,-3.2107521365621214,-0.5200099502487419
0,-2.5846899548407345,-11.608982229169435,-9.434710968189108,7.309260058273339,-0.5150098545732753
0,-25.295002934224378,-6.368596116355311,-6.655353538596829,5.099274195507393,-0.5100097588978052
0,-7.695313744839513,-9.068207135012075,-9.79599437138046,4.629290269876082,-0.5050096632223351
0,-16.155622390987425,-6.257815307719974,-14.58663347844012,8.65930827560568,-0.5000095675468685
0,-21.185928875536227,-5.397420656317271,-13.77727087065874,4.789328206344238,-0.49500947187139843
0,0.48376680009174317,-1.2670232020147387,0.03209344222708688,8.979350055108581,-0.4900093761959319
0,-3.6265353643015192,-0.6266229655837934,1.461459451390346,4.249373814257162,-0.48500928052046177
0,1.8331646317599046,-10.306219967501947,10.140827148328905,1.6593994755374926,-0.48000918484499167
0,-11.787133210971897,-18.455814227796864,-2.5498034756608106,-12.570572969670366,-0.4750090891695251
0,-4.947428891408539,-16.20540576554863,-12.250432429551841,-11.150543529830157,-0.470008993494055
0,-0.8277224079282682,-8.504994598461817,-14.181059722095142,-8.750512212688987,-0.46500889781858845
0,-15.388013758339563,-13.614580742847085,-16.351685361148903,-15.76047902498092,-0.46000880214311834
0,-12.468302939777221,-11.834164213793812,-11.14230935327417,-10.680443972323978,-0.45500870646764824
0,-15.888589948362755,-16.443745025199703,-25.42293170358751,-13.750407059134895,-0.4500086107921817
0,-18.788874778882246,-24.53332318959724,-25.75355241553888,-23.090368288528214,-0.4450085151167116
0,-7.9091574246377245,-8.812898717896045,-12.774171490573712,-10.860327662132153,-0.440008419441245
0,-9.579437877531383,-12.582471619345977,-9.834788928138465,-13.98028517998129,-0.4350083237657749
0,-5.989716128352329,-3.402041901850171,-3.8954047261677855,-10.380240840663788,-0.4300082280903048
0,-4.689992167058229,-7.801609572357787,-5.346018881641667,-5.030194641569234,-0.42500813241483826
0,1.6997340169965633,-7.0611746371007,-3.1466313909318475,-2.250146579164913,-0.42000803673936815
0,-4.430537565179622,-0.8307371016894289,-6.34724224994364,4.129903350632848,-0.4150079410639016
0,10.989193097549457,1.269703028746993,7.26214854579481,9.729955152016219,-0.4100078453884315
0,0.9889260161965177,11.310145749228939,8.241541000871814,13.820008828790337,-0.4050077497129614
0,12.028661201372074,0.5805910545151796,5.650935119547269,15.070064383890664,-0.40000765403749483
0,15.188398663025714,7.2810389388666925,18.980330905389156,20.77012181899153,-0.3950075583620247
0,-8.521861589742404,2.641489396046966,3.899728361028419,10.510181134251567,-0.39000746268655817
0,7.97788045147392,6.561942419366106,1.1791274881126006,11.430242328293316,-0.38500736701108806
0,5.877624794718007,4.962398001666708,6.218528287583847,9.060305398424745,-0.38000727133561796
0,-3.5626285522635346,0.9828561353164837,5.8679307599432615,3.630370340911835,-0.3750071756601514
0,5.227120417972918,1.9733168122899107,0.3373349052667104,5.490437151224693,-0.3700070799846813
0,-6.263128287279245,2.57378002430122,3.336740723229956,0.45050582427428804,-0.36500698430921474
0,5.2666253392538325,7.364245762830492,2.0061482132213557,1.7205763546058879,-0.36000688863374464
0,8.946381304786195,8.954714018976045,3.1555573743957708,9.530648736492735,-0.35500679295827453
0,7.726139616195641,10.295184783212004,10.084968205612226,11.700722963797705,-0.350006697282808
0,5.945900279718155,5.415658045206772,8.004380705252405,4.340799029679448,-0.34500660160733787
0,27.425663300746336,11.4961337937874,7.243794871000267,6.490876926480919,-0.3400065059318713
0,24.68542868339481,22.806612016859333,13.263210699726855,8.850956645832447,-0.3350064102564012
0,25.775196429825698,15.767092701062392,19.00262818734222,1.2010381787260715,-0.3300063145809311
0,32.814966539769216,29.89757583132418,26.282047328424493,11.991121515545437,-0.32500621890546455
0,18.314739010334044,27.848061390473156,12.981468115772083,7.9512066460343185,-0.32000612322999444
0,10.574513836142383,34.64854935883425,28.820890540187623,13.991293559135492,-0.3150060275545279
0,8.314291009883053,22.71903971390833,18.44031459043005,3.9713822428382772,-0.3100059318790578
0,36.384070522788996,32.45953243031988,26.429740253118812,9.331472684199964,-0.3050058362035877
0,35.353852364319096,33.880027479853766,25.279167512621505,6.891564869475629,-0.3000057405281211
0,45.67363652119749,45.75052483124064,37.568596350872156,19.3016587841106,-0.295005644852651
0,39.39342297656773,36.041024449711685,34.49802674700008,14.521754412489946,-0.29000554917718446
0,44.27321170959406,46.44152629664376,34.6274586769347,21.711851737582315,-0.28500545350171436
0,43.24300269533264,44.49203032937504,40.446892113186955,18.161950740675394,-0.28000535782624425
0,38.07279590470034,36.96253650108242,30.426327024764078,17.852051401241127,-0.2750052621507777
0,22.01259130465464,20.673044760940954,12.195763377327852,2.0821536970231516,-0.2700051664753076
0,15.732388858808637,16.293555054806987,11.805201133862814,2.8722576044714367,-0.26500507079984104
0,18.232188528286457,19.32406732609618,18.52464025552156,7.932363099295401,-0.26000497512437093
0,2.7719902724089214,12.994581516350893,15.564080701996435,7.14247015670364,-0.2550048794489008
0,1.3417940492376452,10.58509756550406,14.203522431477193,9.422578751301529,-0.25000478377343427
0,19.211599816043556,7.515615412140614,17.62296540060741,10.752688856927277,-0.24500468809796416
0,7.301407529358593,4.026134993817117,2.3924095645771857,8.17280044654149,-0.2400045924224976
0,12.241217144710062,9.936656247320192,5.34185487740125,12.652913492162686,-0.2350044967470275
0,14.301028616498355,3.797179108777022,6.021301292324177,17.2930279647783,-0.2300044010715574
0,6.270841897994508,-3.5922964862628994,2.360748762070223,8.333143834177964,-0.22500430539609084
0,-5.509343058514068,-2.4317706025528514,-3.9598027610366877,5.013261068927202,-0.22000420972062074
0,-0.16952630125621848,-4.601243304780403,-3.1703533248201357,5.043379636636925,-0.21500411404515418
0,-5.3197078784638725,-3.2807146573483017,3.4790970230020823,4.763499504274432,-0.21000401836968408
0,-10.279887838073854,-11.070184724262484,-3.681451765152784,-1.9863793616539556,-0.20500392269421397
0,-19.03006622742466,-20.349653568888883,-13.991999736717604,-3.2662569949004405,-0.20000382701874742
0,-11.240243092816963,-14.4691212534977,2.5474530612683233,-0.44613342920964616,-0.1950037313432773
0,-13.330418479219414,-13.948587838888692,0.4369065822812561,-4.406008698149416,-0.19000363566781076
0,-0.25059243033702705,-8.398053384379109,-1.2936392199357671,3.5641171649051193,-0.18500353999234065
0,-9.030764988937586,-13.817517948012178,-1.0641843915942975,-0.12575587331411375,-0.1800034443168741
0,3.1390638028144635,-4.046981586735568,8.915271021087207,8.96437215385179,-0.175003348641404
0,-11.891106096833145,-13.09644435652407,-7.735273028213081,-6.045498787174096,-0.17000325296593388
0,-3.2112747292159085,-15.675906312402955,-14.535816585830936,-11.99536873009578,-0.16500315729046733
0,-11.821442135105771,-19.515367508235535,-15.626359697580945,-19.0752377082044,-0.16000306161499722
0,-15.101608354508713,-9.104827996438518,-6.49690240819387,-17.92510575368747,-0.15500296593953067
0,-13.711773426395691,-9.09428782797728,-14.137444761182763,-17.844972897161007,-0.15000287026406056
0,-14.591937388456195,-11.243747052623883,-17.687986798903648,-8.394839167563935,-0.14500277458859046
0,-16.742100276982345,-16.893205719100862,-19.028528562395003,-17.064704592321394,-0.1400026789131239
0,-21.862262126765515,-19.352663874914086,-18.17907009109247,-14.894569197502381,-0.1350025832376538
0,-20.86242297088852,-19.67212156603235,-19.479611422657477,-14.644433007787827,-0.13000248756218724
0,-13.512582840548252,-20.92157883663059,-16.78015259294042,-11.124296046423078,-0.12500239188671713
0,-15.762741765119635,-21.951035728948373,-11.09069363604529,-0.08415833538095296,-0.12000229621124703
0,-27.492899772292027,-17.59049228322261,-7.36123458456281,-2.654019895761943,-0.11500220053578047
0,-13.803056887969532,-13.54994853774792,-14.251775469886134,0.6461192517568733,-0.11000210486031037
0,-10.983213136182533,-6.0494045291479654,-10.15231632235704,8.526259086597712,-0.10500200918484381
0,-13.433368539342554,0.2111397071571126,-10.582857171240114,6.536399587976982,-0.10000191350937371
0,-13.03352311855049,-11.658315863529525,-25.33339804462363,-3.053459265340905,-0.0950018178339036
0,-15.073676893654886,-13.297771275317348,-16.303938969160008,-8.293317494916506,-0.09000172215843705
0,-17.17382988316292,-15.807226561438235,-16.734479969757302,-5.993175122172055,-0.08500162648296694
0,-15.443982104120087,-14.346681753883816,-6.925021069597102,-8.283032167994701,-0.08000153080750039
0,-6.734133572080834,-4.676136883295213,-0.28556229052872806,-4.732888652603155,-0.07500143513203028
0,-6.384284301321969,-2.7255919791931493,-7.686103653587403,-8.602744595548936,-0.07000133945656017
0,8.435565694709464,13.674952929500858,3.2933548206403382,7.247399984193368,-0.06500124378109362
0,1.7854164028415784,15.295497813740402,4.372813111790043,-5.5824549320136025,-0.060001148105623514
0,-11.324732190183092,1.2560426436937118,-4.807728800511505,-13.442309362616959,-0.05500105243015696
0,-13.284880097498064,-4.513412611348713,-7.5782709366666365,-18.852163325539575,-0.050000956754686854
0,-6.555027331553657,-1.2228679824808752,-1.548813316835008,-11.362016837595444,-0.04500086107921675
0,-18.295173903779535,-10.12232350066438,-13.399355960689409,-23.06186991413048,-0.040000765403750194
0,-13.635319824445006,-19.02177919635114,-22.39989888717055,-32.02172256877772,-0.03500066972828009
0,-23.835465102433258,-25.011235098951012,-26.110442113939957,-29.451574812978112,-0.030000574052813533
0,-27.945609744892703,-13.080691236236092,-27.300985656704405,-17.43142665554788,-0.025000478377343427
0,-5.995753756942099,-2.6901476342051116,-9.541529528865535,-1.2812781028755913,-0.02000038270187332
0,-3.9558971418440905,-4.949604317558492,-4.872073741794944,5.288870840198152,-0.015000287026406767
0,-5.816039901686488,-8.23906131025698,-16.092618305474026,0.5290201693519097,-0.01000019135093666
0,-4.456182037926114,-13.228518635653916,-14.633163228827636,-2.4108301197907327,-0.0050000956754701065
0,-6.8563235515256,-12.247976316268295,-5.5537085196249425,-8.08068003163759,0.0
0,-1.0464644429455348,-1.8674343735955676,2.3757458154407667,2.189470429629055,0.0050000956754701065
0,-6.896604712183512,-3.356892828245172,-10.244800229661466,0.9296212601189077,0.01000019135093666
0,2.39325564114671,1.7736482996911858,-7.505346660529822,7.91977245600259,0.015000287026406767
0,14.263116617607059,6.194188990283469,4.6841065177415775,18.26992401310803,0.02000038270187332
0,8.162978217448742,4.444729223452272,9.273559300397745,16.720075926392173,0.025000478377343427
0,6.022840440149923,0.6752689787568077,21.36301168240146,14.340228189450164,0.030000574052813533
0,-4.687296715588671,3.2258082353958146,5.3124636577557425,-5.219619205542655,0.03500066972828009
0,-0.357433251457114,-1.2236530276732496,-7.4780847806550215,11.640533732601913,0.040000765403750194
0,7.212430830795369,5.166885168344036,1.45136635945698,11.940686994455792,0.04500086107921675
0,2.7422955293181457,-2.802577197905141,-3.239182929623834,5.65084056988044,0.050000956754686854
0,4.472160841939133,-10.232040147820987,-7.389732655390537,-1.5790055520785589,0.05500105243015696
0,-17.13797323379135,-21.82150370243773,-19.690282824909787,-16.118851382806774,0.060001148105623514
0,-4.278106700153611,-9.87096788178811,-7.260833444383786,-4.218696933425148,0.06500124378109362
0,-11.098239558755788,-21.820432704467713,-19.191384518801126,-11.328542214288479,0.07000133945656017
0,-23.39837181024694,-26.099898187427886,-30.001936051712818,-22.998387234781294,0.07500143513203028
0,-22.33850345395652,-19.329364345696227,-17.482488044832596,-18.958232002996464,0.08000153080750039
0,-24.808634487367588,-22.188831192149973,-26.513040497681768,-12.788076525346323,0.08500162648296694
0,-16.128764905807977,-16.01829873755361,-14.333593407561056,-7.4279208065653926,0.09000172215843705
0,-15.858894702523385,-16.117766990743455,-4.3241467698202545,-8.977764850083098,0.0950018178339036
0,-15.159023868951532,-16.58723595881901,-11.434700578357226,-3.337608658391655,0.10000191350937371
0,-5.449152395004865,-11.506705647292277,-9.105254826068524,-2.0874522333030265,0.10500200918484381
0,-8.349280269373983,-5.236176060266725,-1.9958095050064144,6.722704423765851,0.11000210486031037
0,3.770592520095261,6.684352799162996,1.9936353934513686,15.9428613113509,0.11500220053578047
0,-14.139534013917734,-13.645119071604755,-11.936920121685054,-0.19698157257470555,0.12000229621124703
0,-8.539659858239876,-6.35459167484732,-7.64747604103747,3.8831757692109865,0.12500239188671713
0,-16.86978499891099,-11.344065012250686,-20.88803235451369,0.713333333408232,0.13000248756218724
0,-10.799909420861505,-14.653539084611616,-7.198589050912134,-1.1165088835268238,0.1350025832376538
0,0.12996689215099733,-14.123013891632056,-0.8291461178280282,-0.06635088523021682,0.1400026789131239
0,-17.18015604267257,-14.072489431733674,-14.899703541927959,-8.566192675284256,0.14500277458859046
0,-15.950278207254577,-17.371965701948525,-12.380261309107663,-10.986034256970413,0.15000287026406056
0,-4.61039958241101,-9.211442697881866,3.3291805956269753,0.7141243670140596,0.15500296593953067
0,-2.9005201478273133,-7.190920413807592,-8.251377811940987,-2.735716805418254,0.16000306161499722
0,-6.330639882418851,-4.160398842954338,-6.841936515515395,6.604442223965435,0.16500315729046733
0,14.98924123527777,10.320122022080977,15.707504501567106,8.254601453335203,0.17000325296593388
0,-1.8008767732987412,2.7206421888162855,3.376945255997064,-6.3452391194787925,0.175003348641404
0,2.7590061129420977,4.371161664445258,-0.40361423597157714,5.234920503029866,0.1800034443168741
0,-0.49111008523453553,5.1316804556980165,4.7558260414313445,2.85508031821305,0.18500353999234065
0,-10.691225347133928,-8.917801431054425,-15.71473389620642,-9.584759676674905,0.19000363566781076
0,-13.391339651758331,-15.977283989437225,-23.745294032955034,-22.31459948420411,0.1950037313432773
0,-21.961452977263953,-18.926767212397024,-27.025854351680678,-26.61443910599008,0.20000382701874742
0,-10.571565300455928,-9.136251091594584,-8.476414833319321,-15.414278541876076,0.20500392269421397
0,9.348323403255325,4.424264382640215,24.733024542910798,6.325882210206803,0.21000401836968408
0,9.268213159176463,3.214779220741149,10.822463798235324,1.686043153509564,0.21500411404515418
0,6.568103992399675,3.235293433221129,16.45190295298308,3.806204291524575,0.22000420972062074
0,-1.502004072636884,-4.894192969626058,-1.21865797385514,-7.593634372422908,0.22500430539609084
0,2.227888988006776,-2.843679977593343,-3.9492189642506785,-7.613472834995811,0.2300044010715574
0,1.9777831980416358,-3.8631675803005763,0.5402199994955446,-4.4433110924697345,0.2350044967470275
0,0.6976785810424317,-9.052655767014791,-11.200341064788049,-9.32314914051546,0.2400045924224976
0,1.5475751604395103,-5.692144526508047,-3.350902138895827,-3.842986974159614,0.24500468809796416
0,10.167472959476619,0.08836615302762307,-0.25146320411917045,-0.5928245878365239,0.25000478377343427
0,-4.222627998910449,-0.8811237161440635,3.557975758627182,-1.3826619755625342,0.2550048794489008
0,-1.1327276920879326,-10.840614121482274,1.207414768492225,-9.02249913109452,0.26000497512437093
0,14.147173902415073,0.8698949498780164,2.6268538444779885,2.677663952103985,0.26500507079984104
0,-0.8229231931877632,-0.6595964887990703,-7.643706994561951,-3.002172719112394,0.2700051664753076
0,5.056981042843807,5.870911575968835,2.2457322702525246,3.467990862294507,0.2750052621507777
0,24.246886631671014,10.981419157523128,21.63517165782259,7.648154703330731,0.28000535782624425
0,20.586793593489695,14.80192626864375,21.984611186477387,9.228318810690132,0.28500545350171436
0,18.476701946876265,13.612432921127759,7.494050873165833,8.29848319044553,0.29000554917718446
0,22.536611708447985,19.982939125474537,15.413490733217452,8.378647847872909,0.295005644852651
0,11.306522892880114,12.493444890696617,7.49293078059925,-0.31118721252948023,0.3000057405281211
0,15.926435513077031,12.293950224275843,7.192371028173499,-0.35102198681677554,0.3050058362035877
0,7.1463495804382005,10.56445513230463,6.701811487891704,-2.1408564712664235,0.3100059318790578
0,4.396265105166539,1.3649596197343739,-5.418747828964782,-3.940690662110386,0.3150060275545279
0,7.786182096594109,-6.874536309235892,-13.289306911366397,-10.200524555333516,0.32000612322999444
0,-26.19389943640927,-12.774032650543894,-10.369865747905605,-7.760358146426987,0.32500621890546455
0,-21.35397948464102,-21.483529399532255,-19.04042432623137,-22.590191430074558,0.3300063145809311
0,-29.984058037455004,-13.833026550310244,-17.210982632686772,-17.310024399747384,0.3350064102564012
0,-16.904135082002462,-10.092524095451148,-10.39154065210519,-3.8498570473958686,0.3400065059318713
0,-5.7342106032121425,-16.672022026074703,-18.422098367798558,-8.999689363592896,0.34500660160733787
0,-15.294284584303005,-9.751520331999329,-7.292655761671457,-8.149521337941623,0.350006697282808
0,7.465642992636765,-0.7210190018619039,7.486787185535222,-0.9393529593136578,0.35500679295827453
0,-2.5244278538463303,-1.5105180234493762,5.306230493643055,1.33081578397413,0.36000688863374464
0,-2.604497104993743,4.239982615827565,4.835674182331582,4.330984903833934,0.36500698430921474
0,-3.834564741956689,9.44048292853009,7.975118270782515,12.251154412021842,0.3700070799846813
0,13.555369254235647,15.610982926779954,11.874562777559795,13.411324319728427,0.3750071756601514
0,30.27530490225835,9.361482621823397,15.614007720400947,5.1914946372256905,0.38000727133561796
0,15.32524221957088,8.351982023801934,3.933453115982737,-5.588334626121575,0.38500736701108806
0,0.48518122184269186,1.302481141865777,-2.1371010200092697,-7.08816346136037,0.39000746268655817
0,6.785121923311532,6.412979984466675,0.002345327566035338,-8.987991859314004,0.3950075583620247
0,-11.514935662456061,4.483478559564552,1.2817921737298812,-8.897819810169205,0.40000765403749483
0,0.9450084780287213,-0.5960231253027407,-0.7987604664959781,-7.567647303314988,0.4050077497129614
0,5.094954358452369,9.4044749370318,10.770687421831473,0.1325256726296835,0.4100078453884315
0,-4.965098007386995,7.4749727533344785,8.400135853339082,-2.2273008703961246,0.4150079410639016
0,15.304851394196993,3.975470329808739,5.909584842031205,-8.177126920114826,0.42000803673936815
0,3.0048025765509383,5.075967672032181,0.28903440120291624,-6.28695246388749,0.42500813241483826
0,12.58475555240352,-2.2335352149124814,-14.231515456257753,-10.116777488508797,0.4300082280903048
0,0.3347103337214913,1.9869616737725218,-4.26206471729563,-5.896601980048901,0.4350083237657749
0,-25.15533306800873,-4.492541657202969,6.19738663168724,-1.5864259238512424,0.440008419441245
0,3.2146253589555593,-1.6220452030581856,-2.793161395344428,-2.2462493047082113,0.4450085151167116
0,4.844585627082357,1.8984510411443205,6.656291215566038,0.9639278929005122,0.4500086107921817
0,13.234547749134755,2.9589470804346907,5.2757444781571285,4.244105684602213,0.45500870646764824
0,12.574511737375296,-0.6805570802276433,10.185198405764655,2.764284085933676,0.46000880214311834
0,-3.675522396838947,-3.200061435991365,3.274653011118651,2.8344631121810338,0.46500889781858845
0,-3.885554642848167,-4.079565981961375,3.2041083063085245,7.754642778305929,0.470008993494055
0,5.054415009817977,-4.61907071299956,5.2835643029146855,9.684823098823841,0.4750090891695251
0,12.594386571585742,-0.35857562362197587,2.2730210121146612,11.37500408757668,0.48000918484499167
0,9.924360052445868,0.9619192919455957,9.082478444685115,3.6451857575472486,0.48500928052046177
0,12.064335461515316,7.502414039558606,1.72193661094032,6.865368120889087,0.4900093761959319
0,13.264312806835612,7.61290862484554,7.051395520690088,10.915551189053225,0.49500947187139843
0,7.2342920953226635,5.773403052918922,2.9408551832561636,14.125734972729886,0.5000095675468685
0,-12.54572666704593,-8.48610267166455,-10.259684392402843,5.5659194816428466,0.5050096632223351
0,9.394256525294553,1.4843914554076942,2.6797768026154043,11.816104724486147,0.5100097588978052
0,-2.4157583221038186,0.27488543853351405,4.1592387773821615,6.896290709008957,0.5150098545732753
0,3.304228796268148,0.27537928221941166,4.4387015409751855,14.176477442053379,0.5200099502487419
0,22.3242178856394,-0.3341270090272105,2.65816510219292,-0.4233350704541998,0.525010045924212
0,1.3242089505675387,-3.1536334306970293,10.017629469428618,0.08685317666416834,0.5300101415996785
0,10.454201994633562,-0.08313997820027452,1.887094650588847,0.6970421882084841,0.5350102372751486
0,11.894197020479423,-1.0526466468165208,-2.2634393469084975,-0.22276803111609494,0.5400103329506187
0,-2.96580597007525,-1.1921534317109197,-3.2739725159006174,-9.102577476567983,0.5450104286260853
0,-22.475806975698685,-2.831660327942322,-7.114504849125189,-10.152386143132912,0.5500105243015554
0,-15.795805994659617,-12.311167330356353,-20.64503633885848,-21.822194025080982,0.555010619977022
0,-3.2058030240028326,-2.780674433342579,-2.995566976501627,-11.832001115486904,0.560010715652492
0,-2.425798059537938,1.4698183692934528,-2.7060967524195574,-3.2018074060167323,0.5650108113279622
0,-18.36579109626436,-6.069688915833337,-18.726625656141294,-6.021612887196056,0.5700109070034287
0,-11.885782128399816,-8.24919628182138,-6.087153676405887,-0.891417548862105,0.5750110026788988
0,14.154228850791716,5.401296278601647,17.08231919886088,5.298778619509096,0.5800110983543654
0,-12.885758151324827,2.051788773004785,7.341792981966559,3.6089756284881447,0.5850111940298355
0,-23.55574312704222,-3.027718791034597,0.04126768467837838,-8.080826511528109,0.590011289705302
0,-7.045726067839001,-14.567226405932756,-20.559256681759834,-14.660627790111969,0.5950113853807721
0,-35.92570696371485,-16.846734063620488,-30.05978010570432,-15.000428196211987,0.6000114810562422
0,-38.62568580265014,-13.696241754942099,-27.950302573903596,-8.070227717652916,0.6050115767317088
0,-13.89566256997298,-10.715749469354403,-23.900824070683054,7.359973658846763,0.6100116724071789
0,-13.795637248260352,-7.35525719500911,-8.371344577854886,7.50017594709355,0.6150117680826455
0,-3.3356098180652265,5.735235080913551,4.338135924681418,18.950379160614073,0.6200118637581156
0,-13.275580258701805,1.8357273716956626,2.3276174579648576,16.610583311968515,0.6250119594335857
0,4.794451451352488,1.2962196906018657,7.197100043125401,10.11078841233213,0.6300120551090522
0,29.484485333973357,17.096712050598963,18.536583700864806,14.590994471430436,0.6350121507845223
0,34.844521410275796,21.037204463982015,21.69606845095487,22.73120149760609,0.6400122464599889
0,30.81455969922533,7.127696941823634,7.015554311730871,10.931409497701656,0.645012342135459
0,38.524600216782545,10.228189493767758,17.275041299962922,11.901618476973564,0.6500124378109291
0,5.514642975782516,10.528682128268207,21.684529430972123,13.661828439263306,0.6550125334863957
0,5.504687986523047,4.169174852821957,18.794018718503136,14.552039387152043,0.6600126291618658
0,6.964735257797932,5.129667674116176,9.5435091745284,19.492251321892102,0.6650127248373323
0,-5.565215202304481,-3.1198394017392785,-1.3669991905228382,13.322464243243804,0.6700128205128024
0,8.714836613964225,2.8206536310717625,6.492493632834248,14.93267814940282,0.6750129161882725
0,16.554890714040475,6.441146778221035,5.001987653598397,17.302893037044377,0.6800130118637391
0,16.734947104629388,8.211640045114914,2.601482880369587,15.693108901340041,0.6850131075392092
0,-14.454994208665617,9.362133436618418,0.3009793213492614,10.633325735936536,0.6900132032146757
0,-8.814933220903841,5.252626956861864,1.660476984465683,9.083543533080956,0.6950132988901458
0,-20.944869926781724,4.12312060924179,2.039975877489173,8.08376228387488,0.700013394565616
0,-5.874804319879011,1.973614396572541,-2.5205239919286653,14.193981978449568,0.7050134902410825
0,-11.434736392493308,-5.86589167867973,-3.091022616171184,10.534202605945294,0.7100135859165526
0,-12.634666135790026,-11.74539761403863,-9.831519987456247,0.33442415447293006,0.7150136815920192
0,-18.024593539828526,-12.844903406522743,-21.332016097469314,-8.315353388593074,0.7200137772674893
0,-23.524518593309544,-2.4644090522628472,-4.862510936897069,2.7848699639509085,0.7250138729429594
0,13.465558716591863,2.146085453448383,0.03699550472892277,-0.3549058005238558,0.7300139686184259
0,4.985638403718126,-1.3434198842519152,-6.163496761329313,0.005319305459096535,0.735014064293896
0,5.975720481944704,-4.352925060107151,0.6960122765835874,-5.754454730591806,0.7400141599693626
0,-12.864195035287356,-15.92243006864637,-19.35447736952237,-18.824227920921945,0.7450142556448327
0,-11.414108134575653,-2.8119349038147354,5.6150343129240134,-9.384000277049456,0.7500143513203028
0,10.855981197987765,6.138560441169458,8.394547337033746,-4.273771809409167,0.7550144469957694
0,17.51607297663396,8.429055973403832,2.3440617159610806,-0.6235425274933497,0.7600145426712395
0,-2.563832784857003,21.52955169959103,13.373577462396637,-1.89331244026733,0.765014638346706
0,13.796263926437925,23.03004762532887,22.393094588244452,1.0069184435279253,0.7700147340221761
0,14.066363122621954,9.45054375456773,11.422613104196843,-2.8328498847466776,0.7750148296976462
0,23.296464814765287,8.70104008955802,9.682133019451442,3.6473825663310446,0.7800149253731128
0,-0.9934309874575817,2.161536631288163,-4.188345658048484,-4.1223842117914415,0.7850150210485829
0,6.046675724339185,11.232033379936984,13.521177078891794,-1.3221502276271928,0.790015116724053
0,10.316784957712752,0.4525303350585678,3.400701236964313,5.028084510390064,0.795015212399516
0,-2.9231032803502344,1.3530274956724415,1.3502268223199954,5.848319993796252,0.8000153080749861
0,-7.472988983265973,1.2535248604540123,2.529753840632646,5.7085562138226065,0.8050154037504562
0,1.84712785554071,4.674022427890826,15.569282297205604,2.978793161215634,0.8100154994259263
0,10.047247242818559,4.704520196246421,4.808812196788209,-1.1409691737251173,0.8150155951013964
0,-10.332630814732754,-2.514981836524214,-11.761656456554647,-17.020730800851798,0.8200156907768594
0,-11.652506310456607,-10.434483672635004,-7.022123658999359,-20.820491729541974,0.8250157864523295
0,-0.1923792372907708,-7.133985314052822,-1.0425894063269419,-17.550251967927018,0.8300158821277996
0,24.167750412300684,10.176513237780163,10.106946306159463,7.719988477423686,0.8350159778032697
0,12.697882645541647,6.907011981662535,5.636483483156039,4.100229600979949,0.8400160734787399
0,17.348017468434083,7.677510916043129,0.6160221289177708,7.680471397336358,0.8450161691542029
0,-8.611845114441172,-4.591989961244497,-2.7644377527444095,-0.26928613932813295,0.850016264829673
0,-2.6917050993679124,2.92850934721615,3.815103841802609,-7.449043015210148,0.8550163605051431
0,-4.381562482721873,-0.5209911612878966,-3.865353083824698,-18.21879923641696,0.8600164561806132
0,-11.111417260502865,1.1395085104950122,0.6641914740034865,-19.018554808263456,0.8650165518560833
0,3.8087305718152007,5.350008359730836,6.7737375189255875,-11.968309734680686,0.8700166475315463
0,-22.361118980669545,-3.849491616567337,-3.456714945518115,-9.428064018066738,0.8750167432070164
0,5.54903408781034,2.4410085784720272,-1.5971659159336897,-0.33781765957644105,0.8800168388824865
0,-1.3808102163132543,-1.218491058327833,-1.0576153889232467,6.422429340354898,0.8850169345579566
0,0.03934811374426199,-2.1479905301292628,-6.118063360925603,4.782676981422519,0.8900170302334267
0,-6.700490915141967,-15.587489839938414,-14.328509828045204,-3.5470747369424274,0.8950171259088897
0,-1.7703272959237304,-4.966988990258769,-6.798954785735887,-7.486825815506373,0.9000172215843598
0,-13.840161021173653,-7.506487982798077,-10.859398228542062,-9.986576254818146,0.9050173172598299
0,-25.599992082743942,-10.665986818441906,-14.019840150022986,-15.91632605475643,0.9100174129353
0,-8.339820471222781,-3.5854854973044388,-7.860280542700442,-6.426075214203276,0.9150175086107701
0,-5.399646175679902,-9.504984018751756,-0.3907193980830934,-5.615823730980932,0.9200176042862331
0,-15.769469183944931,-11.524482381412462,-13.441156706894438,-12.94557160201307,0.9250176999617032
0,1.4907105170836816,-2.1639805831211865,-4.501592459211334,-4.135318823422983,0.9300177956371734
0,-4.609107058742273,-5.253478620953976,-7.042026644411026,-3.8550653905622596,0.9350178913126435
0,2.9810781028849584,-4.122976491416251,1.4675407487871261,0.18518870181034258,0.9400179869881136
0,-10.128733983509214,-10.852474190532137,0.4371097320732197,-13.004556540667394,0.9450180826635766
0,11.111456696773422,-4.141971713744756,-6.063319682690554,-13.354301111848818,0.9500181783390467
0,1.6616501584766645,-12.58146905579038,-12.243747483429106,-15.574045004672374,0.9550182740145168
0,19.281846416008086,-4.320966210632685,-15.374173657473658,-12.073788210820492,0.9600183696899869
0,12.482045482960698,1.2595368284891595,-1.2845981911801032,5.786469279256442,0.965018465365457
0,-7.127752628145667,-11.9499599311325,-6.20502106993994,1.326727475859964,0.97001856104092
0,-8.377547905502446,-5.819456481743159,-3.2454422784768266,7.276986389393455,0.9750186567163901
0,0.6626596627380875,3.041047184967075,13.704138198832064,9.39724602990973,0.9800187523918602
0,5.192870088780006,4.381551077703537,0.523720377550823,7.9075064068509135,0.9850188480673303
0,14.673083384833904,-3.4279447948112876,0.9233042728405232,-2.32223247104796,0.9900189437428004
0,15.17329956250664,7.5925595759838265,17.05288989940334,-0.2219705955553226,0.9950190394182634
0,15.013518632277021,3.6130641984433995,5.042477271365347,-2.511707958583823,1.0000191350937335
0,8.75374060326222,-1.5364309193777217,7.082066402038425,-0.9914445519634848,1.0050192307692036
0,-2.5260345166256815,1.624074230307356,4.011657303932771,-6.321180367349221,1.0100193264446737
0,1.6941932797982886,-6.345420344793802,-14.418750010938131,-14.140915396057988,1.0150194221201438
0,-3.6955760005112275,-6.894914636820993,-5.729155530522985,-10.770649628725652,1.0200195177956068
0,-14.205342350477126,-12.574408637467604,-16.879559242143102,-17.080383054945727,1.025019613471077
0,-31.445105762375857,-10.373902337661631,-17.64996113206463,-20.81011566299344,1.030019709146547
0,-14.89486622702837,-10.623395727347654,-22.760361185141836,-18.679847439550127,1.0350198048220172
0,-11.624623733306107,-12.192888795410262,-9.050759384529776,-15.469578369507262,1.0400199004974873
0,-24.06437826825315,-17.84238152961117,-24.941155711645298,-21.96930843595188,1.0450199961729503
0,-11.004129817283184,-1.9918739164984236,-7.321550146263449,-7.029037620247068,1.0500200918484204
0,-13.673878364204496,-10.541365941493703,-4.811942666678997,-5.228765902259945,1.0550201875238905
0,10.556376108500942,3.7491424107965132,6.0776667498214465,6.0015067391190815,1.0600202831993606
0,3.1166336189894,5.169651156185356,1.9372781262975596,7.381780325304568,1.0650203788748307
0,7.876894185308011,8.620160310438838,8.856891485648902,9.792054877422952,1.0700204745502937
0,12.607157824947642,22.98066988875798,29.106506850191703,9.862330415917164,1.0750205702257638
0,26.087424554505127,20.68117990519429,24.706124240975267,11.932606960345105,1.080020665901234
0,19.657694389151217,14.801690372124606,17.99574367704712,8.802884529274566,1.085020761576704
0,6.137967342232531,15.602201300102804,10.995365175284162,5.943163140288889,1.0900208572521741
0,22.248243425380586,8.992712698063972,10.984988750793079,9.093442810098429,1.0950209529276371
0,8.038522648775132,6.913224573625851,9.574614417363708,12.623723554611285,1.1000210486031072
0,1.6388050213072567,-4.956263066530943,-0.005757812224953418,-2.365994611088259,1.1050211442785773
0,-10.670909448979087,-9.75575021611174,-8.126127925829449,-6.925711672534259,1.1100212399540474
0,10.369379245765725,-1.3552368686183136,-9.186495911351392,-1.165427615362172,1.1150213356295176
0,-3.4603288865394006,-14.264723016997797,-4.5368617562032645,-12.545142424868354,1.1200214313049806
0,-5.660033837985273,-12.844208653453872,-6.907225447111313,-14.684856085729157,1.1250215269804507
0,-4.969735600556996,-5.313693769232511,-3.7675869701708047,-6.8945685816914555,1.1300216226559208
0,16.46056583401097,-1.773178354613955,6.492053688992653,-2.3042798954725248,1.1350217183313909
0,9.840870473862314,5.047337600727471,7.691696544882362,1.586009990943292,1.140021814006861
0,6.491178326416149,3.907854107242951,2.321341611697622,4.236301095848953,1.145021909682324
0,10.801489398138093,-1.751628824809445,0.5109889031610265,-8.493406562474505,1.150022005357794
0,9.121803694597382,5.288888814584063,24.790638432520765,7.446887034236996,1.1550221010332642
0,1.532121220519691,-9.300592964697291,0.6502902122945798,-1.922818095725855,1.1600221967087343
0,0.052441979958198964,-3.5200741527003028,-1.8100557459356141,10.907478065818552,1.1650222923842044
0,-0.5372340233776524,-3.939554739140329,-9.420399431118135,5.987775536688805,1.1700223880596674
0,10.383093214078375,-1.249034713306818,-3.3307408320517387,14.088074334076186,1.1750224837351375
0,-1.406576304343526,-0.7185140641677936,-2.211079937055942,11.838374474283416,1.1800225794106076
0,-8.736242575592229,-2.7879927804940134,-3.551416734013918,8.538675972546473,1.1850226750860777
0,-1.3059055965939472,2.7425291490757773,6.558248789457737,12.228978843006967,1.1900227707615478
0,-5.845565363917767,10.133051735901176,5.467916645753484,15.739283098726364,1.1950228664370108
0,3.304778126259141,7.2235749910233436,14.027586846909244,11.679588751585806,1.200022962112481
0,11.495124877907271,20.584098924762042,31.307259404090676,25.859895812099122,1.205023057787951
0,10.185474894684939,14.914623546317666,15.25693432692334,12.140204289192667,1.2100231534634212
0,-7.564171820416728,6.155148863500391,2.9266116231242933,1.550514190162773,1.2150232491388913
0,-19.833815264773136,-9.064325117064305,-16.663708700963497,-15.839174478780128,1.2200233448143543
0,-30.48345543513269,-23.053798389103278,-32.794026639061606,-22.458861711412954,1.2250234404898244
0,-16.01309232655896,-20.603270945566187,-15.404342183554494,-9.378547500441158,1.2300235361652945
0,-8.702725932027667,-22.802742777736334,-28.084655324694157,-10.478231837081301,1.2350236318407646
0,-23.31235624271417,-17.902213874864124,-22.22496605045079,-12.09791471123603,1.2400237275162347
0,-4.3019832483060805,-12.2616842242139,-19.94527434653138,-9.117596111710053,1.2450238231916977
0,-8.891606937171137,-10.771153811351287,-13.465580196485789,-7.477276026284709,1.2500239188671678
0,-16.001227296585157,-13.510622620474638,-21.295883581964993,-10.206954441807198,1.255024014542638
0,-8.820844312808678,-5.720090634617391,-6.90618448294734,-5.766631344271487,1.260024110218108
0,-7.8804579710132545,2.2904421641427803,-1.8164828780033364,6.1436932810412275,1.2650242058935781
0,4.949931744557788,8.590975794223603,20.08322125507033,9.144019449149964,1.2700243015690411
0,23.24032484999926,16.741510273869775,16.842927938249396,9.31434717477243,1.2750243972445112
0,12.20072136083055,21.742045620451055,16.192637192354514,14.494676471862004,1.2800244929199813
0,44.5711212910812,24.912581849821304,22.71234903657928,14.385007353331778,1.2850245885954514
0,25.48152465249796,21.933118975840046,31.48206348824959,15.065339830841104,1.2900246842709215
0,18.641931454027265,17.63365701018379,11.00178056253084,3.755673914723419,1.2950247799463845
0,36.18234170185067,23.964195962413704,19.26150027240114,5.296009614200902,1.3000248756218546
0,22.802755399556865,29.264735839998966,29.561222628883247,9.066346937718826,1.3050249712973248
0,42.11317254799231,43.325276647994215,28.97094764094053,16.706685893024318,1.3100250669727949
0,34.79359314493777,57.54581838828879,47.2806753149267,22.277026486837812,1.315025162648265
0,43.384017184750135,63.36636105854357,47.50040565385951,30.457368724289584,1.320025258323728
0,41.05444465804276,59.39690465117933,50.830138656678564,29.92771260830986,1.325025353999198
0,57.08487555139507,68.11744915277615,57.36987431767283,36.218058139122306,1.3300254496746682
0,55.775309846886714,63.42799454380585,56.59961262608833,31.74840531390547,1.3350255453501383
0,44.80574752161898,47.27854079858691,44.15935356590176,22.588754126689718,1.3400256410256084
0,41.68618854766987,35.98908788573079,46.039097115959564,30.599104568545194,1.3450257367010714
0,43.78663289249318,37.21963576905892,40.41884325040036,29.40945662779907,1.3500258323765415
0,30.087080519340297,30.00018440845198,30.918591939088834,23.749810290055905,1.3550259280520116
0,48.92753138754384,17.480733760429708,32.938343148069166,16.68016553828444,1.3600260237274817
0,11.91798545275399,10.111283778803127,9.878096840129281,6.750522353235682,1.3650261194029518
0,-1.811557332445477,8.341834415490512,3.3978529755945623,4.200880714103851,1.3700262150784148
0,5.158902982732924,14.232385621142745,8.537611513303606,6.421240599144756,1.375026310753885
0,-2.8106336515547685,9.112937345351467,7.547372411276212,-1.9983980139500317,1.380026406429355
0,3.229832714679999,5.493489536667839,-0.5428643731025526,-5.138035147786169,1.3850265021048251
0,-7.689697968618871,2.5740421427640205,2.5469011170445577,2.7223291750294973,1.3900265977802952
0,-1.2592257513919884,5.5445951107056946,13.266668838237212,6.732694931980464,1.3950266934557582
0,0.9412493166627034,0.6851483871365713,16.836438746443466,1.373062100415598,1.4000267891312284
0,-7.72827281391417,-7.7342980815679585,3.2862107966578744,-10.156569342568392,1.4050268848066985
0,-22.277792192214914,-11.983744348946987,-20.2440150570353,-21.536199419727062,1.4100269804821686
0,-14.287308866435545,-8.003190467966755,-19.014238860554084,-13.395828152913897,1.4150270761576387
0,-10.206822883366156,-11.022636490709935,-11.874460658723844,-16.005455562532664,1.4200271718331017
0,-34.16633428822778,-27.452082468192277,-38.70468049467794,-27.465081667354497,1.4250272675085718
0,-18.185843124443323,-20.211528449967492,-27.22489840942091,-13.794706484356315,1.4300273631840419
0,-32.96534943320795,-26.790974483613684,-27.475114441309035,-19.404330028585626,1.435027458859512
0,-27.344853253189612,-22.370420614446857,-20.0153286258975,-21.913952313213855,1.440027554534982
0,-16.514354620433817,-22.98986688546014,-26.675540996189856,-26.283573349507094,1.445027650210445
0,-12.963853568593617,-22.189313337358783,-23.445751582831587,-28.73319314655949,1.4500277458859152
0,-18.323350129424462,-26.588760008598946,-31.16596041407778,-24.46281171100471,1.4550278415613853
0,-21.58284433306207,-23.218206935340607,-26.56616751563544,-17.5924290469503,1.4600279372368554
0,-35.4423362078152,-26.377654151366162,-30.296372910507877,-9.222045156265551,1.4650280329123255
0,-17.571825779709524,-24.947101688033552,-18.626576618975985,0.728339960812908,1.4700281285877885
0,-27.411313072242642,-25.97654957424398,-17.35677865881666,-2.781273695037703,1.4750282242632586
0,-16.350798106510837,-17.905997836461808,-15.47697904571056,-5.950886122731004,1.4800283199387287
0,-13.330280901484361,-17.785446498890455,-20.257177793566765,-7.9104973208480995,1.4850284156141988
0,-10.039761474376565,-10.314895583798823,3.542625085279574,3.1698927124847556,1.490028511289669
0,6.910760158853288,-3.164345111941129,6.742429579588471,13.91028397942896,1.495028606965132
0,16.21128398277034,0.9162048969183664,15.732235678318407,17.740676481814013,1.500028702640602
0,11.151809981550153,5.606754423434642,12.11204336976069,20.08107022037666,1.5050287983160722
0,22.722338138259275,4.407303448204746,17.491852641046076,19.88146519423785,1.5100288939915423
0,-9.977131565372888,3.0678519514928126,-0.3183365219867549,12.851861400705657,1.5150289896670124
0,-13.016599148494967,-8.111600086766229,-9.13852413446439,-0.5977411645441552,1.5200290853424754
0,-37.23606462996863,-12.761052686615065,-22.388710211642525,-5.637342506862546,1.5250291810179455
0,-29.715528026987712,-22.74050586745303,-17.158894767892967,-17.586942631769208,1.5300292766934156
0,-24.84498935413325,-24.539959647330743,-20.589077816001446,-10.926541544145586,1.5350293723688857
0,-22.054448623175897,-24.349414042362515,-27.709259366855807,-7.876139247776967,1.5400294680443487
0,-26.64390584332782,-23.108869066401024,-13.779439429279343,-11.0857357453267,1.5450295637198188
0,-22.553361021425072,-26.18832473095096,-19.459618010023195,-9.415331038470324,1.550029659395289
0,-1.8628141620803806,-11.607781045222728,-5.109795114029801,-1.6449251279808532,1.555029755070759
0,-0.5922652682516005,-0.017238016475579016,6.34002925505953,3.355481986049856,1.5600298507462291
0,-3.881714342078104,-7.096695650723236,4.7698550941640026,-2.2641096961801606,1.5650299464216921
0,4.058838614574002,-10.626153953298985,-9.760317599842784,-9.443700174386224,1.5700300420971622
0,-11.47060640002203,-10.875612928880955,-16.050488830048806,-12.493289447966545,1.5750301377726323
0,-18.86004938724903,-2.8450725813039233,-1.8706585989384625,-11.082877515568054,1.5800302334481025
0,-21.839490347554378,-12.424532913558181,-16.200826908056552,-17.282464374761375,1.5850303291235726
0,-12.898929279830986,-11.213993927830243,-14.800993757945228,-9.032050021876056,1.5900304247990356
0,-9.188366181275086,-17.523455625337167,-16.45115914795018,-14.601634451955503,1.5950305204745057
0,-18.577801047627993,-17.642918006032318,-25.851323075913104,-9.671217658808855,1.6000306161499758
0,-15.647233873300502,-19.182381068334067,-15.021485537894486,-12.44079963507705,1.6050307118254459
0,-5.2466646513106365,-7.131844809010596,-14.89164652806381,-7.07038037229033,1.610030807500916
0,6.123906626495728,1.658690776570577,0.9881939610451438,-4.279959861002537,1.615030903176379
0,-15.015520031100568,1.7592256938258615,-8.661964062005527,-4.909538091012864,1.620030998851849
0,-20.52494461482774,-7.460240051595884,-7.2921205879804525,-14.43911505150832,1.6250310945273192
0,-0.12436711448279919,-1.2697064539178213,-4.612275607056365,-10.708690730933514,1.6300311902027893
0,-0.3437875187792735,8.180826492837866,-2.672429108809027,0.31173488319984455,1.6350312858782594
0,3.3967941841523817,10.481358794603393,-0.1425810823503534,6.392161804105746,1.6400313815537224
0,4.397378006213666,4.091890456807775,2.5572684834506534,9.95259004511967,1.6450314772291925
0,-3.0220360408983087,5.1024214841753475,6.547119599720933,13.583019619075063,1.6500315729046626
0,-4.001447945629536,-4.107048119123261,-4.993027722615272,-1.6065494620357275,1.6550316685801327
0,7.609142303608261,9.763481650773235,-0.8231734728077109,6.183882813003478,1.6600317642556028
0,15.169734718317192,3.564010797467287,1.416682359912432,0.8943164549196401,1.6650318599310658
0,34.56032930925927,8.154539324137618,8.966539786337364,6.514751474109869,1.670031955606536
0,-7.6090739143145845,19.305067233303483,21.07639881691031,18.945187880522738,1.675032051282006
0,6.4315250553139665,9.16559452651457,23.116259461064523,19.29562568323077,1.6800321469574762
0,4.512126225023844,6.846121204129696,21.20612172654391,15.886064889884395,1.6850322426329463
0,18.902729601208744,19.296647265369124,22.615985619025725,25.616505506384804,1.6900323383084093
0,3.1633351895072366,-1.312827291599516,14.045851142085684,7.516947536798597,1.6950324339838794
0,-5.346057005325487,1.4876975304869906,7.525718297427538,4.587390983540335,1.7000325296593495
0,18.61455302087925,-6.181778271570963,-8.24441291456995,-1.7821641520707212,1.7050326253348196
0,31.635165271647047,-1.051254700955129,0.8654575059123688,3.7982821307982046,1.7100327210102897
0,13.56577974908096,-7.670731760577426,-6.314670441257073,2.358729832781236,1.7150328166857527
0,-4.973603546590948,-2.910209452966159,-2.6347967559162124,4.079178954306087,1.7200329123612228
0,-4.842984616370126,-3.2896877802144973,-0.1449214375781343,2.339629495519641,1.725033008036693
0,18.42763653840612,7.500833255917803,10.09495551443094,17.090081456177945,1.730033103712163
0,7.1382599161244125,10.581353653662141,9.984834100585665,14.310534835334606,1.7350331993876331
0,2.8188855144547387,3.731873410792793,15.10471432067638,4.8109896309594555,1.7400332950630961
0,0.4195133303167126,2.352392524430283,2.3545961735023577,1.2814458399439375,1.7450333907385662
0,9.430143360172597,-2.9470890087844777,-5.145520343020123,-4.54809654145225,1.7500334864140363
0,4.450775600101069,3.883428807596926,-3.4456352313430165,1.6823624828803232,1.7550335820895064
0,15.441410045606084,5.553945969921556,11.004251506137368,8.742822909062681,1.7600336777649765
0,9.882046691360673,-2.645537525666374,6.094139866956265,-1.4667152669474754,1.7650337734404395
0,0.3126855310657516,-4.935021683208577,2.744029848197012,-2.3262520494742707,1.7700338691159097
0,2.653326557634691,3.195493493292501,-9.236078553536673,-3.0657874429366427,1.7750339647913798
0,-19.076030236314843,-0.643992000028989,-11.686185341661526,-11.355321451542194,1.7800340604668499
0,-3.00538485784638,-4.563478166975843,-12.956290518996385,-11.454854078974655,1.78503415614232
0,-3.0047373133013853,-1.0829650112572615,-7.106394087367039,-21.93438532800164,1.790034251817783
0,24.385912391461186,-3.982452536368889,-6.5364960475716245,-19.713915200023077,1.795034347493253
0,-3.4734357496911157,-6.651940745514551,-9.106596399548591,-21.643443694677707,1.8000344431687232
0,-4.162781743580097,-3.8514296415129228,-6.956695142479769,-6.672970809712003,1.8050345388441933
0,-23.982125597228958,-9.250919226685653,-6.1367922748067105,-9.752496541246963,1.8100346345196634
0,-10.161467316927084,-4.1204095027776395,-10.666887794240456,-3.5820208842535153,1.8150347301951264
0,-25.130806907563986,-6.78990047091934,-24.446981697633912,-12.48154383288809,1.8200348258705965
0,-14.500144372349347,-4.689392131648487,-13.347073980582293,-8.56106538054328,1.8250349215460666
0,5.770520287137215,-3.0688844849648675,-8.127164637116326,-6.740585519758382,1.8300350172215367
0,-9.708812929562342,-6.68837753039152,-12.837253659842732,-9.38010424221373,1.8350351128970068
0,21.081855977497764,0.17212873297839276,-1.527341040275198,-0.6296215388263452,1.8400352085724698
0,-19.60747299182843,-5.107365693574104,4.882573230827322,-3.6891373999168895,1.84503530424794
0,-7.526799837732645,-5.1568608084368,-2.9075108369763716,-11.768651815351761,1.85003539992341
0,-5.896124559924589,-5.6263566096146675,-4.867593234090908,-9.418164774446552,1.8550354955988801
0,-3.8354471573236686,-2.5058530946484847,4.122326049169308,-1.8176762657527157,1.8600355912743503
0,19.025232371646116,3.1546497393247632,-2.5977529773754293,4.142813722850991,1.8650356869498133
0,-11.604085971501618,-1.6248481046386953,6.282169696105321,7.1133052037080935,1.8700357826252834
0,-16.003402185439715,-1.0343466234571645,-3.337905920666284,8.353798188888964,1.8750358783007535
0,-24.352716268318396,-3.373845814004574,3.322020181902036,6.284292689872436,1.8800359739762236
0,-25.67202821678812,-8.243345672965322,-4.71805198666555,-3.565211282498121,1.8850360696516937
0,10.418661974413881,-2.9928461966459556,1.9418775831804713,-2.9747137177495246,1.8900361653271567
0,-13.56064568799388,-3.3623473808701396,-2.928191098928768,1.0057853945827016,1.8950362610026268
0,13.680048803347262,6.398150778911782,1.3217419767258154,6.496286065057118,1.900036356678097
0,16.490745455760212,6.39864828730084,3.1916768198989915,10.156788304069595,1.905036452353567
0,17.37144427582805,8.389145148557418,10.341613440216905,14.00729212143946,1.910036548029037
0,25.742145268701183,15.03964136627705,27.441551846755893,20.85779752598239,1.9150366437045
0,15.882848437686333,10.530136943123505,9.351492047402633,6.878304525166324,1.9200367393799702
0,7.733553784192552,6.430631880672578,4.781434048514793,5.518813125092772,1.9250368350554403
0,-0.31573869186909687,-0.6688738204545117,4.611377855230757,-6.400676669076516,1.9300369307309104
0,-3.2750289913871886,-3.2383801601835707,3.221323471989258,-3.380164852499586,1.9350370264063805
0,-7.844317115395826,1.3721128614339793,-9.228729097135966,-4.3096514201681515,1.9400371220818435
0,-14.653603064568813,1.4826052443996653,1.3412201518863713,-5.579136366689267,1.9450372177573136
0,-14.922886838763665,0.6830969887073867,-2.458828776699172,5.551380313710476,1.9500373134327837
0,-15.312168436634797,-1.5764119057232977,-2.5788758784163344,6.011898626962323,1.9550374091082539
0,-25.531447855359627,-5.715921438969799,-9.508921148555261,-0.11758142118896932,1.960037504783724
0,21.459274909388824,-2.995431610919745,-12.258964581953393,-2.8870598252986293,1.965037600459187
0,-18.38000013707839,-5.4149424211118795,-6.759006172683986,-7.406536579983245,1.970037696134657
0,-10.809272989003874,-8.38445386864357,-4.819045913930678,-8.106011679557028,1.9750377918101272
0,4.551456359907618,-10.273965952040626,-6.299083798118821,-11.65548511772491,1.9800378874855973
0,20.36218791642989,-5.983478669085134,-17.209119816999696,-6.004956887377142,1.9850379831610674
0,-7.997078312902398,-6.772992016760212,-12.039153961443862,3.4555730193890093,1.9900380788365304
0,-6.906342322106183,-4.9725059913337875,-0.5891862212138854,2.4261046109309383,1.9950381745120005
0,-8.235604105211662,-2.152020588483901,-1.7692165851491235,3.166637895617616,2.0000382701874706
0,0.515136344271198,8.978464196492292,5.600754958337812,9.057172881550272,2.0050383658629407
0,4.75587903330881,12.288948368244606,8.150728420802226,8.517709576361508,2.010038461538411
0,6.876623968933475,6.9394319308366486,6.430703813403298,6.308247987015246,2.015038557213874
0,12.187371157800548,2.3299148874939304,4.210681146694004,5.218788119739573,2.020038652889344
0,-6.201879394065118,-2.5496027592063775,13.99066043057291,8.179329980092056,2.025038748564814
0,-2.971127681109804,10.360878992983,8.58064167418508,9.869873572975832,2.030038844240284
0,2.2996263021654078,3.8613601460274136,-4.53937511415773,8.650418902535106,2.0350389399157542
0,9.390382561332036,10.251840701405389,13.610610073202986,16.030965972016155,2.0400390355912172
0,12.08114110168557,10.442320659904311,11.260597243398914,10.721514783602437,2.0450391312666873
0,2.041901927833468,1.112800021519108,0.11058640284619317,1.3820653383513044,2.0500392269421575
0,-1.1973349563421198,2.3732787855481168,-5.469422442722055,0.23261763645158925,2.0550393226176276
0,7.983430452594243,7.993756950826252,14.1405707121123,1.2131716776681218,2.0600394182930977
0,-10.54580184213134,-2.1857654841703846,-0.3994341274452317,-5.866272538333586,2.0650395139685607
0,-5.205031837278701,1.5147114787217306,-6.95943695652138,-0.7657150117999209,2.0700396096440308
0,10.645740470651786,7.535187837453867,1.3805622296212066,6.66484425718334,2.075039705319501
0,8.316515085248668,9.805663589683686,8.030563435816147,9.625405268474395,2.080039800994971
0,15.807292009603527,9.306138732474176,14.660566666732766,8.575968021455086,2.085039896670441
0,9.368071245834862,2.326613262097015,8.340571926349021,3.9665325147652064,2.090039992345904
0,4.008852794963828,0.22708717414106735,6.1205792176619225,1.8370987463484925,2.095040088021374
0,-4.030363342839577,0.40756046381587324,-3.4494114571695658,-10.472333286245044,2.1000401836968443
0,-18.38957716766588,-10.081966873739317,-14.669400096328967,-17.11176358532191,2.1050402793723144
0,-28.9987886789886,-25.591494843018257,-21.119386697588062,-26.491192152296225,2.1100403750477845
0,-10.58799787476524,-5.521023447501114,-5.2093712575899795,-0.6806189870652302,2.1150404707232475
0,-2.297204751149708,-5.460552689322156,-10.019353771640205,4.219955911913746,2.1200405663987176
0,-5.856409302999468,-4.700082569568411,-5.369334233973968,6.9205325468129795,2.1250406620741877
0,14.084388475403136,-1.15961308871511,1.9906873619140533,11.541110919589034,2.130040757749658
0,-1.7548114102219798,-7.569144246824946,-2.2192889770342576,2.1716910315519926,2.135040853425128
0,5.22599104549764,-12.148676043512463,-0.8392632436990246,-1.0777271166485023,2.140040949100591
0,-2.0132041524233166,-1.1882084777556863,13.380764569044807,13.872856475175048,2.145041044776061
0,-8.582396999103011,-1.5477415478592207,-0.3392055319302135,6.113441806752581,2.150041140451531
0,3.058412510487661,-8.427275251653269,-7.099173540153566,1.7340288771598873,2.1550412361270013
0,8.139224381584983,5.063190413365968,11.220860550640445,15.064617684784576,2.1600413318024714
0,-0.9499613806582851,6.66365544989078,5.310896746598181,5.795208227315288,2.1650414274779344
0,4.4408552285878145,6.744119860440191,4.190935053477172,3.0358005016515794,2.1700415231534045
0,1.9216742138505594,9.324583646996683,7.430975476462287,-1.2436054959626366,2.1750416188288746
0,-4.087504420553352,4.15504681085097,13.731018020123509,-3.2830097695770646,2.1800417145043447
0,-0.48668067037587903,6.105509352609611,10.051062688230234,1.4175876767665792,2.185041810179815
0,3.194145468697315,-2.4240287276740426,-1.588890516392349,-1.2118131608692297,2.190041905855278
0,-5.3650259989587195,-6.553567430229072,-12.11884159155241,-9.92121228629635,2.195042001530748
0,-10.664195068851956,-6.90310675516846,-7.428790534988794,-13.570609702972467,2.200042097206218
0,-7.4933617360658165,-6.422646702136359,-13.81873734375536,-16.730005413539594,2.205042192881688
0,2.827474004983759,-3.392187270173679,9.241317985951136,-3.199399419468744,2.2100422885571582
0,-2.671687839606587,-11.79172845772406,-14.85862454144106,-10.268791721087716,2.2150423842326212
0,-6.1508472634930005,-11.201270262553752,-12.188564921024241,-5.898182317831812,2.2200424799080913
0,1.6699957398820535,2.739187318379615,3.501496852787679,10.392428791498658,2.2250425755835614
0,20.630841177182685,11.899644288696601,11.411560786175377,20.1930416082132,2.2300426712590316
0,0.48168905467233225,13.400100651890549,21.561626885170853,19.033656132839543,2.2350427669345017
0,10.912539377779146,9.150556410639426,10.881695154787073,16.23427236438753,2.2400428626099647
0,0.7633921511317182,6.141011566565575,7.741765598637357,12.624890300146134,2.2450429582854348
0,14.024247378718016,4.531466120380638,3.1018382191354155,9.075509935861207,2.250043053960905
0,11.835105063815652,9.011920072102743,-3.5780869820367727,3.106131266066689,2.255043149636375
0,-6.194034791144997,-1.5276265788313457,-6.0580100034429964,-1.623245715507443,2.260043245311845
0,16.00682781554139,7.492826166530163,7.762069156463083,7.657378984450678,2.265043340987308
0,-16.24230711485887,6.633278306724731,18.952150499211584,9.84800535893467,2.270043436662778
0,29.948560418629086,10.00372983977598,7.79223402571021,7.948633400390819,2.2750435323382483
0,2.659430416474014,9.604180762990252,18.96231973571672,10.879263100469664,2.2800436280137184
0,-13.6096971216314,3.334631072846874,5.1624076277019855,4.05989444995498,2.2850437236891885
0,7.811177803561069,13.635080765026046,7.5724976989678465,12.420527438804914,2.2900438193646515
0,-8.477944808588987,7.67552983441302,1.582589945924122,11.561162056143933,2.2950439150401216
0,27.552935041346174,-0.444021724929334,8.392684364372627,9.441798290137653,2.3000440107155917
0,17.153817352222386,0.6664260804360828,5.092780949607138,5.842436127937694,2.305044106391062
0,-2.295297878356325,0.48687324367332696,-0.15712030359379792,5.133075555819245,2.310044202066525
0,-5.534410653942564,-1.0026802421195342,-3.3470194008268233,-1.136283440573499,2.315044297741995
0,39.52647902130339,-0.8622343838455924,-1.1269163477694575,-7.075640875914262,2.320044393417465
0,18.097371142302897,4.288210811606718,5.983188849986475,-3.604996764799897,2.325044489092935
0,-6.61173429771874,2.3086553372841916,-0.8167038131683608,-8.124351121435904,2.3300445847684053
0,-17.090837306860955,6.6790991860070275,5.03340565697594,0.8062960404755921,2.3350446804438683
0,11.170062106685332,10.289542350186506,8.923517254343253,-8.503055292306964,2.3400447761193384
0,32.85096393493162,7.129984821613427,18.773630972324856,-5.062405132597047,2.3450448717948085
0,-14.758131830771378,-0.7795734086423012,11.643746803341038,-9.7417534926854,2.3500449674702786
0,9.252774799861108,-1.8291323500327041,3.713864738572343,-6.561100384198603,2.3550450631457487
0,4.803683816531249,0.18130798782580118,-6.866015231787122,-5.180445818040226,2.3600451588212117
0,-11.455404791284682,-5.218252404613198,-11.995893117835095,-7.179789804437116,2.365045254496682
0,30.00550896567474,-0.7778135367220775,2.404231070696098,2.810867646950091,2.370045350172152
0,23.47642507604191,1.8426245823324554,-7.68564267535376,5.041526526790367,2.375045445847622
0,-5.232656472936362,0.3630619434905746,-1.465514364703182,3.4621868257120987,2.380045541523092
0,-12.311735695329327,3.0734985376483723,3.2046159942407053,0.30284853404945894,2.385045637198555
0,-9.680812605410482,-2.4560656444115128,-2.585251606765469,2.573511641846182,2.390045732874025
0,-9.419887216726886,-14.655630611889489,-15.095117175844079,-5.585823861008279,2.3950458285494953
0,-12.458959541834549,-10.18519637355438,-7.374980720680619,-0.6751579846065652,2.4000459242249654
0,-11.328029592262757,-5.124762937319466,-3.754842248162509,-0.12449073888532991,2.4050460199004355
0,-26.087097378361612,0.7556696897660955,7.4152982355209724,0.27617786636631414,2.4100461155758985
0,10.39383709086473,-3.57389849881895,-6.8545592755491045,-3.0831521785754723,2.4150462112513686
0,-4.355226192510398,-1.1034675093430653,-6.5144147872191205,4.567519116612,2.4200463069268388
0,-24.734287235831292,-8.1730373478547,-12.214268305010782,-5.811808257719839,2.425046402602309
0,-15.303346045683499,-2.3026080200662227,-5.984119833751276,2.0688656888178034,2.430046498277779
0,-23.752402627186996,3.287820468692967,-6.393969377437375,12.849540946603517,2.435046593953242
0,-16.9514569835941,-5.421751886663801,-4.223816939328162,3.250217505721568,2.440046689628712
0,-6.600509116312402,-6.271325091067306,6.276337477835054,7.550895355647575,2.445046785304182
0,5.67044097466784,-0.99089914915713,11.856493871432818,5.561574485194,2.4500468809796523
0,10.54139328995217,-3.420474065187114,3.966652238445183,2.0622548825933356,2.4550469766551224
0,34.552347829735446,0.609950156890392,-2.113187424792482,6.712936535579266,2.4600470723305854
0,19.373304592771046,-4.529626486676963,-7.313025122318726,3.463619431444471,2.4650471680060555
0,-11.09573642414567,-14.139203999377974,-10.892860858021322,-15.885696442835236,2.4700472636815256
0,0.7952247744325646,-10.408782384122333,-3.8126946352036493,-17.215011100094944,2.4750473593569957
0,-12.053811816269466,5.491638357023301,8.127473543461665,1.1956754476963862,2.480047455032466
0,30.63715379920307,10.252058222548111,12.337643675479205,6.05636318950038,2.485047550707929
0,34.4181216158381,6.512477210791263,6.927815757873198,6.247052114563649,2.490047646383399
0,-9.590908372987306,5.342895319455654,3.747989786849752,8.407742211784903,2.495047742058869
0,10.260063824346082,5.203312545561554,8.938165757867687,6.878433469432481,2.500047837734339
0,15.141038198439944,3.80372888556308,7.428343665741781,0.47912587510888605,2.5050479334098092
0,1.982014739165568,14.13414433537598,16.518523504544703,5.9698194158742925,2.5100480290852722
0,-2.8770065643821194,10.56455889020939,4.028705267411656,-2.4294859215782907,2.5150481247607424
0,1.6739742764490448,5.494972544340486,6.338888946501686,-14.678790150678413,2.5200482204362125
0,-24.675042749614608,-3.994614708815611,-8.090925466725855,-21.148093284428942,2.5250483161116826
0,-0.8040576532457897,4.905797123679537,-4.360737981017937,-10.257395334696634,2.5300484117871527
0,-10.193070444155016,0.7162080345879133,1.999451395088381,-8.546696311901096,2.5350485074626157
0,-1.7720811311761087,2.086618016526104,8.909642653271515,-0.17599622527426795,2.540048603138086
0,11.188910277376399,1.7770270619280157,-1.5401642149147845,-5.015295083322652,2.545048698813556
0,13.239903773151383,0.11743516305976387,-1.7899692182172586,-8.27459289410241,2.550048794489026
0,-12.079100652754411,-6.3221576878966665,-6.2197723654735695,-8.883889665175033,2.555048890164496
0,-4.198103009669316,-3.9717514986420595,-2.449573665305971,-8.623185403408387,2.560048985839959
0,-8.827103306716037,-9.34134627650545,-0.7893731259919854,-14.532480114814316,2.565049081515429
0,-7.986101552385227,-5.750942028256127,2.8208292444439413,-4.531773804441394,2.5700491771908993
0,-5.805097754441466,-1.2305387600384001,-6.138966561926784,-8.51106647638219,2.5750492728663694
0,-3.9040919199502655,-7.7601364774579995,-15.358760552859492,-11.160358133880997,2.5800493685418395
0,-32.39308405522562,-8.969735185635347,-13.168552735494018,-18.99964877928559,2.5850494642173025
0,-16.51207416535844,-13.47933488904198,-14.828343115866737,-14.388938413750434,2.5900495598927726
0,-6.681062253684331,-4.628935591268402,-9.058131698704031,-2.168227037049049,2.5950496555682427
0,-30.30004832177584,-16.358537294935218,-17.727918487449696,-11.117514647778378,2.600049751243713
0,-12.249032369548816,-9.378140001655499,-14.957703484251518,-2.8168012437021748,2.605049846919183
0,16.651985604646732,-11.257743711953081,-14.72748668984539,-11.28608682190009,2.610049942594646
0,-11.16699439664948,-16.077348425210317,-10.657268103509923,-24.22537137864277,2.615050038270116
0,10.844027629181273,-10.096954139617976,-17.797047723145983,-14.144654908975996,2.620050133945586
0,14.435051684483307,-5.5565608521680145,-15.946825545285156,-18.653937406311314,2.6250502296210563
0,9.226077770968342,0.6138314411076847,8.843398434875121,-6.6132188623899655,2.6300503252965264
0,0.12710588939871603,-5.415777255257655,-3.4963757769753387,-5.432499267585106,2.6350504209719894
0,3.648136039756525,2.364613063560663,-1.146148174882654,2.438221388627875,2.6400505166474595
0,-5.260831778349537,-1.0849975974464827,-7.795918752806098,-5.391056882778161,2.6450506123229296
0,4.370202434598457,-11.184609233152468,-12.405687504367856,-1.2103340706094246,2.6500507079983997
0,-1.7387613218757194,-13.584221838060069,-2.1754544225399837,3.4803898365076287,2.65505080367387
0,18.45227695162817,-14.503835405832762,-6.81521949955056,5.251114849989939,2.660050899349333
0,-31.716682745755993,-8.16344992895553,-3.464982727011287,11.431840980992321,2.665050995024803
0,1.5243595852091139,2.496934601198511,3.2952559039074933,18.272568240010933,2.670051090700273
0,2.145403944431199,2.3373181939158743,5.795496402226419,0.9732966365238818,2.675051186375743
0,5.846450332335222,6.217700858583569,8.195738776780216,0.7140261790038556,2.6800512820512132
0,-2.782501250702998,0.28808260433939314,-5.3340169640347055,-5.9952431246079065,2.6850513777266762
0,13.248549195405117,7.688463439967936,8.176229187798336,-4.794511266355391,2.6900514734021463
0,-9.220398329572127,7.328843373845523,4.266477240030413,1.5662217620200074,2.6950515690776164
0,4.330656173879602,4.099222413819744,1.4967272000806486,1.066955969048484,2.7000516647530866
0,-0.7482872947950322,0.5096005671783652,6.456979074970628,-5.1123086366377715,2.7050517604285567
0,-11.04722873607992,-12.580022159101748,-7.422767128599051,-14.901572046239426,2.7100518561040197
0,-17.826168150104024,-28.039645757729588,-18.942511403929664,-31.53083425025127,2.7150519517794898
0,-34.995105535953,-35.709270220091966,-33.01225374355531,-33.09009523753627,2.72005204745496
0,-44.30404089066683,-40.3388955351328,-39.871994138130404,-32.07935499441102,2.72505214313043
0,-28.912974208249427,-23.278521688608137,-33.82173257541993,-19.428613504224614,2.7300522388059
0,-10.921905479356012,-13.258148663112802,-27.271469039823202,-14.13787074759786,2.735052334481363
0,-19.200834691910572,-8.48777643881661,-16.831203512566333,-9.107126703059446,2.740052430156833
0,-17.129761831892548,16.73259500551174,12.199064027524201,-3.02638134771242,2.7450525258323033
0,-18.438686883608543,14.122965691385238,-3.9106663971682596,-2.155634657778001,2.7500526215077734
0,-24.837609829605277,5.65333563961441,-5.580394763999666,-3.6048866089848044,2.7550527171832435
0,-1.8965306506048512,6.113704869963399,4.459878949731265,-1.2041371767589701,2.7600528128587065
0,12.014550674103152,-3.085926598586411,-7.229845233115321,-7.213386336249103,2.7650529085341766
0,-0.9043658342702603,-5.6955587473902085,2.8704327104767873,-6.522634062245182,2.7700530042096467
0,-1.2132801547268959,-8.595191557683519,0.07071280364320132,-5.361880329029916,2.775053099885117
0,-25.292192266333377,-3.924825010221826,-8.45900493038663,-4.141125110310005,2.780053195560587
0,-24.411102147397617,-6.194459085156697,-6.818720468165083,5.4196316206749735,2.78505329123605
0,-21.840009774542168,-13.00409376202177,-14.27843378570002,8.48038989082364,2.79005338691152
0,17.55108487755158,0.8962709803346878,14.001855141716062,23.491149726620304,2.79505348258699
0,23.04218183517989,4.2666351636661535,28.72214633901462,30.611911153374045,2.8000535782624603
0,18.53328112400423,12.436998809868353,23.862439830160188,28.772674194375973,2.8050536739379304
0,27.854382767930304,15.187361940342853,18.8127356371188,22.32343887033886,2.8100537696133934
0,26.855486788675403,17.737724575449953,20.583033779615835,15.564205199397039,2.8150538652888635
0,1.4265932056862383,15.968086734137348,9.733334275373563,5.904973197568241,2.8200539609643336
0,14.20770203651552,12.478448433794147,4.593637140493808,-0.2942571205602179,2.8250540566398037
0,27.418813297327663,5.988809690361488,5.673942389960766,2.8265142588593277,2.830054152315274
0,2.499927002886751,4.889170518651977,7.194250038046597,-2.5327126506076,2.835054247990737
0,-24.668956833309675,5.709530932704986,5.734560098434525,5.668062164500524,2.840054343666207
0,1.352161801981708,-0.07010905397950862,-8.045127415711484,1.3488387175239454,2.845054439341677
0,3.843282922622918,2.260250571722576,-5.644812491416231,1.8096170215962077,2.850054535017147
0,-14.235593456996265,-14.92939017719513,-14.384495115369441,-16.069602910266205,2.8550546306926172
0,-8.664467322108738,-13.149031287411164,-11.834175273470631,-14.208821064703711,2.8600547263680802
0,3.2766613426610878,-5.548672744759023,-11.723852950548798,-12.40803742739956,2.8650548220435503
0,-19.42220744663232,-15.628314534012112,-19.183528130213055,-11.047251982768987,2.8700549177190204
0,8.068926326666787,-13.217956638868833,-9.09320079474631,-2.53646471404506,2.8750550133944905
0,-14.57993732021091,0.5224009580771842,5.367129074815944,3.2443243963735298,2.8800551090699607
0,-7.728798369474555,3.6727582750941012,1.2374614981703826,4.725115366417301,2.8850552047454237
0,11.642343197238821,12.55311533068281,16.707796495023754,18.115908213801593,2.8900553004208938
0,20.563487398471327,9.983472142910726,11.068134084488923,19.396702955446628,2.895055396096364
0,28.024634251945,17.953828728942106,19.238474284618476,29.827499606821906,2.900055491771834
0,37.79578377348332,28.314185104638458,37.16881711195068,44.0782981812242,2.905055587447304
0,29.2369359762146,25.474541284041475,49.61916258074383,39.459098688963735,2.910055683122767
0,32.94809087016595,21.114897278911865,23.47951070201108,32.75990113673648,2.915055778798237
0,24.0092484622582,21.15525309863762,8.989861483303466,20.320705527619836,2.9200558744737073
0,7.900408756632764,9.745608750468605,9.550214929603264,10.441511861707895,2.9250559701491774
0,22.48157175524496,-2.9440357600072176,-2.989428955523983,0.902320137053533,2.9300560658246475
0,12.852737458350354,0.31631957186874105,-1.199070169143085,3.4631303505917206,2.9350561615001105
0,-6.456094135229481,2.986674750469511,-4.488708708440395,2.4439424987471448,2.9400562571755806
0,4.555076972392506,3.2570297800777412,-7.32834457039097,1.3947565776635273,2.9450563528510507
0,12.536250778701405,10.067384664735695,-0.5479777515748756,3.175572583253368,2.950056448526521
0,-2.972572719192253,7.447739408001592,-4.967608248146217,-6.483609488741075,2.955056544201991
0,14.198606475278721,-0.6419059872088436,1.2427639440816614,-5.152789642552234,2.960056639877454
0,6.819788358069182,-3.1015515184824833,-9.376861170439293,-3.781967882114375,2.965056735552924
0,-13.349027075472726,-15.181197183457407,-17.426483586842963,-13.651144210858288,2.970056831228394
0,-17.777839830142884,-12.500842979242474,-10.116103299435409,-3.7303186315578674,2.9750569269038643
0,-16.436649909968562,-17.640488901900365,-16.065720301321402,-10.999491146205832,2.9800570225793344
0,-14.76545731755386,-19.82013494609886,-9.145334584306836,-5.918661755999989,2.9850571182547974
0,17.775737945862506,-6.309781104942887,-1.224946139029612,0.4721695385789063,2.9900572139302675
0,-2.923064120325187,-3.269427370134554,8.125445044640983,1.6530027375355465,2.9950573096057376
0,4.398136483132527,7.680926267477815,25.815838976845548,8.083837840978294,3.0000574052812077
0,2.5393397551254875,6.761279817211249,24.986235666732274,2.914674848766389,3.005057500956678
0,27.69054569411602,13.011633287976332,24.03663512156123,7.9355137602999015,3.010057596632141
0,18.991754297594294,10.301986687889832,12.807037346338396,7.666354574426797,3.015057692307611
0,-5.33703443847929,6.092340024094325,8.45744234406313,-0.17280271060176555,3.020057787983081
0,-19.965820519277344,1.1126933028423547,-11.642149883606715,-12.231958096945942,3.025057883658551
0,-11.504603949850905,-12.526953470116688,-20.21173933537262,-16.981111586593737,3.030057979334021
0,-29.593384734048193,-9.186600288924277,-6.381326009264671,-14.610263180626328,3.035058075009484
0,-27.072162873892346,-10.486247147040807,-18.45090990207387,-10.439412878787087,3.0400581706849543
0,-21.670938369132852,-9.23589403698141,-8.580491009294743,-13.398560679460413,3.0450582663604244
0,0.6002887827847249,0.06445904964647714,-6.932525887900706e-05,-2.7677065798479084,3.0500583620358945
0,2.111518586017799,-6.655187878077011,-7.669644843451504,-3.236850576231827,3.0550584577113646
0,-26.957248954492627,-6.494834810583631,-5.399217556815099,-3.1959926643043604,3.0600585533868276
0,-3.016013833089923,-3.7744817378265183,-5.668787457794803,-5.825132839377485,3.0650586490622977
0,-11.704776043043848,-4.714128649238932,-17.61835453820631,-9.29427109635273,3.070058744737768
0,-14.623535576495678,-2.403775533788291,-5.507918789016937,-3.6734074295723027,3.075058840413238
0,-7.23229242452242,4.836577619890766,3.0625197997357128,4.797458167182817,3.080058936088701
0,-7.891046577137988,1.566930823261611,-5.257038761364149,3.5083257003892974,3.085059031764171
0,0.5702019765223879,9.40728408760322,-0.8465944614694122,10.049195176347864,3.090059127439641
0,0.6814532478607325,5.397637423771985,18.623852710325274,11.970066600819436,3.0950592231151113
0,-9.417292751466574,3.2279908420619314,12.844302764534156,4.4109399787642305,3.1000593187905814
0,20.283963990313307,8.618344352200232,9.954755710669891,0.21181531433079911,3.1050594144660444
0,23.765223484657515,7.468697963352059,3.2352115570659072,-8.037307388802365,3.1100595101415145
0,-3.8635142580472324,7.909051684026362,-5.334329688780977,-11.896428126876634,3.1150596058169846
0,18.927750771259426,-3.110594477943874,4.64613198028915,-7.515546895535965,3.1200597014924547
0,0.8690185806112842,-5.960240515137157,-3.803403428598351,-10.72466368954802,3.125059797167925
0,26.970289177113578,-3.4298864200900496,-3.142935908265485,-13.283778502724212,3.130059892843388
0,0.11156256674587549,-2.5595321849950365,-8.05246545135137,-9.002891327851144,3.135059988518858
0,-1.6371612456263274,-9.299177801635931,-12.761992050040803,-15.232002156610896,3.140060084194328
0,19.514117744116596,-10.118823261295766,-11.511515695745349,-16.19111097949839,3.145060179869798
0,5.545399539478279,1.2415314454049473,-7.6610363788673945,-5.150217785726392,3.1500602755452682
0,-12.11331585677215,6.131886328389285,6.769445911116354,-2.769322563348182,3.1550603712207312
0,-12.362028442163385,4.482241397661639,0.7799311851971142,0.8915747003193315,3.1600604668962013
0,-19.27073821361742,1.8025966629132588,-4.51958054561579,2.182474018250612,3.1650605625716715
0,2.1605548331136144,4.202952133445862,0.440910729647518,2.9033754034151853,3.1700606582471416
0,3.0218507032842608,5.6633078182114085,7.311405022006975,4.344278868599959,3.1750607539226117
0,-1.2568505974507416,11.643663725729036,5.4219023423600134,4.455184426295304,3.1800608495980747
0,4.924450936517864,3.744019863890708,-2.5575972987617,1.0460920886335492,3.1850609452735448
0,-2.164244689347448,2.984376239890477,1.812906108844627,-2.9529981325462864,3.190061040949015
0,14.167062530214185,3.374732860374481,6.623412575215087,-2.1720862254936213,3.195061136624485
0,3.3183726000649303,3.9150897316113342,-4.116077889787714,-5.3111721783166255,3.200061232299955
0,-11.90031447543579,-5.614553140409452,-10.735565276405698,-10.79025597878494,3.205061327975418
0,4.161001307882512,-5.274195749773727,-2.5950495746260565,-0.009337614139338257,3.210061423650888
0,-18.67768004552952,-12.003838090276133,0.6254692260756146,-3.9784170710593827,3.2150615193263583
0,3.833641469328194,-5.073480155082822,6.235991136552194,2.5125056641514485,3.2200616150018284
0,-7.8350341419367995,-9.25312193657866,-14.223483832303593,2.3434306053263283,3.2250617106772985
0,12.676293126685822,-4.112763426388595,-6.7429556694384765,6.274357766208255,3.2300618063527615
0,-11.842376718723141,-4.6224046154746805,-1.26242436326336,5.165287160233038,3.2350619020282316
0,-10.651043672025901,-2.5920454942639792,-0.801889901599553,4.806218800379478,3.2400619977037017
0,6.060292273310829,-6.081686052758195,5.298647728017224,5.077152699124076,3.245062093379172
0,7.721631124224352,-1.8713262805671496,4.839188537992548,4.268088868452917,3.250062189054642
0,0.782972887570119,-4.710966166913214,-11.430267459481547,1.2290273199071873,3.255062284730105
0,24.514317569670492,0.23939429932688727,0.8002797477586834,-1.6400319353011041,3.260062380405575
0,-4.3143348239765515,-4.73024487044576,-0.6391698278709625,0.4609111138985721,3.265062476081045
0,31.577015711077934,-6.759883664556702,-9.878616173658793,-7.198143521387944,3.2700625717565153
0,5.178369178038637,-4.209522070945452,-2.888059276562167,-2.0571958298508015,3.2750626674319854
0,7.7197255787393795,2.040839922899583,8.152500876853981,8.333754200080723,3.2800627631074484
0,-7.368915086060864,6.43120232974776,4.693064300147619,8.824706579968893,3.2850628587829185
0,-7.117552815981061,-0.5984348377150948,-2.7363689933880737,0.7856613209453198,3.2900629544583886
0,-6.1661876103793585,-2.168071567034489,-1.0357989907399934,-1.993381566378566,3.2950630501338587
0,9.635180531869912,0.1722921541488842,-2.7552256789158185,-6.202422071598804,3.300063145809329
0,-5.103448387867753,9.312656338187923,2.4853509552032604,-4.5414601841327435,3.305063241484792
0,10.117925631678002,18.923020997143432,19.2859309247018,9.879504106922559,3.310063337160262
0,27.72930259135039,15.853386142188018,30.036514241993704,16.900470812456305,3.315063432835732
0,-5.469317508952117,14.813751783098551,28.367100917840926,7.48143994268758,3.320063528511202
0,35.652065329356134,5.3241179281629085,15.677690960636877,3.5124115068015738,3.3250636241866722
0,16.003451103358604,8.014484584447219,-4.5717156234639535,-0.28661448684470003,3.3300637198621352
0,-25.705160191433293,5.084851758140284,-6.171118829604372,-3.5356380302799852,3.3350638155376053
0,3.256231439679581,9.42521945473695,6.509481346795572,4.445340884405622,3.3400639112130754
0,-25.312374008197192,10.235587679026915,3.700084910376256,5.196322265097741,3.3450640068885455
0,10.589023461002942,15.38595643494008,28.040691865458395,12.447306119403674,3.3500641025640157
0,5.45042384405863,13.9963257253119,20.161302215299166,12.27829245427715,3.3550641982394787
0,18.241827137713887,8.796695551714931,7.821915961464741,7.939281275716753,3.3600642939149488
0,-7.326766661990449,21.14706591443052,24.002533103742344,12.670272588666592,3.365064389590419
0,16.474642440202608,5.637436812434518,1.5931536403773077,2.231266397083634,3.370064485265889
0,8.80605443888387,2.737808243477687,1.843777568375531,-0.12773729585869736,3.375064580941359
0,-8.692530672051074,-2.2218197955176913,5.184404883975247,0.7632615125725808,3.380064676616822
0,-1.261112899165387,-2.76144730792377,1.045035583030777,0.6342628249605613,3.385064772292292
0,2.390307750996109,-1.0510742970595295,-6.134330338836232,3.0352666438173936,3.3900648679677623
0,7.2617312719914935,5.389299233887877,1.5763071139597362,9.176272971483211,3.3950649636432324
0,10.473157657133193,-0.7203267182772124,-0.1630520628654336,-4.0927181900312215,3.4000650593187025
0,-24.205413100689533,-9.929952156826145,-5.232407873474701,-7.9517068389787,3.4050651549941655
0,-16.453981008470873,-12.219577084812915,-8.121760321850044,-10.600692973447863,3.4100652506696356
0,-17.01254607211663,-4.03920150462216,-15.691109411493116,-3.439676590913098,3.4150653463451057
0,-2.3011082959777425,-12.988825417768016,-23.19045514495893,-11.978657688086338,3.420065442020576
0,-0.9396676831733335,-1.3784488249346116,-12.779797523356182,-0.6376362609522409,3.425065537696046
0,3.311775763778473,-7.848071726077579,-7.089136546160226,3.45338769508574,3.430065633371509
0,-6.166777957489331,-10.14769412050832,1.0515277884462093,7.024414184831856,3.435065729046979
0,14.83467115063158,-6.327316006853147,-1.4778045170244052,-1.3545567871090487,3.440065824722449
0,-5.703876914426176,1.5830626169760924,-5.5171334597784245,-0.13352521643539728,3.4450659203979193
0,0.8875778444911239,0.1834417535540242,-1.196459036808217,-14.77249109889491,3.4500660160733894
0,-2.1909645755859493,-4.7261785943623025,-5.735781244811902,-13.571454429798035,3.4550661117488524
0,-1.4095041775493442,6.25420157605419,-9.575100080102484,-9.280415203516773,3.4600662074243225
0,11.081959035769955,3.734582267614101,-5.924415538450681,-5.119373413310598,3.4650663030997926
0,-20.246574938507365,8.124963482873389,0.04627238501315611,-1.9883290515413972,3.4700663987752627
0,-4.835106103094493,13.66534522384684,14.036963695556256,5.832717889936145,3.475066494450733
0,12.616365539814636,8.295727491740088,12.29765839823029,3.083767419361359,3.480066590126196
0,15.577839988225781,3.2561102868175014,7.648356497262762,-9.325180455179023,3.485066685801666
0,-10.040682760393176,14.936493608487387,11.279057995835831,5.535874274353342,3.490066781477136
0,4.860797290793947,4.996877455360093,2.959762896173255,-1.3230683839007258,3.495066877152606
0,7.552280138369203,-0.0627381747509308,3.720471199732,3.7079915782161637,3.500066972828076
0,4.453765778675465,3.457646715382338,1.0811829074425143,9.499054168682985,3.505067068503539
0,14.775254207524972,2.628032122677367,14.091898019845821,14.080119395024584,3.5100671641790093
0,-12.013254579933582,11.098418043764477,14.982616536900512,14.861187263903947,3.5150672598544794
0,6.258239411009162,4.058804474800129,6.683338457596501,6.042257780816424,3.5200673555299495
0,27.319736174795192,3.869191411326785,16.474063779762727,7.64333095012043,3.5250674512054196
0,-0.1087642948230878,6.729578848317949,11.644792500062588,10.994406775253225,3.5300675468808826
0,10.952737994764387,4.679966780246705,4.845524613989369,8.05548525881774,3.5350676425563528
0,8.094243035152617,2.6603552010913614,0.49626011604833,13.116566402517076,3.540067738231823
0,-7.544249182778206,2.7207441043902767,8.986999000117539,13.457650207043974,3.545067833907293
0,-9.212738668469543,-0.10886651663566838,2.43774125963436,12.648736671944128,3.550067929582763
0,19.72877456875226,-1.7884766689450302,6.86848688756486,9.16982579554007,3.555068025258226
0,-4.549709480420007,-2.358086359516353,0.6792358763925725,3.6909175750383016,3.560068120933696
0,-13.488190825551271,-0.7376955952154851,-4.690011781751215,-2.697987993152581,3.5650682166091663
0,-25.406669475982188,-2.487304382744636,-12.379256094753863,-6.786890912952856,3.5700683122846364
0,-24.445145439800953,-13.266912728569256,-15.788497069990878,-9.495791188106006,3.5750684079601065
0,-34.9536187230054,-11.896520638636206,-13.447734713809638,-13.424688821751934,3.5800685036355695
0,-3.982089329122025,-8.626128118000176,-9.196969031267548,-9.253583816118097,3.5850685993110396
0,6.32944274040601,-10.165735170671661,-15.19620002615383,-11.622476172374219,3.5900686949865097
0,-10.569022514807589,-8.2653417996771,0.48457229886810704,-9.57136589062476,3.59506879066198
0,-4.787485094784525,-10.244948007125908,-15.61465205792009,-9.590252969951075,3.60006888633745
0,-30.815944998986172,-18.12455379416548,-29.103873097271133,-18.299137408401833,3.605068982012913
0,-11.414402225659593,-9.41415916080719,-3.173090818559032,-11.528019202853754,3.610069077688383
0,-18.44285677135591,-14.153764105784921,-14.302305219553292,-17.516898348837806,3.615069173363853
0,-24.341308630831705,-18.073368626530424,-24.531516296604828,-22.43577484039569,3.6200692690393232
0,-8.259757797061738,-14.86297271908827,-13.670724044607867,-16.38464866989102,3.6250693647147934
0,-23.93820426126531,-0.29257637807687215,-7.159928456816471,-4.643519827943949,3.6300694603902564
0,19.633351986807035,0.4178204029589109,-1.8191295251151627,1.9476116961780474,3.6350695560657265
0,5.474910958118294,-1.8917823690414408,5.881672759363704,2.518745913850302,3.6400696517411966
0,6.156472663376828,3.5186153129683047,4.722478405640114,1.6698828365174159,3.6450697474166667
0,-10.481962887328319,-5.540986543956962,1.3132874224838662,-1.4989775245175088,3.650069843092137
0,-3.370395684109715,-8.320587932661496,-9.2959001816158,-0.13783515804930796,3.6550699387676
0,-4.7688257167691095,-13.1301888455788,-15.015084398049611,-0.7566900528653517,3.66007003444307
0,1.3327470253410503,-8.969789274350784,-20.374265217440257,2.2544578022828152,3.66507013011854
0,9.644322553096298,-6.529389209644976,-0.8634426291423578,5.005608418597765,3.67007022579401
0,-1.7740991227634726,2.9910113587102014,7.867383378628979,1.636761807088342,3.67507032146948
0,6.597482008149436,6.011412441312928,14.878212817996172,7.027917978447068,3.680070417144943
0,-26.360934043956657,-0.7881859512750875,-4.270954299397378,-4.500923056972984,3.6850705128204133
0,-15.259347268394134,4.392216191247527,7.01988203742328,-0.009761289035743193,3.6900706084958834
0,22.752242346570114,9.832618878879103,7.450721838962741,5.8714032923419985,3.6950707041713535
0,20.16383481315232,-2.656977878782601,10.321565115237975,6.642570697128402,3.7000707998468236
0,-2.6945698572056878,3.3034259274432403,11.432411875528222,6.1437409349044545,3.7050708955222866
0,7.0270283457630915,10.433830306424168,0.3632621282305854,7.284914014672437,3.7100709911977567
0,9.858629431564017,10.014235266596799,8.474115880967497,7.0860899447916585,3.715071086873227
0,-0.8797665908465195,14.654640815619587,24.31497314065261,18.557268732879685,3.720071182548697
0,22.851840286855023,0.30504696015200977,13.285833913138715,1.788450385618245,3.725071278224167
0,12.87345007210705,-0.4745462939936164,-6.953301797099596,-0.580365091246915,3.73007137389963
0,7.0750627711178105,-0.6041389414185394,-1.9224339865360496,-2.669177692498488,3.7350714695751
0,-0.2533216110964357,-4.8837309767592565,-5.521562651781096,-1.4379874129821146,3.7400715652505703
0,6.128296929738507,7.766677605451433,12.899312210769589,9.673205752534264,3.7450716609260404
0,-6.030081602457521,11.877086810615113,25.150190604543198,8.824401809114269,3.7500717566015105
0,8.151542796072093,6.507496643643628,3.4610725320089664,10.05560076124298,3.7550718522769735
0,7.703170128911146,11.407907108627288,19.78195799423205,15.396802612518185,3.7600719479524436
0,12.4148003991922,10.818318208738853,8.022846990929771,11.408007365451937,3.7650720436279137
0,29.666433609120833,10.478729946176056,8.243739520613563,11.259215021349076,3.770072139303384
0,18.60806975937726,9.879142322109143,16.784635580696357,14.60042558029785,3.775072234978854
0,12.459708848678707,4.739555336722547,11.405535167495815,9.421639041191927,3.780072330654317
0,-1.0486491260315154,6.339968989365435,0.7264382761845098,2.5628554018021292,3.785072426329787
0,-16.407004168773376,-1.4896167212358957,-6.702655098917049,3.6340746590460244,3.790072522005257
0,-9.985356283486448,0.4607982032705099,2.718255036251842,9.745296809282578,3.7950726176807272
0,1.656294526673524,-9.918786238842248,-10.200831324095363,-1.4334781516105162,3.8000727133561973
0,-0.5420517407162389,-8.658370049026578,-16.039914185338205,-0.35225022817962326,3.8050728090316603
0,19.109604912100977,-1.7479532281528363,-2.1889935521064015,7.188980574787194,3.8100729047071304
0,-0.22873551754214894,0.222464223504429,7.261930571797714,7.100214252272827,3.8150730003826006
0,-1.5570730329923617,3.992882305976496,8.222858182878259,10.971450798773462,3.8200730960580707
0,10.494592361923434,6.713301019243483,13.353789277242406,13.112690208007926,3.8250731917335408
0,3.996260663044961,3.3837203629608092,14.034723850123287,3.233932472736903,3.8300732874090038
0,3.6279318657484576,-2.3058596636284956,17.455661895573993,3.245177584834362,3.835073383084474
0,-3.1403940350517696,-5.565439061502429,0.3466034063320699,-2.5135744643942752,3.840073478759944
0,11.451282955272488,-7.57501783149656,-12.002451625860942,-5.042323683829139,3.845073574435414
0,-5.3070371688956675,-10.76459597395766,-15.74150320939809,-3.3110700822134618,3.850073670110877
0,-19.095354413290945,-13.384173488462235,-13.450551351884025,1.5401863320061195,3.855073765786347
0,23.486331216606846,-12.92375037357095,-16.519596059630153,4.121445550578871,3.8600738614618173
0,-0.28198028449326584,-1.9533266267206995,3.7313626623797465,4.902707565180069,3.8650739571372874
0,2.7797110777453606,-0.042902244437000164,-1.637675189891795,5.053972367165525,3.8700740528127575
0,15.971405297049994,-4.5724772227484785,-6.48670962005625,8.235239947429957,3.8750741484882205
0,-11.436897633410224,-0.8320515574400956,5.234259368471693,2.756510296321254,3.8800742441636906
0,-0.6751977208312656,-7.691625244049554,-3.2747682275764025,-4.332216596306491,3.8850743398391607
0,-7.413494972337144,-0.28119827778344586,-1.6337924114020526,0.5290592591698084,3.890074435514631
0,14.418210605247868,-6.8907706534707405,1.8371868138522873,-11.419662147528099,3.895074531190101
0,11.399919005035514,-7.870342365521787,-1.9418305548807164,-11.428380826262007,3.900074626865564
0,-15.158369780390224,2.1500865921370864,-5.310844520594998,-7.16709678614086,3.905074722541034
0,12.28334424112736,2.6105162259680066,-0.5798550861170664,-6.915810035364139,3.910074818216504
0,-0.2749389383645594,0.5209465425218098,-8.408862253977391,-6.224520581316609,3.9150749138919743
0,-4.313219326935007,1.1413775482293524,-7.577866026293352,-6.073228430696063,3.9200750095674444
0,-38.271496932511454,-0.5681907505981434,-0.056866404643543866,-6.621933589574274,3.9250751052429074
0,11.260228237931134,2.6622416522779218,14.664136609790448,-0.9706360634394031,3.9300752009183775
0,12.06195617857579,9.782674762961518,10.545143015643852,5.200664142640043,3.9350752965938476
0,1.6936868838471713,7.93310858717941,4.506152810779305,1.1619670236950737,3.9400753922693177
0,-3.254579652332415,10.623543129982156,2.6971659921911835,3.9632725745783777,3.945075487944788
0,8.50715656356215,2.233978395603628,2.338182556283473,-4.325419210090435,3.950075583620251
0,-11.501104475076701,-4.715585612388616,-1.4807975008610157,-6.334108335753224,3.955075679295721
0,-5.8093627747826115,-6.355148890662476,-1.8897741832887567,-3.892794807618256,3.960075774971191
0,-4.567618341687709,-3.6847114356551214,-13.618747494938182,-5.111478630456839,3.965075870646661
0,-5.99587118133612,-3.244273243361124,-7.457717439279118,-3.590159808570267,3.9700759663221312
0,-0.634121298742808,-4.193834309352249,6.92331598091111,1.3711616541395828,3.9750760619975942
0,-4.812368698512878,-1.9633946288394568,5.144352763269866,3.4224857539950637,3.9800761576730643
0,-8.470613384885851,-1.6429541967211192,-3.834607094655229,1.013812487298266,3.9850762533485344
0,5.161144638301246,5.107486992306821,-0.04356359553452349,1.8751418501782757,3.9900763490240045
0,-3.1070946324644937,0.007928943557473478,1.697483257925733,4.326473838563222,3.9950764446994746
0,3.894668799402812,1.208371662201833,-3.2614665369391656,2.64780844814617,4.000076540374938
0,10.386434930370296,7.588815153220308,14.519587017160006,13.959145674260464,4.005076636050408
0,1.7982037565434514,5.209259421301741,2.6806439172203143,12.07048551161298,4.010076731725878
0,1.0899752735219428,5.80970447066578,-0.42829584028536416,10.78182795394947,4.015076827401348
0,-4.828250523434236,7.680150304961467,1.3527677406872343,9.683172993898449,4.020076923076818
0,10.593526360841217,8.440596927214317,3.043834655991462,8.87452062302485,4.025077018752281
0,17.225305921290865,10.741044339724773,9.984904901292154,12.245870831913052,4.030077114427751
0,14.667088152071882,-0.5385074559951871,5.285978471836047,10.547223610160358,4.035077210103221
0,29.068873045949914,7.0419415408914245,17.287055362189164,10.91857894631759,4.040077305778691
0,19.70066059384344,2.26239133074331,17.428135565935516,9.389936827875047,4.0450774014541615
0,19.002450784550888,9.002841913499896,11.189219075346088,17.081297241260597,4.0500774971296245
0,-1.6957563950984857,6.073293288593504,4.44030588130229,2.6126601717963585,4.055077592805095
0,3.01603904039716,9.353745454824473,6.331395973600136,4.334025603796121,4.060077688480565
0,7.9478370758969685,7.084198410267722,12.572489341264331,4.875393520869353,4.065077784156035
0,8.069637695832236,7.7046521522341465,5.72358597257172,2.676763906164597,4.070077879831505
0,-2.188559115901734,-2.034893322664061,4.7846858549889415,0.9681367424600523,4.075077975506968
0,-6.946753375821082,-13.504438018193973,-16.384211024586932,-14.600487987644055,4.080078071182438
0,-5.584945100403464,-13.153981937869741,-13.853104679166547,-13.399110301239853,4.085078166857908
0,-2.7831343057160383,-11.613525084318898,-11.261995120907965,-11.657730214529588,4.090078262533378
0,-1.8713210073602484,-11.61306745899364,-12.960882360739259,-11.736347742520737,4.095078358208848
0,-13.279505220530448,-8.372609062185493,-11.349766408356055,-8.894962899039442,4.100078453884311
0,-14.40768695984099,-3.0221498931769846,-3.7986472723221727,-9.823575696841853,4.1050785495597815
0,8.604133760941219,5.988310049446361,11.68247503961873,0.2078138522359979,4.110078645235252
0,4.115956928674638,6.198770767300155,6.023600519896123,5.119205736968604,4.115078740910722
0,-3.412217469743819,6.399232261715882,-1.9152708394610107,-3.919400053684937,4.120078836586192
0,-3.080389447587614,-0.8003054664793388,0.3958609531397046,-2.708003530784839,4.125078932261655
0,-5.3785590180499625,-8.179842416810887,-4.533004110840507,-4.716604705279978,4.130079027937125
0,-4.726726193995005,-1.4893785887599014,1.778133960156093,-5.945203587805275,4.135079123612595
0,-12.284890987803584,0.5610860185049443,2.329275157796271,-4.513800188561253,4.140079219288065
0,0.7069465887603653,5.961551406022791,4.460419473706569,-0.8523945172841474,4.145079314963535
0,7.758786524464883,14.462017574665614,17.011566899200304,2.469013416632819,4.150079410638998
0,-5.5493711917746165,-3.3675154752487537,-3.0472825750348664,-6.4995763960455,4.155079506314468
0,-4.787526571104548,-6.647047743956881,-2.4761289589670143,-7.628163964392646,4.160079601989938
0,-11.95567962447241,-11.696579231727641,-12.034972262760212,-9.886749297053163,4.1650796976654085
0,-4.35383036224554,-7.306109938264033,-12.553812496148629,-7.725332401962484,4.170079793340879
