labels,F4,F3,Fz,Cz,timestamps
0,-2014.47,-911.08,-1575.21,-1679.4,-2.0000382701874706
0,-2000.21,-907.47,-1587.61,-1682.78,-1.9950381745120005
0,-2034.11,-920.58,-1605.35,-1699.33,-1.990038078836534
0,-2019.44,-923.27,-1608.98,-1701.16,-1.9850379831610638
0,-2011.37,-922.78,-1609.78,-1702.75,-1.9800378874855973
0,-2030.51,-927.53,-1608.23,-1706.65,-1.9750377918101272
0,-2013.29,-930.36,-1608.88,-1702.89,-1.970037696134657
0,-2036.11,-934.22,-1611.5,-1704.05,-1.9650376004591905
0,-2045.22,-928.05,-1603.58,-1693.12,-1.9600375047837204
0,-2022.5,-928.97,-1607.4,-1689.95,-1.9550374091082539
0,-2017.05,-931.11,-1615.45,-1696.69,-1.9500373134327837
0,-2051.37,-944.14,-1623.09,-1705.37,-1.9450372177573136
0,-2044.71,-946.41,-1633.81,-1707.49,-1.940037122081847
0,-2038.17,-940.66,-1622.19,-1692.24,-1.935037026406377
0,-2019.2,-941.59,-1614.09,-1690.26,-1.9300369307309104
0,-2034.11,-936.8,-1614.2,-1689.7,-1.9250368350554403
0,-2032.21,-943.44,-1621.01,-1701.13,-1.9200367393799702
0,-2033.03,-932.06,-1607.0,-1684.21,-1.9150366437045037
0,-2038.06,-936.53,-1610.47,-1684.79,-1.9100365480290336
0,-2019.99,-935.73,-1600.6,-1688.28,-1.905036452353567
0,-2027.93,-936.9,-1601.75,-1694.36,-1.900036356678097
0,-2016.77,-924.58,-1597.68,-1685.06,-1.8950362610026268
0,-2018.75,-923.37,-1583.31,-1682.19,-1.8900361653271602
0,-2018.42,-914.47,-1576.38,-1678.22,-1.8850360696516901
0,-2022.04,-926.24,-1596.11,-1686.79,-1.8800359739762236
0,-1999.07,-920.99,-1583.23,-1679.06,-1.8750358783007535
0,-2000.48,-900.18,-1571.4,-1676.4,-1.8700357826252834
0,-2012.07,-914.48,-1590.68,-1694.38,-1.8650356869498168
0,-2019.77,-917.27,-1601.15,-1699.46,-1.8600355912743467
0,-2032.6,-924.44,-1604.39,-1709.15,-1.8550354955988801
0,-2024.16,-926.46,-1599.18,-1702.89,-1.85003539992341
0,-2037.94,-933.76,-1615.38,-1714.8,-1.84503530424794
0,-2040.6,-935.17,-1608.98,-1715.82,-1.8400352085724734
0,-2053.72,-949.64,-1626.39,-1717.67,-1.8350351128970033
0,-2045.31,-944.53,-1614.25,-1712.25,-1.8300350172215367
0,-2038.85,-948.05,-1618.24,-1710.05,-1.8250349215460666
0,-2040.87,-943.98,-1623.61,-1707.01,-1.8200348258705965
0,-2024.92,-934.98,-1610.52,-1700.17,-1.81503473019513
0,-2028.95,-937.0,-1596.67,-1701.46,-1.8100346345196598
0,-2022.73,-932.25,-1596.44,-1706.04,-1.8050345388441933
0,-2021.43,-932.16,-1594.61,-1701.63,-1.8000344431687232
0,-2027.08,-930.97,-1602.57,-1694.38,-1.795034347493253
0,-2023.41,-934.92,-1612.75,-1700.04,-1.7900342518177865
0,-2019.55,-924.08,-1599.98,-1690.35,-1.7850341561423164
0,-2004.74,-911.08,-1589.37,-1682.32,-1.7800340604668499
0,-1994.22,-910.59,-1569.42,-1670.85,-1.7750339647913798
0,-2013.13,-915.55,-1587.38,-1684.25,-1.7700338691159097
0,-2005.01,-903.19,-1591.15,-1674.88,-1.765033773440443
0,-2016.09,-921.95,-1609.45,-1686.09,-1.760033677764973
0,-2014.13,-920.54,-1603.9,-1689.33,-1.7550335820895064
0,-2019.95,-927.18,-1607.15,-1693.3,-1.7500334864140363
0,-2029.63,-927.46,-1609.31,-1709.29,-1.7450333907385662
0,-2018.58,-923.79,-1598.82,-1704.21,-1.7400332950630997
0,-2044.39,-942.63,-1616.25,-1710.04,-1.7350331993876296
0,-2037.96,-934.65,-1624.22,-1706.26,-1.730033103712163
0,-2040.52,-936.37,-1622.77,-1708.16,-1.725033008036693
0,-2037.1,-939.54,-1623.24,-1701.6,-1.7200329123612264
0,-2033.31,-930.29,-1602.34,-1692.25,-1.7150328166857562
0,-2043.16,-931.34,-1607.52,-1692.67,-1.7100327210102861
0,-2037.81,-929.18,-1608.52,-1697.54,-1.7050326253348196
0,-2042.02,-933.65,-1610.01,-1700.3,-1.7000325296593495
0,-2036.8,-936.93,-1615.84,-1706.02,-1.695032433983883
0,-2026.01,-924.44,-1607.68,-1701.25,-1.6900323383084128
0,-2027.72,-929.91,-1606.63,-1696.37,-1.6850322426329427
0,-2020.07,-924.18,-1595.85,-1695.69,-1.6800321469574762
0,-2022.76,-923.99,-1591.02,-1690.05,-1.675032051282006
0,-2010.09,-920.43,-1592.75,-1691.75,-1.6700319556065395
0,-2003.14,-913.38,-1589.85,-1688.34,-1.6650318599310694
0,-2014.37,-916.17,-1587.08,-1689.99,-1.6600317642555993
0,-2018.73,-913.97,-1595.02,-1685.52,-1.6550316685801327
0,-2021.17,-912.85,-1601.98,-1691.9,-1.6500315729046626
0,-2014.67,-920.03,-1599.92,-1698.57,-1.645031477229196
0,-2022.24,-918.66,-1602.94,-1704.35,-1.640031381553726
0,-2013.67,-915.07,-1598.3,-1697.71,-1.6350312858782559
0,-2009.46,-916.34,-1591.81,-1695.53,-1.6300311902027893
0,-2015.09,-916.28,-1592.65,-1690.64,-1.6250310945273192
0,-2022.79,-919.32,-1579.11,-1690.9,-1.6200309988518526
0,-2011.47,-916.04,-1595.98,-1684.43,-1.6150309031763825
0,-2014.6,-912.11,-1589.9,-1683.82,-1.6100308075009124
0,-2000.16,-904.4,-1576.99,-1673.81,-1.6050307118254459
0,-1990.17,-899.56,-1564.72,-1662.02,-1.6000306161499758
0,-2005.92,-913.55,-1579.81,-1673.76,-1.5950305204745092
0,-2001.39,-908.32,-1585.4,-1671.41,-1.590030424799039
0,-2010.99,-907.69,-1583.96,-1673.97,-1.585030329123569
0,-2015.4,-909.57,-1584.35,-1679.45,-1.5800302334481025
0,-2003.42,-912.11,-1587.71,-1679.64,-1.5750301377726323
0,-2009.48,-923.04,-1591.77,-1685.66,-1.5700300420971658
0,-2016.41,-926.17,-1594.21,-1685.3,-1.5650299464216957
0,-2023.78,-927.55,-1603.36,-1688.0,-1.5600298507462256
0,-2004.97,-913.58,-1589.6,-1670.7,-1.555029755070759
0,-2008.16,-915.72,-1587.05,-1677.33,-1.550029659395289
0,-2003.99,-916.83,-1587.74,-1688.83,-1.5450295637198224
0,-2019.57,-922.98,-1594.5,-1698.54,-1.5400294680443523
0,-2025.51,-923.5,-1597.2,-1702.0,-1.5350293723688822
0,-2033.74,-929.91,-1608.39,-1713.92,-1.5300292766934156
0,-2023.5,-926.82,-1608.48,-1714.55,-1.5250291810179455
0,-2037.08,-935.93,-1623.22,-1718.21,-1.520029085342479
0,-2038.97,-939.73,-1623.33,-1715.71,-1.5150289896670088
0,-2037.34,-939.66,-1621.11,-1714.67,-1.5100288939915387
0,-2030.34,-934.93,-1616.4,-1706.96,-1.5050287983160722
0,-2032.61,-934.11,-1621.78,-1702.95,-1.500028702640602
0,-2033.36,-927.4,-1604.25,-1691.29,-1.4950286069651355
0,-2033.49,-927.35,-1593.87,-1689.95,-1.4900285112896654
0,-2027.06,-921.79,-1601.48,-1691.15,-1.4850284156141953
0,-2024.47,-922.29,-1604.02,-1689.69,-1.4800283199387287
0,-2031.5,-924.04,-1601.03,-1693.49,-1.4750282242632586
0,-2027.83,-920.29,-1605.76,-1693.89,-1.470028128587792
0,-2010.21,-914.23,-1604.48,-1685.0,-1.465028032912322
0,-2002.72,-917.31,-1598.93,-1678.45,-1.4600279372368519
0,-2018.52,-916.94,-1599.56,-1683.21,-1.4550278415613853
0,-2024.61,-921.8,-1598.48,-1689.98,-1.4500277458859152
0,-2009.38,-916.34,-1588.89,-1681.4,-1.4450276502104487
0,-2013.17,-911.23,-1583.7,-1684.43,-1.4400275545349785
0,-2020.93,-912.03,-1595.36,-1689.13,-1.4350274588595084
0,-2020.29,-913.98,-1595.5,-1689.48,-1.4300273631840419
0,-2012.85,-912.49,-1589.69,-1683.1,-1.4250272675085718
0,-2014.02,-914.61,-1599.14,-1689.38,-1.4200271718331052
0,-2013.75,-918.23,-1609.32,-1695.2,-1.4150270761576351
0,-2011.23,-925.15,-1606.38,-1695.33,-1.410026980482165
0,-2023.92,-929.39,-1603.35,-1696.33,-1.4050268848066985
0,-2025.18,-934.93,-1602.09,-1693.36,-1.4000267891312284
0,-2026.92,-935.63,-1614.36,-1694.48,-1.3950266934557618
0,-2029.45,-934.53,-1614.24,-1695.3,-1.3900265977802917
0,-2023.21,-924.74,-1603.85,-1687.66,-1.3850265021048216
0,-2015.13,-916.77,-1594.02,-1679.44,-1.380026406429355
0,-2014.27,-915.18,-1580.41,-1682.52,-1.375026310753885
0,-2017.62,-915.28,-1581.18,-1672.4,-1.3700262150784184
0,-2023.73,-914.13,-1588.05,-1668.52,-1.3650261194029483
0,-2014.18,-915.91,-1588.31,-1668.99,-1.3600260237274782
0,-2005.48,-915.09,-1590.84,-1672.4,-1.3550259280520116
0,-2022.65,-928.69,-1599.08,-1672.2,-1.3500258323765415
0,-2032.38,-926.6,-1595.04,-1684.04,-1.345025736701075
0,-2012.34,-918.23,-1597.38,-1673.64,-1.3400256410256048
0,-2028.52,-925.95,-1598.54,-1681.37,-1.3350255453501383
0,-2023.48,-926.37,-1595.81,-1686.19,-1.3300254496746682
0,-2016.04,-921.29,-1592.63,-1692.04,-1.325025353999198
0,-2023.0,-927.9,-1596.87,-1695.64,-1.3200252583237315
0,-2016.96,-925.73,-1590.22,-1697.59,-1.3150251626482614
0,-2032.95,-933.31,-1603.22,-1703.39,-1.3100250669727949
0,-2018.81,-923.85,-1601.14,-1694.81,-1.3050249712973248
0,-2015.26,-918.36,-1595.76,-1692.22,-1.3000248756218546
0,-2008.09,-919.19,-1597.46,-1694.67,-1.295024779946388
0,-1999.89,-908.78,-1583.48,-1684.25,-1.290024684270918
0,-2014.48,-923.0,-1592.44,-1691.55,-1.2850245885954514
0,-2008.25,-914.5,-1589.04,-1685.21,-1.2800244929199813
0,-2001.52,-911.13,-1579.59,-1685.4,-1.2750243972445112
0,-2014.34,-917.81,-1575.18,-1686.9,-1.2700243015690447
0,-2009.76,-913.32,-1579.56,-1679.57,-1.2650242058935746
0,-2017.14,-919.85,-1592.84,-1688.49,-1.260024110218108
0,-2010.78,-922.52,-1602.11,-1689.85,-1.255024014542638
0,-2025.78,-928.53,-1614.81,-1700.19,-1.2500239188671678
0,-2013.29,-925.65,-1604.13,-1692.21,-1.2450238231917012
0,-2015.93,-929.45,-1603.86,-1698.96,-1.2400237275162311
0,-2022.44,-926.39,-1591.9,-1688.54,-1.2350236318407646
0,-2026.27,-917.86,-1592.6,-1686.2,-1.2300235361652945
0,-2018.44,-914.32,-1595.21,-1687.19,-1.2250234404898244
0,-2019.81,-915.12,-1592.04,-1683.85,-1.2200233448143578
0,-2023.9,-925.85,-1610.14,-1693.35,-1.2150232491388877
0,-2016.89,-919.32,-1601.75,-1685.63,-1.2100231534634212
0,-2016.07,-923.65,-1595.62,-1683.57,-1.205023057787951
0,-2016.15,-924.1,-1604.86,-1693.17,-1.200022962112481
0,-2029.78,-926.62,-1608.17,-1697.17,-1.1950228664370144
0,-2021.86,-923.87,-1599.91,-1698.39,-1.1900227707615443
0,-2019.77,-922.42,-1591.67,-1692.3,-1.1850226750860777
0,-2015.51,-918.8,-1597.84,-1693.58,-1.1800225794106076
0,-2007.26,-919.62,-1594.36,-1689.66,-1.1750224837351375
0,-2002.79,-914.72,-1588.89,-1689.99,-1.170022388059671
0,-2016.2,-908.0,-1576.6,-1683.45,-1.1650222923842009
0,-2013.55,-915.36,-1595.49,-1687.16,-1.1600221967087343
0,-2019.23,-919.56,-1592.61,-1688.18,-1.1550221010332642
0,-2029.09,-929.2,-1600.3,-1695.71,-1.150022005357794
0,-2015.05,-923.43,-1610.79,-1689.78,-1.1450219096823275
0,-2023.42,-923.96,-1609.04,-1691.35,-1.1400218140068574
0,-2010.71,-923.01,-1604.34,-1691.29,-1.1350217183313909
0,-2017.19,-923.87,-1605.18,-1694.02,-1.1300216226559208
0,-2032.18,-930.69,-1606.28,-1699.89,-1.1250215269804507
0,-2028.53,-926.26,-1603.67,-1698.29,-1.120021431304984
0,-2022.47,-921.68,-1601.21,-1690.74,-1.115021335629514
0,-2018.74,-917.99,-1601.36,-1693.17,-1.1100212399540474
0,-2007.81,-907.95,-1581.92,-1686.29,-1.1050211442785773
0,-2021.94,-907.36,-1578.19,-1683.97,-1.1000210486031072
0,-2016.63,-925.39,-1596.23,-1694.16,-1.0950209529276407
0,-2015.29,-923.05,-1602.77,-1697.42,-1.0900208572521706
0,-2013.07,-925.31,-1605.99,-1705.14,-1.085020761576704
0,-2027.24,-930.63,-1601.56,-1705.64,-1.080020665901234
0,-2009.88,-918.36,-1601.89,-1694.75,-1.0750205702257638
0,-2017.88,-917.92,-1593.81,-1691.83,-1.0700204745502973
0,-2010.17,-913.58,-1583.74,-1689.08,-1.0650203788748271
0,-2018.07,-917.78,-1592.83,-1693.17,-1.0600202831993606
0,-2016.34,-914.64,-1590.29,-1684.87,-1.0550201875238905
0,-2006.73,-911.94,-1585.06,-1679.09,-1.0500200918484204
0,-2012.05,-919.68,-1590.91,-1687.58,-1.0450199961729538
0,-2005.27,-920.87,-1605.75,-1695.85,-1.0400199004974837
0,-2012.46,-908.21,-1600.85,-1691.41,-1.0350198048220172
0,-2010.88,-916.52,-1598.08,-1696.03,-1.030019709146547
0,-2011.57,-914.3,-1587.67,-1696.73,-1.025019613471077
0,-2009.59,-917.27,-1589.71,-1701.3,-1.0200195177956104
0,-2027.59,-923.63,-1597.24,-1702.56,-1.0150194221201403
0,-2023.43,-927.31,-1609.7,-1703.25,-1.0100193264446737
0,-2032.15,-927.44,-1613.79,-1704.46,-1.0050192307692036
0,-2017.83,-922.38,-1597.9,-1690.87,-1.0000191350937335
0,-2024.59,-925.98,-1592.21,-1689.53,-0.995019039418267
0,-2009.85,-915.8,-1591.99,-1681.63,-0.9900189437427969
0,-2019.17,-921.02,-1594.18,-1689.97,-0.9850188480673303
0,-2028.55,-927.83,-1605.45,-1694.15,-0.9800187523918602
0,-2027.01,-927.18,-1608.17,-1696.25,-0.9750186567163901
0,-2023.93,-933.69,-1609.95,-1700.25,-0.9700185610409235
0,-2018.2,-923.34,-1600.84,-1693.5,-0.9650184653654534
0,-2025.25,-928.54,-1605.61,-1694.23,-0.9600183696899869
0,-2034.1,-937.13,-1607.76,-1700.13,-0.9550182740145168
0,-2029.23,-931.79,-1604.65,-1691.67,-0.9500181783390502
0,-2027.47,-930.05,-1609.09,-1696.1,-0.9450180826635801
0,-2039.85,-934.12,-1619.73,-1704.97,-0.94001798698811
0,-2043.99,-934.28,-1611.0,-1702.35,-0.9350178913126435
0,-2035.95,-937.5,-1607.82,-1704.79,-0.9300177956371734
0,-2026.35,-928.53,-1609.03,-1698.0,-0.9250176999617068
0,-2015.43,-922.92,-1599.36,-1692.89,-0.9200176042862367
0,-2021.71,-936.24,-1605.5,-1708.39,-0.9150175086107666
0,-2026.84,-925.74,-1599.31,-1703.81,-0.9100174129353
0,-2024.71,-916.44,-1602.7,-1693.36,-0.9050173172598299
0,-2024.07,-921.4,-1602.45,-1685.59,-0.9000172215843634
0,-2023.07,-926.41,-1611.2,-1693.72,-0.8950171259088933
0,-2019.61,-920.58,-1599.07,-1696.6,-0.8900170302334232
0,-2017.01,-920.22,-1599.47,-1688.77,-0.8850169345579566
0,-2010.82,-920.31,-1597.39,-1685.47,-0.8800168388824865
0,-2025.23,-912.49,-1589.58,-1689.12,-0.8750167432070199
0,-2023.54,-920.5,-1582.1,-1681.08,-0.8700166475315498
0,-2010.15,-914.01,-1578.15,-1675.4,-0.8650165518560797
0,-2011.01,-913.67,-1576.44,-1676.78,-0.8600164561806132
0,-2003.8,-910.76,-1584.15,-1677.18,-0.8550163605051431
0,-2015.65,-917.76,-1581.4,-1677.19,-0.8500162648296765
0,-2016.93,-914.89,-1585.88,-1677.51,-0.8450161691542064
0,-2011.85,-917.27,-1586.49,-1677.12,-0.8400160734787363
0,-2010.83,-922.34,-1592.32,-1688.44,-0.8350159778032697
0,-2024.17,-926.42,-1594.97,-1695.07,-0.8300158821277996
0,-2019.77,-922.24,-1592.31,-1691.6,-0.8250157864523331
0,-2014.87,-918.0,-1601.65,-1694.89,-0.820015690776863
0,-2014.99,-922.09,-1593.35,-1695.09,-0.8150155951013929
0,-2018.28,-914.96,-1581.77,-1691.27,-0.8100154994259263
0,-2016.69,-924.29,-1602.13,-1707.58,-0.8050154037504562
0,-2030.31,-929.77,-1604.41,-1712.69,-0.8000153080749897
0,-2021.1,-921.88,-1606.08,-1706.71,-0.7950152123995196
0,-2032.41,-923.35,-1604.38,-1704.04,-0.7900151167240494
0,-2029.64,-919.69,-1602.38,-1696.69,-0.7850150210485829
0,-2005.05,-916.3,-1600.13,-1683.76,-0.7800149253731128
0,-2017.82,-916.43,-1601.84,-1684.11,-0.7750148296976462
0,-2016.56,-918.28,-1603.04,-1687.16,-0.7700147340221761
0,-2017.19,-913.07,-1594.88,-1684.34,-0.765014638346706
0,-2015.01,-916.56,-1597.11,-1686.44,-0.7600145426712395
0,-2016.68,-925.68,-1601.58,-1689.07,-0.7550144469957694
0,-2018.6,-927.75,-1598.29,-1689.61,-0.7500143513203028
0,-2026.81,-930.06,-1610.63,-1695.65,-0.7450142556448327
0,-2020.85,-925.19,-1599.23,-1694.89,-0.7400141599693626
0,-2013.12,-921.18,-1587.75,-1682.25,-0.735014064293896
0,-2023.63,-920.99,-1601.09,-1692.78,-0.7300139686184259
0,-2017.06,-921.05,-1596.66,-1687.53,-0.7250138729429594
0,-2013.9,-919.29,-1592.73,-1687.45,-0.7200137772674893
0,-2002.14,-912.49,-1576.34,-1682.75,-0.7150136815920192
0,-2006.27,-909.69,-1573.95,-1682.97,-0.7100135859165526
0,-1991.77,-911.88,-1590.98,-1688.19,-0.7050134902410825
0,-2020.53,-909.37,-1598.73,-1691.9,-0.700013394565616
0,-1992.42,-899.24,-1576.23,-1683.55,-0.6950132988901458
0,-1995.7,-896.99,-1571.56,-1686.56,-0.6900132032146757
0,-1999.77,-904.12,-1578.96,-1696.52,-0.6850131075392092
0,-1994.62,-897.71,-1579.62,-1696.71,-0.6800130118637391
0,-1986.8,-894.07,-1572.19,-1689.87,-0.6750129161882725
0,-1989.96,-886.3,-1564.09,-1682.92,-0.6700128205128024
0,-1980.84,-875.34,-1550.22,-1673.77,-0.6650127248373323
0,-1966.83,-873.49,-1544.36,-1663.39,-0.6600126291618658
0,-1970.3,-880.22,-1552.4,-1668.91,-0.6550125334863957
0,-1964.54,-871.49,-1556.75,-1659.95,-0.6500124378109291
0,-1967.13,-873.01,-1556.28,-1661.13,-0.645012342135459
0,-1979.73,-875.74,-1555.04,-1665.7,-0.6400122464599889
0,-1984.65,-884.47,-1555.96,-1664.16,-0.6350121507845223
0,-2002.33,-889.08,-1563.95,-1669.95,-0.6300120551090522
0,-1994.8,-889.85,-1568.59,-1670.47,-0.6250119594335857
0,-1996.26,-894.88,-1572.65,-1665.32,-0.6200118637581156
0,-2006.32,-903.87,-1573.86,-1674.94,-0.6150117680826455
0,-2003.32,-897.95,-1575.24,-1665.4,-0.6100116724071789
0,-2008.26,-907.76,-1586.17,-1683.63,-0.6050115767317088
0,-2007.82,-916.97,-1589.85,-1686.42,-0.6000114810562422
0,-2027.91,-920.23,-1604.84,-1693.48,-0.5950113853807721
0,-2037.87,-922.55,-1603.71,-1697.23,-0.590011289705302
0,-2021.51,-925.12,-1608.27,-1702.25,-0.5850111940298355
0,-2046.62,-941.18,-1623.48,-1712.76,-0.5800110983543654
0,-2020.7,-927.35,-1608.11,-1698.0,-0.5750110026788988
0,-2023.37,-937.13,-1615.69,-1704.74,-0.5700109070034287
0,-2042.22,-930.17,-1615.3,-1708.43,-0.5650108113279622
0,-2045.8,-943.89,-1620.0,-1717.23,-0.560010715652492
0,-2033.44,-938.77,-1614.45,-1706.88,-0.555010619977022
0,-2046.35,-940.71,-1622.14,-1705.57,-0.5500105243015554
0,-2039.43,-938.73,-1615.0,-1707.85,-0.5450104286260853
0,-2033.14,-928.92,-1612.22,-1693.59,-0.5400103329506187
0,-2026.81,-936.57,-1615.04,-1699.08,-0.5350102372751486
0,-2039.27,-932.5,-1600.04,-1687.72,-0.5300101415996785
0,-2022.49,-934.77,-1597.1,-1686.01,-0.525010045924212
0,-2033.13,-939.32,-1612.33,-1694.67,-0.5200099502487419
0,-2020.77,-933.02,-1606.43,-1684.15,-0.5150098545732753
0,-2043.48,-927.78,-1603.65,-1686.36,-0.5100097588978052
0,-2025.88,-930.48,-1606.79,-1686.83,-0.5050096632223351
0,-2034.34,-927.67,-1611.58,-1682.8,-0.5000095675468685
0,-2039.37,-926.81,-1610.77,-1686.67,-0.49500947187139843
0,-2017.7,-922.68,-1596.96,-1682.48,-0.4900093761959319
0,-2021.81,-922.04,-1595.53,-1687.21,-0.48500928052046177
0,-2016.35,-931.72,-1586.85,-1689.8,-0.48000918484499167
0,-2029.97,-939.87,-1599.54,-1704.03,-0.4750090891695251
0,-2023.13,-937.62,-1609.24,-1702.61,-0.470008993494055
0,-2019.01,-929.92,-1611.17,-1700.21,-0.46500889781858845
0,-2033.57,-935.03,-1613.34,-1707.22,-0.46000880214311834
0,-2030.65,-933.25,-1608.13,-1702.14,-0.45500870646764824
0,-2034.07,-937.86,-1622.41,-1705.21,-0.4500086107921817
0,-2036.97,-945.95,-1622.74,-1714.55,-0.4450085151167116
0,-2026.09,-930.23,-1609.76,-1702.32,-0.440008419441245
0,-2027.76,-934.0,-1606.82,-1705.44,-0.4350083237657749
0,-2024.17,-924.82,-1600.88,-1701.84,-0.4300082280903048
0,-2022.87,-929.22,-1602.33,-1696.49,-0.42500813241483826
0,-2016.48,-928.48,-1600.13,-1693.71,-0.42000803673936815
0,-2022.61,-922.25,-1603.33,-1687.33,-0.4150079410639016
0,-2007.19,-920.15,-1589.72,-1681.73,-0.4100078453884315
0,-2017.19,-910.11,-1588.74,-1677.64,-0.4050077497129614
0,-2006.15,-920.84,-1591.33,-1676.39,-0.40000765403749483
0,-2002.99,-914.14,-1578.0,-1670.69,-0.3950075583620247
0,-2026.7,-918.78,-1593.08,-1680.95,-0.39000746268655817
0,-2010.2,-914.86,-1595.8,-1680.03,-0.38500736701108806
0,-2012.3,-916.46,-1590.76,-1682.4,-0.38000727133561796
0,-2021.74,-920.44,-1591.11,-1687.83,-0.3750071756601514
0,-2012.95,-919.45,-1596.64,-1685.97,-0.3700070799846813
0,-2024.44,-918.85,-1593.64,-1691.01,-0.36500698430921474
0,-2012.91,-914.06,-1594.97,-1689.74,-0.36000688863374464
0,-2009.23,-912.47,-1593.82,-1681.93,-0.35500679295827453
0,-2010.45,-911.13,-1586.89,-1679.76,-0.350006697282808
0,-2012.23,-916.01,-1588.97,-1687.12,-0.34500660160733787
0,-1990.75,-909.93,-1589.73,-1684.97,-0.3400065059318713
0,-1993.49,-898.62,-1583.71,-1682.61,-0.3350064102564012
0,-1992.4,-905.66,-1577.97,-1690.26,-0.3300063145809311
0,-1985.36,-891.53,-1570.69,-1679.47,-0.32500621890546455
0,-1999.86,-893.58,-1583.99,-1683.51,-0.32000612322999444
0,-2007.6,-886.78,-1568.15,-1677.47,-0.3150060275545279
0,-2009.86,-898.71,-1578.53,-1687.49,-0.3100059318790578
0,-1981.79,-888.97,-1570.54,-1682.13,-0.3050058362035877
0,-1982.82,-887.55,-1571.69,-1684.57,-0.3000057405281211
0,-1972.5,-875.68,-1559.4,-1672.16,-0.295005644852651
0,-1978.78,-885.39,-1562.47,-1676.94,-0.29000554917718446
0,-1973.9,-874.99,-1562.34,-1669.75,-0.28500545350171436
0,-1974.93,-876.94,-1556.52,-1673.3,-0.28000535782624425
0,-1980.1,-884.47,-1566.54,-1673.61,-0.2750052621507777
0,-1996.16,-900.76,-1584.77,-1689.38,-0.2700051664753076
0,-2002.44,-905.14,-1585.16,-1688.59,-0.26500507079984104
0,-1999.94,-902.11,-1578.44,-1683.53,-0.26000497512437093
0,-2015.4,-908.44,-1581.4,-1684.32,-0.2550048794489008
0,-2016.83,-910.85,-1582.76,-1682.04,-0.25000478377343427
0,-1998.96,-913.92,-1579.34,-1680.71,-0.24500468809796416
0,-2010.87,-917.41,-1594.57,-1683.29,-0.2400045924224976
0,-2005.93,-911.5,-1591.62,-1678.81,-0.2350044967470275
0,-2003.87,-917.64,-1590.94,-1674.17,-0.2300044010715574
0,-2011.9,-925.03,-1594.6,-1683.13,-0.22500430539609084
0,-2023.68,-923.87,-1600.92,-1686.45,-0.22000420972062074
0,-2018.34,-926.04,-1600.13,-1686.42,-0.21500411404515418
0,-2023.49,-924.72,-1593.48,-1686.7,-0.21000401836968408
0,-2028.45,-932.51,-1600.64,-1693.45,-0.20500392269421397
0,-2037.2,-941.79,-1610.95,-1694.73,-0.20000382701874742
0,-2029.41,-935.91,-1594.41,-1691.91,-0.1950037313432773
0,-2031.5,-935.39,-1596.52,-1695.87,-0.19000363566781076
0,-2018.42,-929.84,-1598.25,-1687.9,-0.18500353999234065
0,-2027.2,-935.26,-1598.02,-1691.59,-0.1800034443168741
0,-2015.03,-925.49,-1588.04,-1682.5,-0.175003348641404
0,-2030.06,-934.54,-1604.69,-1697.51,-0.17000325296593388
0,-2021.38,-937.12,-1611.49,-1703.46,-0.16500315729046733
0,-2029.99,-940.96,-1612.58,-1710.54,-0.16000306161499722
0,-2033.27,-930.55,-1603.45,-1709.39,-0.15500296593953067
0,-2031.88,-930.54,-1611.09,-1709.31,-0.15000287026406056
0,-2032.76,-932.69,-1614.64,-1699.86,-0.14500277458859046
0,-2034.91,-938.34,-1615.98,-1708.53,-0.1400026789131239
0,-2040.03,-940.8,-1615.13,-1706.36,-0.1350025832376538
0,-2039.03,-941.12,-1616.43,-1706.11,-0.13000248756218724
0,-2031.68,-942.37,-1613.73,-1702.59,-0.12500239188671713
0,-2033.93,-943.4,-1608.04,-1691.55,-0.12000229621124703
0,-2045.66,-939.04,-1604.31,-1694.12,-0.11500220053578047
0,-2031.97,-935.0,-1611.2,-1690.82,-0.11000210486031037
0,-2029.15,-927.5,-1607.1,-1682.94,-0.10500200918484381
0,-2031.6,-921.24,-1607.53,-1684.93,-0.10000191350937371
0,-2031.2,-933.11,-1622.28,-1694.52,-0.0950018178339036
0,-2033.24,-934.75,-1613.25,-1699.76,-0.09000172215843705
0,-2035.34,-937.26,-1613.68,-1697.46,-0.08500162648296694
0,-2033.61,-935.8,-1603.87,-1699.75,-0.08000153080750039
0,-2024.9,-926.13,-1597.23,-1696.2,-0.07500143513203028
0,-2024.55,-924.18,-1604.63,-1700.07,-0.07000133945656017
0,-2009.73,-907.78,-1593.65,-1684.22,-0.06500124378109362
0,-2016.38,-906.16,-1592.57,-1697.05,-0.060001148105623514
0,-2029.49,-920.2,-1601.75,-1704.91,-0.05500105243015696
0,-2031.45,-925.97,-1604.52,-1710.32,-0.050000956754686854
0,-2024.72,-922.68,-1598.49,-1702.83,-0.04500086107921675
0,-2036.46,-931.58,-1610.34,-1714.53,-0.040000765403750194
0,-2031.8,-940.48,-1619.34,-1723.49,-0.03500066972828009
0,-2042.0,-946.47,-1623.05,-1720.92,-0.030000574052813533
0,-2046.11,-934.54,-1624.24,-1708.9,-0.025000478377343427
0,-2024.16,-924.15,-1606.48,-1692.75,-0.02000038270187332
0,-2022.12,-926.41,-1601.81,-1686.18,-0.015000287026406767
0,-2023.98,-929.7,-1613.03,-1690.94,-0.01000019135093666
0,-2022.62,-934.69,-1611.57,-1693.88,-0.0050000956754701065
0,-2025.02,-933.71,-1602.49,-1699.55,0.0
0,-2019.21,-923.33,-1594.56,-1689.28,0.0050000956754701065
0,-2025.06,-924.82,-1607.18,-1690.54,0.01000019135093666
0,-2015.77,-919.69,-1604.44,-1683.55,0.015000287026406767
0,-2003.9,-915.27,-1592.25,-1673.2,0.02000038270187332
0,-2010.0,-917.02,-1587.66,-1674.75,0.025000478377343427
0,-2012.14,-920.79,-1575.57,-1677.13,0.030000574052813533
0,-2022.85,-918.24,-1591.62,-1696.69,0.03500066972828009
0,-2018.52,-922.69,-1604.41,-1679.83,0.040000765403750194
0,-2010.95,-916.3,-1595.48,-1679.53,0.04500086107921675
0,-2015.42,-924.27,-1600.17,-1685.82,0.050000956754686854
0,-2013.69,-931.7,-1604.32,-1693.05,0.05500105243015696
0,-2035.3,-943.29,-1616.62,-1707.59,0.060001148105623514
0,-2022.44,-931.34,-1604.19,-1695.69,0.06500124378109362
0,-2029.26,-943.29,-1616.12,-1702.8,0.07000133945656017
0,-2041.56,-947.57,-1626.93,-1714.47,0.07500143513203028
0,-2040.5,-940.8,-1614.41,-1710.43,0.08000153080750039
0,-2042.97,-943.66,-1623.44,-1704.26,0.08500162648296694
0,-2034.29,-937.49,-1611.26,-1698.9,0.09000172215843705
0,-2034.02,-937.59,-1601.25,-1700.45,0.0950018178339036
0,-2033.32,-938.06,-1608.36,-1694.81,0.10000191350937371
0,-2023.61,-932.98,-1606.03,-1693.56,0.10500200918484381
0,-2026.51,-926.71,-1598.92,-1684.75,0.11000210486031037
0,-2014.39,-914.79,-1594.93,-1675.53,0.11500220053578047
0,-2032.3,-935.12,-1608.86,-1691.67,0.12000229621124703
0,-2026.7,-927.83,-1604.57,-1687.59,0.12500239188671713
0,-2035.03,-932.82,-1617.81,-1690.76,0.13000248756218724
0,-2028.96,-936.13,-1604.12,-1692.59,0.1350025832376538
0,-2018.03,-935.6,-1597.75,-1691.54,0.1400026789131239
0,-2035.34,-935.55,-1611.82,-1700.04,0.14500277458859046
0,-2034.11,-938.85,-1609.3,-1702.46,0.15000287026406056
0,-2022.77,-930.69,-1593.59,-1690.76,0.15500296593953067
0,-2021.06,-928.67,-1605.17,-1694.21,0.16000306161499722
0,-2024.49,-925.64,-1603.76,-1684.87,0.16500315729046733
0,-2003.17,-911.16,-1581.21,-1683.22,0.17000325296593388
0,-2019.96,-918.76,-1593.54,-1697.82,0.175003348641404
0,-2015.4,-917.11,-1597.32,-1686.24,0.1800034443168741
0,-2018.65,-916.35,-1592.16,-1688.62,0.18500353999234065
0,-2028.85,-930.4,-1612.63,-1701.06,0.19000363566781076
0,-2031.55,-937.46,-1620.66,-1713.79,0.1950037313432773
0,-2040.12,-940.41,-1623.94,-1718.09,0.20000382701874742
0,-2028.73,-930.62,-1605.39,-1706.89,0.20500392269421397
0,-2008.81,-917.06,-1572.18,-1685.15,0.21000401836968408
0,-2008.89,-918.27,-1586.09,-1689.79,0.21500411404515418
0,-2011.59,-918.25,-1580.46,-1687.67,0.22000420972062074
0,-2019.66,-926.38,-1598.13,-1699.07,0.22500430539609084
0,-2015.93,-924.33,-1600.86,-1699.09,0.2300044010715574
0,-2016.18,-925.35,-1596.37,-1695.92,0.2350044967470275
0,-2017.46,-930.54,-1608.11,-1700.8,0.2400045924224976
0,-2016.61,-927.18,-1600.26,-1695.32,0.24500468809796416
0,-2007.99,-921.4,-1597.16,-1692.07,0.25000478377343427
0,-2022.38,-922.37,-1593.35,-1692.86,0.2550048794489008
0,-2019.29,-932.33,-1595.7,-1700.5,0.26000497512437093
0,-2004.01,-920.62,-1594.28,-1688.8,0.26500507079984104
0,-2018.98,-922.15,-1604.55,-1694.48,0.2700051664753076
0,-2013.1,-915.62,-1594.66,-1688.01,0.2750052621507777
0,-1993.91,-910.51,-1575.27,-1683.83,0.28000535782624425
0,-1997.57,-906.69,-1574.92,-1682.25,0.28500545350171436
0,-1999.68,-907.88,-1589.41,-1683.18,0.29000554917718446
0,-1995.62,-901.51,-1581.49,-1683.1,0.295005644852651
0,-2006.85,-909.0,-1589.41,-1691.79,0.3000057405281211
0,-2002.23,-909.2,-1589.71,-1691.83,0.3050058362035877
0,-2011.01,-910.93,-1590.2,-1693.62,0.3100059318790578
0,-2013.76,-920.13,-1602.32,-1695.42,0.3150060275545279
0,-2010.37,-928.37,-1610.19,-1701.68,0.32000612322999444
0,-2044.35,-934.27,-1607.27,-1699.24,0.32500621890546455
0,-2039.51,-942.98,-1615.94,-1714.07,0.3300063145809311
0,-2048.14,-935.33,-1614.11,-1708.79,0.3350064102564012
0,-2035.06,-931.59,-1607.29,-1695.33,0.3400065059318713
0,-2023.89,-938.17,-1615.32,-1700.48,0.34500660160733787
0,-2033.45,-931.25,-1604.19,-1699.63,0.350006697282808
0,-2010.69,-922.22,-1589.41,-1692.42,0.35500679295827453
0,-2020.68,-923.01,-1591.59,-1690.15,0.36000688863374464
0,-2020.76,-917.26,-1592.06,-1687.15,0.36500698430921474
0,-2021.99,-912.06,-1588.92,-1679.23,0.3700070799846813
0,-2004.6,-905.89,-1585.02,-1678.07,0.3750071756601514
0,-1987.88,-912.14,-1581.28,-1686.29,0.38000727133561796
0,-2002.83,-913.15,-1592.96,-1697.07,0.38500736701108806
0,-2017.67,-920.2,-1599.03,-1698.57,0.39000746268655817
0,-2011.37,-915.09,-1596.89,-1700.47,0.3950075583620247
0,-2029.67,-917.02,-1595.61,-1700.38,0.40000765403749483
0,-2017.21,-922.1,-1597.69,-1699.05,0.4050077497129614
0,-2013.06,-912.1,-1586.12,-1691.35,0.4100078453884315
0,-2023.12,-914.03,-1588.49,-1693.71,0.4150079410639016
0,-2002.85,-917.53,-1590.98,-1699.66,0.42000803673936815
0,-2015.15,-916.43,-1596.6,-1697.77,0.42500813241483826
0,-2005.57,-923.74,-1611.12,-1701.6,0.4300082280903048
0,-2017.82,-919.52,-1601.15,-1697.38,0.4350083237657749
0,-2043.31,-926.0,-1590.69,-1693.07,0.440008419441245
0,-2014.94,-923.13,-1599.68,-1693.73,0.4450085151167116
0,-2013.31,-919.61,-1590.23,-1690.52,0.4500086107921817
0,-2004.92,-918.55,-1591.61,-1687.24,0.45500870646764824
0,-2005.58,-922.19,-1586.7,-1688.72,0.46000880214311834
0,-2021.83,-924.71,-1593.61,-1688.65,0.46500889781858845
0,-2022.04,-925.59,-1593.68,-1683.73,0.470008993494055
0,-2013.1,-926.13,-1591.6,-1681.8,0.4750090891695251
0,-2005.56,-921.87,-1594.61,-1680.11,0.48000918484499167
0,-2008.23,-920.55,-1587.8,-1687.84,0.48500928052046177
0,-2006.09,-914.01,-1595.16,-1684.62,0.4900093761959319
0,-2004.89,-913.9,-1589.83,-1680.57,0.49500947187139843
0,-2010.92,-915.74,-1593.94,-1677.36,0.5000095675468685
0,-2030.7,-930.0,-1607.14,-1685.92,0.5050096632223351
0,-2008.76,-920.03,-1594.2,-1679.67,0.5100097588978052
0,-2020.57,-921.24,-1592.72,-1684.59,0.5150098545732753
0,-2014.85,-921.24,-1592.44,-1677.31,0.5200099502487419
0,-1995.83,-921.85,-1594.22,-1691.91,0.525010045924212
0,-2016.83,-924.67,-1586.86,-1691.4,0.5300101415996785
0,-2007.7,-921.6,-1594.99,-1690.79,0.5350102372751486
0,-2006.26,-922.57,-1599.14,-1691.71,0.5400103329506187
0,-2021.12,-922.71,-1600.15,-1700.59,0.5450104286260853
0,-2040.63,-924.35,-1603.99,-1701.64,0.5500105243015554
0,-2033.95,-933.83,-1617.52,-1713.31,0.555010619977022
0,-2021.36,-924.3,-1599.87,-1703.32,0.560010715652492
0,-2020.58,-920.05,-1599.58,-1694.69,0.5650108113279622
0,-2036.52,-927.59,-1615.6,-1697.51,0.5700109070034287
0,-2030.04,-929.77,-1602.96,-1692.38,0.5750110026788988
0,-2004.0,-916.12,-1579.79,-1686.19,0.5800110983543654
0,-2031.04,-919.47,-1589.53,-1687.88,0.5850111940298355
0,-2041.71,-924.55,-1596.83,-1699.57,0.590011289705302
0,-2025.2,-936.09,-1617.43,-1706.15,0.5950113853807721
0,-2054.08,-938.37,-1626.93,-1706.49,0.6000114810562422
0,-2056.78,-935.22,-1624.82,-1699.56,0.6050115767317088
0,-2032.05,-932.24,-1620.77,-1684.13,0.6100116724071789
0,-2031.95,-928.88,-1605.24,-1683.99,0.6150117680826455
0,-2021.49,-915.79,-1592.53,-1672.54,0.6200118637581156
0,-2031.43,-919.69,-1594.54,-1674.88,0.6250119594335857
0,-2013.36,-920.23,-1589.67,-1681.38,0.6300120551090522
0,-1988.67,-904.43,-1578.33,-1676.9,0.6350121507845223
0,-1983.31,-900.49,-1575.17,-1668.76,0.6400122464599889
0,-1987.34,-914.4,-1589.85,-1680.56,0.645012342135459
0,-1979.63,-911.3,-1579.59,-1679.59,0.6500124378109291
0,-2012.64,-911.0,-1575.18,-1677.83,0.6550125334863957
0,-2012.65,-917.36,-1578.07,-1676.94,0.6600126291618658
0,-2011.19,-916.4,-1587.32,-1672.0,0.6650127248373323
0,-2023.72,-924.65,-1598.23,-1678.17,0.6700128205128024
0,-2009.44,-918.71,-1590.37,-1676.56,0.6750129161882725
0,-2001.6,-915.09,-1591.86,-1674.19,0.6800130118637391
0,-2001.42,-913.32,-1594.26,-1675.8,0.6850131075392092
0,-2032.61,-912.17,-1596.56,-1680.86,0.6900132032146757
0,-2026.97,-916.28,-1595.2,-1682.41,0.6950132988901458
0,-2039.1,-917.41,-1594.82,-1683.41,0.700013394565616
0,-2024.03,-919.56,-1599.38,-1677.3,0.7050134902410825
0,-2029.59,-927.4,-1599.95,-1680.96,0.7100135859165526
0,-2030.79,-933.28,-1606.69,-1691.16,0.7150136815920192
0,-2036.18,-934.38,-1618.19,-1699.81,0.7200137772674893
0,-2041.68,-924.0,-1601.72,-1688.71,0.7250138729429594
0,-2004.69,-919.39,-1596.82,-1691.85,0.7300139686184259
0,-2013.17,-922.88,-1603.02,-1691.49,0.735014064293896
0,-2012.18,-925.89,-1596.16,-1697.25,0.7400141599693626
0,-2031.02,-937.46,-1616.21,-1710.32,0.7450142556448327
0,-2029.57,-924.35,-1591.24,-1700.88,0.7500143513203028
0,-2007.3,-915.4,-1588.46,-1695.77,0.7550144469957694
0,-2000.64,-913.11,-1594.51,-1692.12,0.7600145426712395
0,-2020.72,-900.01,-1583.48,-1693.39,0.765014638346706
0,-2004.36,-898.51,-1574.46,-1690.49,0.7700147340221761
0,-2004.09,-912.09,-1585.43,-1694.33,0.7750148296976462
0,-1994.86,-912.84,-1587.17,-1687.85,0.7800149253731128
0,-2019.15,-919.38,-1601.04,-1695.62,0.7850150210485829
0,-2012.11,-910.31,-1583.33,-1692.82,0.790015116724053
0,-2007.84,-921.09,-1593.45,-1686.47,0.795015212399516
0,-2021.08,-920.19,-1595.5,-1685.65,0.8000153080749861
0,-2025.63,-920.29,-1594.32,-1685.79,0.8050154037504562
0,-2016.31,-916.87,-1581.28,-1688.52,0.8100154994259263
0,-2008.11,-916.84,-1592.04,-1692.64,0.8150155951013964
0,-2028.49,-924.06,-1608.61,-1708.52,0.8200156907768594
0,-2029.81,-931.98,-1603.87,-1712.32,0.8250157864523295
0,-2018.35,-928.68,-1597.89,-1709.05,0.8300158821277996
0,-1993.99,-911.37,-1586.74,-1683.78,0.8350159778032697
0,-2005.46,-914.64,-1591.21,-1687.4,0.8400160734787399
0,-2000.81,-913.87,-1596.23,-1683.82,0.8450161691542029
0,-2026.77,-926.14,-1599.61,-1691.77,0.850016264829673
0,-2020.85,-918.62,-1593.03,-1698.95,0.8550163605051431
0,-2022.54,-922.07,-1600.71,-1709.72,0.8600164561806132
0,-2029.27,-920.41,-1596.18,-1710.52,0.8650165518560833
0,-2014.35,-916.2,-1590.07,-1703.47,0.8700166475315463
0,-2040.52,-925.4,-1600.3,-1700.93,0.8750167432070164
0,-2012.61,-919.11,-1598.44,-1691.84,0.8800168388824865
0,-2019.54,-922.77,-1597.9,-1685.08,0.8850169345579566
0,-2018.12,-923.7,-1602.96,-1686.72,0.8900170302334267
0,-2024.86,-937.14,-1611.17,-1695.05,0.8950171259088897
0,-2019.93,-926.52,-1603.64,-1698.99,0.9000172215843598
0,-2032.0,-929.06,-1607.7,-1701.49,0.9050173172598299
0,-2043.76,-932.22,-1610.86,-1707.42,0.9100174129353
0,-2026.5,-925.14,-1604.7,-1697.93,0.9150175086107701
0,-2023.56,-931.06,-1597.23,-1697.12,0.9200176042862331
0,-2033.93,-933.08,-1610.28,-1704.45,0.9250176999617032
0,-2016.67,-923.72,-1601.34,-1695.64,0.9300177956371734
0,-2022.77,-926.81,-1603.88,-1695.36,0.9350178913126435
0,-2015.18,-925.68,-1595.37,-1691.32,0.9400179869881136
0,-2028.29,-932.41,-1596.4,-1704.51,0.9450180826635766
0,-2007.05,-925.7,-1602.9,-1704.86,0.9500181783390467
0,-2016.5,-934.14,-1609.08,-1707.08,0.9550182740145168
0,-1998.88,-925.88,-1612.21,-1703.58,0.9600183696899869
0,-2005.68,-920.3,-1598.12,-1685.72,0.965018465365457
0,-2025.29,-933.51,-1603.04,-1690.18,0.97001856104092
0,-2026.54,-927.38,-1600.08,-1684.23,0.9750186567163901
0,-2017.5,-918.52,-1583.13,-1682.11,0.9800187523918602
0,-2012.97,-917.18,-1596.31,-1683.6,0.9850188480673303
0,-2003.49,-924.99,-1595.91,-1693.83,0.9900189437428004
0,-2002.99,-913.97,-1579.78,-1691.73,0.9950190394182634
0,-2003.15,-917.95,-1591.79,-1694.02,1.0000191350937335
0,-2009.41,-923.1,-1589.75,-1692.5,1.0050192307692036
0,-2020.69,-919.94,-1592.82,-1697.83,1.0100193264446737
0,-2016.47,-927.91,-1611.25,-1705.65,1.0150194221201438
0,-2021.86,-928.46,-1602.56,-1702.28,1.0200195177956068
0,-2032.37,-934.14,-1613.71,-1708.59,1.025019613471077
0,-2049.61,-931.94,-1614.48,-1712.32,1.030019709146547
0,-2033.06,-932.19,-1619.59,-1710.19,1.0350198048220172
0,-2029.79,-933.76,-1605.88,-1706.98,1.0400199004974873
0,-2042.23,-939.41,-1621.77,-1713.48,1.0450199961729503
0,-2029.17,-923.56,-1604.15,-1698.54,1.0500200918484204
0,-2031.84,-932.11,-1601.64,-1696.74,1.0550201875238905
0,-2007.61,-917.82,-1590.75,-1685.51,1.0600202831993606
0,-2015.05,-916.4,-1594.89,-1684.13,1.0650203788748307
0,-2010.29,-912.95,-1587.97,-1681.72,1.0700204745502937
0,-2005.56,-898.59,-1567.72,-1681.65,1.0750205702257638
0,-1992.08,-900.89,-1572.12,-1679.58,1.080020665901234
0,-1998.51,-906.77,-1578.83,-1682.71,1.085020761576704
0,-2012.03,-905.97,-1585.83,-1685.57,1.0900208572521741
0,-1995.92,-912.58,-1585.84,-1682.42,1.0950209529276371
0,-2010.13,-914.66,-1587.25,-1678.89,1.1000210486031072
0,-2016.53,-926.53,-1596.83,-1693.88,1.1050211442785773
0,-2028.84,-931.33,-1604.95,-1698.44,1.1100212399540474
0,-2007.8,-922.93,-1606.01,-1692.68,1.1150213356295176
0,-2021.63,-935.84,-1601.36,-1704.06,1.1200214313049806
0,-2023.83,-934.42,-1603.73,-1706.2,1.1250215269804507
0,-2023.14,-926.89,-1600.59,-1698.41,1.1300216226559208
0,-2001.71,-923.35,-1590.33,-1693.82,1.1350217183313909
0,-2008.33,-916.53,-1589.13,-1689.93,1.140021814006861
0,-2011.68,-917.67,-1594.5,-1687.28,1.145021909682324
0,-2007.37,-923.33,-1596.31,-1700.01,1.150022005357794
0,-2009.05,-916.29,-1572.03,-1684.07,1.1550221010332642
0,-2016.64,-930.88,-1596.17,-1693.44,1.1600221967087343
0,-2018.12,-925.1,-1598.63,-1680.61,1.1650222923842044
0,-2018.71,-925.52,-1606.24,-1685.53,1.1700223880596674
0,-2007.79,-922.83,-1600.15,-1677.43,1.1750224837351375
0,-2019.58,-922.3,-1599.03,-1679.68,1.1800225794106076
0,-2026.91,-924.37,-1600.37,-1682.98,1.1850226750860777
0,-2019.48,-918.84,-1590.26,-1679.29,1.1900227707615478
0,-2024.02,-911.45,-1591.35,-1675.78,1.1950228664370108
0,-2014.87,-914.36,-1582.79,-1679.84,1.200022962112481
0,-2006.68,-901.0,-1565.51,-1665.66,1.205023057787951
0,-2007.99,-906.67,-1581.56,-1679.38,1.2100231534634212
0,-2025.74,-915.43,-1593.89,-1689.97,1.2150232491388913
0,-2038.01,-930.65,-1613.48,-1707.36,1.2200233448143543
0,-2048.66,-944.64,-1629.61,-1713.98,1.2250234404898244
0,-2034.19,-942.19,-1612.22,-1700.9,1.2300235361652945
0,-2026.88,-944.39,-1624.9,-1702.0,1.2350236318407646
0,-2041.49,-939.49,-1619.04,-1703.62,1.2400237275162347
0,-2022.48,-933.85,-1616.76,-1700.64,1.2450238231916977
0,-2027.07,-932.36,-1610.28,-1699.0,1.2500239188671678
0,-2034.18,-935.1,-1618.11,-1701.73,1.255024014542638
0,-2027.0,-927.31,-1603.72,-1697.29,1.260024110218108
0,-2026.06,-919.3,-1598.63,-1685.38,1.2650242058935781
0,-2013.23,-913.0,-1576.73,-1682.38,1.2700243015690411
0,-1994.94,-904.85,-1579.97,-1682.21,1.2750243972445112
0,-2005.98,-899.85,-1580.62,-1677.03,1.2800244929199813
0,-1973.61,-896.68,-1574.1,-1677.14,1.2850245885954514
0,-1992.7,-899.66,-1565.33,-1676.46,1.2900246842709215
0,-1999.54,-903.96,-1585.81,-1687.77,1.2950247799463845
0,-1982.0,-897.63,-1577.55,-1686.23,1.3000248756218546
0,-1995.38,-892.33,-1567.25,-1682.46,1.3050249712973248
0,-1976.07,-878.27,-1567.84,-1674.82,1.3100250669727949
0,-1983.39,-864.05,-1549.53,-1669.25,1.315025162648265
0,-1974.8,-858.23,-1549.31,-1661.07,1.320025258323728
0,-1977.13,-862.2,-1545.98,-1661.6,1.325025353999198
0,-1961.1,-853.48,-1539.44,-1655.31,1.3300254496746682
0,-1962.41,-858.17,-1540.21,-1659.78,1.3350255453501383
0,-1973.38,-874.32,-1552.65,-1668.94,1.3400256410256084
0,-1976.5,-885.61,-1550.77,-1660.93,1.3450257367010714
0,-1974.4,-884.38,-1556.39,-1662.12,1.3500258323765415
0,-1988.1,-891.6,-1565.89,-1667.78,1.3550259280520116
0,-1969.26,-904.12,-1563.87,-1674.85,1.3600260237274817
0,-2006.27,-911.49,-1586.93,-1684.78,1.3650261194029518
0,-2020.0,-913.26,-1593.41,-1687.33,1.3700262150784148
0,-2013.03,-907.37,-1588.27,-1685.11,1.375026310753885
0,-2021.0,-912.49,-1589.26,-1693.53,1.380026406429355
0,-2014.96,-916.11,-1597.35,-1696.67,1.3850265021048251
0,-2025.88,-919.03,-1594.26,-1688.81,1.3900265977802952
0,-2019.45,-916.06,-1583.54,-1684.8,1.3950266934557582
0,-2017.25,-920.92,-1579.97,-1690.16,1.4000267891312284
0,-2025.92,-929.34,-1593.52,-1701.69,1.4050268848066985
0,-2040.47,-933.59,-1617.05,-1713.07,1.4100269804821686
0,-2032.48,-929.61,-1615.82,-1704.93,1.4150270761576387
0,-2028.4,-932.63,-1608.68,-1707.54,1.4200271718331017
0,-2052.36,-949.06,-1635.51,-1719.0,1.4250272675085718
0,-2036.38,-941.82,-1624.03,-1705.33,1.4300273631840419
0,-2051.16,-948.4,-1624.28,-1710.94,1.435027458859512
0,-2045.54,-943.98,-1616.82,-1713.45,1.440027554534982
0,-2034.71,-944.6,-1623.48,-1717.82,1.445027650210445
0,-2031.16,-943.8,-1620.25,-1720.27,1.4500277458859152
0,-2036.52,-948.2,-1627.97,-1716.0,1.4550278415613853
0,-2039.78,-944.83,-1623.37,-1709.13,1.4600279372368554
0,-2053.64,-947.99,-1627.1,-1700.76,1.4650280329123255
0,-2035.77,-946.56,-1615.43,-1690.81,1.4700281285877885
0,-2045.61,-947.59,-1614.16,-1694.32,1.4750282242632586
0,-2034.55,-939.52,-1612.28,-1697.49,1.4800283199387287
0,-2031.53,-939.4,-1617.06,-1699.45,1.4850284156141988
0,-2028.24,-931.93,-1593.26,-1688.37,1.490028511289669
0,-2011.29,-924.78,-1590.06,-1677.63,1.495028606965132
0,-2001.99,-920.7,-1581.07,-1673.8,1.500028702640602
0,-2007.05,-916.01,-1584.69,-1671.46,1.5050287983160722
0,-1995.48,-917.21,-1579.31,-1671.66,1.5100288939915423
0,-2028.18,-918.55,-1597.12,-1678.69,1.5150289896670124
0,-2031.22,-929.73,-1605.94,-1692.14,1.5200290853424754
0,-2055.44,-934.38,-1619.19,-1697.18,1.5250291810179455
0,-2047.92,-944.36,-1613.96,-1709.13,1.5300292766934156
0,-2043.05,-946.16,-1617.39,-1702.47,1.5350293723688857
0,-2040.26,-945.97,-1624.51,-1699.42,1.5400294680443487
0,-2044.85,-944.73,-1610.58,-1702.63,1.5450295637198188
0,-2040.76,-947.81,-1616.26,-1700.96,1.550029659395289
0,-2020.07,-933.23,-1601.91,-1693.19,1.555029755070759
0,-2018.8,-921.64,-1590.46,-1688.19,1.5600298507462291
0,-2022.09,-928.72,-1592.03,-1693.81,1.5650299464216921
0,-2014.15,-932.25,-1606.56,-1700.99,1.5700300420971622
0,-2029.68,-932.5,-1612.85,-1704.04,1.5750301377726323
0,-2037.07,-924.47,-1598.67,-1702.63,1.5800302334481025
0,-2040.05,-934.05,-1613.0,-1708.83,1.5850303291235726
0,-2031.11,-932.84,-1611.6,-1700.58,1.5900304247990356
0,-2027.4,-939.15,-1613.25,-1706.15,1.5950305204745057
0,-2036.79,-939.27,-1622.65,-1701.22,1.6000306161499758
0,-2033.86,-940.81,-1611.82,-1703.99,1.6050307118254459
0,-2023.46,-928.76,-1611.69,-1698.62,1.610030807500916
0,-2012.09,-919.97,-1595.81,-1695.83,1.615030903176379
0,-2033.23,-919.87,-1605.46,-1696.46,1.620030998851849
0,-2038.74,-929.09,-1604.09,-1705.99,1.6250310945273192
0,-2018.34,-922.9,-1601.41,-1702.26,1.6300311902027893
0,-2018.56,-913.45,-1599.47,-1691.24,1.6350312858782594
0,-2014.82,-911.15,-1596.94,-1685.16,1.6400313815537224
0,-2013.82,-917.54,-1594.24,-1681.6,1.6450314772291925
0,-2021.24,-916.53,-1590.25,-1677.97,1.6500315729046626
0,-2022.22,-925.74,-1601.79,-1693.16,1.6550316685801327
0,-2010.61,-911.87,-1597.62,-1685.37,1.6600317642556028
0,-2003.05,-918.07,-1595.38,-1690.66,1.6650318599310658
0,-1983.66,-913.48,-1587.83,-1685.04,1.670031955606536
0,-2025.83,-902.33,-1575.72,-1672.61,1.675032051282006
0,-2011.79,-912.47,-1573.68,-1672.26,1.6800321469574762
0,-2013.71,-914.79,-1575.59,-1675.67,1.6850322426329463
0,-1999.32,-902.34,-1574.18,-1665.94,1.6900323383084093
0,-2015.06,-922.95,-1582.75,-1684.04,1.6950324339838794
0,-2023.57,-920.15,-1589.27,-1686.97,1.7000325296593495
0,-1999.61,-927.82,-1605.04,-1693.34,1.7050326253348196
0,-1986.59,-922.69,-1595.93,-1687.76,1.7100327210102897
0,-2004.66,-929.31,-1603.11,-1689.2,1.7150328166857527
0,-2023.2,-924.55,-1599.43,-1687.48,1.7200329123612228
0,-2023.07,-924.93,-1596.94,-1689.22,1.725033008036693
0,-1999.8,-914.14,-1586.7,-1674.47,1.730033103712163
0,-2011.09,-911.06,-1586.81,-1677.25,1.7350331993876331
0,-2015.41,-917.91,-1581.69,-1686.75,1.7400332950630961
0,-2017.81,-919.29,-1594.44,-1690.28,1.7450333907385662
0,-2008.8,-924.59,-1601.94,-1696.11,1.7500334864140363
0,-2013.78,-917.76,-1600.24,-1689.88,1.7550335820895064
0,-2002.79,-916.09,-1585.79,-1682.82,1.7600336777649765
0,-2008.35,-924.29,-1590.7,-1693.03,1.7650337734404395
0,-2017.92,-926.58,-1594.05,-1693.89,1.7700338691159097
0,-2015.58,-918.45,-1606.03,-1694.63,1.7750339647913798
0,-2037.31,-922.29,-1608.48,-1702.92,1.7800340604668499
0,-2021.24,-926.21,-1609.75,-1703.02,1.78503415614232
0,-2021.24,-922.73,-1603.9,-1713.5,1.790034251817783
0,-1993.85,-925.63,-1603.33,-1711.28,1.795034347493253
0,-2021.71,-928.3,-1605.9,-1713.21,1.8000344431687232
0,-2022.4,-925.5,-1603.75,-1698.24,1.8050345388441933
0,-2042.22,-930.9,-1602.93,-1701.32,1.8100346345196634
0,-2028.4,-925.77,-1607.46,-1695.15,1.8150347301951264
0,-2043.37,-928.44,-1621.24,-1704.05,1.8200348258705965
0,-2032.74,-926.34,-1610.14,-1700.13,1.8250349215460666
0,-2012.47,-924.72,-1604.92,-1698.31,1.8300350172215367
0,-2027.95,-928.34,-1609.63,-1700.95,1.8350351128970068
0,-1997.16,-921.48,-1598.32,-1692.2,1.8400352085724698
0,-2037.85,-926.76,-1591.91,-1695.26,1.84503530424794
0,-2025.77,-926.81,-1599.7,-1703.34,1.85003539992341
0,-2024.14,-927.28,-1601.66,-1700.99,1.8550354955988801
0,-2022.08,-924.16,-1592.67,-1693.39,1.8600355912743503
0,-1999.22,-918.5,-1599.39,-1687.43,1.8650356869498133
0,-2029.85,-923.28,-1590.51,-1684.46,1.8700357826252834
0,-2034.25,-922.69,-1600.13,-1683.22,1.8750358783007535
0,-2042.6,-925.03,-1593.47,-1685.29,1.8800359739762236
0,-2043.92,-929.9,-1601.51,-1695.14,1.8850360696516937
0,-2007.83,-924.65,-1594.85,-1694.55,1.8900361653271567
0,-2031.81,-925.02,-1599.72,-1690.57,1.8950362610026268
0,-2004.57,-915.26,-1595.47,-1685.08,1.900036356678097
0,-2001.76,-915.26,-1593.6,-1681.42,1.905036452353567
0,-2000.88,-913.27,-1586.45,-1677.57,1.910036548029037
0,-1992.51,-906.62,-1569.35,-1670.72,1.9150366437045
0,-2002.37,-911.13,-1587.44,-1684.7,1.9200367393799702
0,-2010.52,-915.23,-1592.01,-1686.06,1.9250368350554403
0,-2018.57,-922.33,-1592.18,-1697.98,1.9300369307309104
0,-2021.53,-924.9,-1593.57,-1694.96,1.9350370264063805
0,-2026.1,-920.29,-1606.02,-1695.89,1.9400371220818435
0,-2032.91,-920.18,-1595.45,-1697.16,1.9450372177573136
0,-2033.18,-920.98,-1599.25,-1686.03,1.9500373134327837
0,-2033.57,-923.24,-1599.37,-1685.57,1.9550374091082539
0,-2043.79,-927.38,-1606.3,-1691.7,1.960037504783724
0,-1996.8,-924.66,-1609.05,-1694.47,1.965037600459187
0,-2036.64,-927.08,-1603.55,-1698.99,1.970037696134657
0,-2029.07,-930.05,-1601.61,-1699.69,1.9750377918101272
0,-2013.71,-931.94,-1603.09,-1703.24,1.9800378874855973
0,-1997.9,-927.65,-1614.0,-1697.59,1.9850379831610674
0,-2026.26,-928.44,-1608.83,-1688.13,1.9900380788365304
0,-2025.17,-926.64,-1597.38,-1689.16,1.9950381745120005
0,-2026.5,-923.82,-1598.56,-1688.42,2.0000382701874706
0,-2017.75,-912.69,-1591.19,-1682.53,2.0050383658629407
0,-2013.51,-909.38,-1588.64,-1683.07,2.010038461538411
0,-2011.39,-914.73,-1590.36,-1685.28,2.015038557213874
0,-2006.08,-919.34,-1592.58,-1686.37,2.020038652889344
0,-2024.47,-924.22,-1582.8,-1683.41,2.025038748564814
0,-2021.24,-911.31,-1588.21,-1681.72,2.030038844240284
0,-2015.97,-917.81,-1601.33,-1682.94,2.0350389399157542
0,-2008.88,-911.42,-1583.18,-1675.56,2.0400390355912172
0,-2006.19,-911.23,-1585.53,-1680.87,2.0450391312666873
0,-2016.23,-920.56,-1596.68,-1690.21,2.0500392269421575
0,-2019.47,-919.3,-1602.26,-1691.36,2.0550393226176276
0,-2010.29,-913.68,-1582.65,-1690.38,2.0600394182930977
0,-2028.82,-923.86,-1597.19,-1697.46,2.0650395139685607
0,-2023.48,-920.16,-1603.75,-1692.36,2.0700396096440308
0,-2007.63,-914.14,-1595.41,-1684.93,2.075039705319501
0,-2009.96,-911.87,-1588.76,-1681.97,2.080039800994971
0,-2002.47,-912.37,-1582.13,-1683.02,2.085039896670441
0,-2008.91,-919.35,-1588.45,-1687.63,2.090039992345904
0,-2014.27,-921.45,-1590.67,-1689.76,2.095040088021374
0,-2022.31,-921.27,-1600.24,-1702.07,2.1000401836968443
0,-2036.67,-931.76,-1611.46,-1708.71,2.1050402793723144
0,-2047.28,-947.27,-1617.91,-1718.09,2.1100403750477845
0,-2028.87,-927.2,-1602.0,-1692.28,2.1150404707232475
0,-2020.58,-927.14,-1606.81,-1687.38,2.1200405663987176
0,-2024.14,-926.38,-1602.16,-1684.68,2.1250406620741877
0,-2004.2,-922.84,-1594.8,-1680.06,2.130040757749658
0,-2020.04,-929.25,-1599.01,-1689.43,2.135040853425128
0,-2013.06,-933.83,-1597.63,-1692.68,2.140040949100591
0,-2020.3,-922.87,-1583.41,-1677.73,2.145041044776061
0,-2026.87,-923.23,-1597.13,-1685.49,2.150041140451531
0,-2015.23,-930.11,-1603.89,-1689.87,2.1550412361270013
0,-2010.15,-916.62,-1585.57,-1676.54,2.1600413318024714
0,-2019.24,-915.02,-1591.48,-1685.81,2.1650414274779344
0,-2013.85,-914.94,-1592.6,-1688.57,2.1700415231534045
0,-2016.37,-912.36,-1589.36,-1692.85,2.1750416188288746
0,-2022.38,-917.53,-1583.06,-1694.89,2.1800417145043447
0,-2018.78,-915.58,-1586.74,-1690.19,2.185041810179815
0,-2015.1,-924.11,-1598.38,-1692.82,2.190041905855278
0,-2023.66,-928.24,-1608.91,-1701.53,2.195042001530748
0,-2028.96,-928.59,-1604.22,-1705.18,2.200042097206218
0,-2025.79,-928.11,-1610.61,-1708.34,2.205042192881688
0,-2015.47,-925.08,-1587.55,-1694.81,2.2100422885571582
0,-2020.97,-933.48,-1611.65,-1701.88,2.2150423842326212
0,-2024.45,-932.89,-1608.98,-1697.51,2.2200424799080913
0,-2016.63,-918.95,-1593.29,-1681.22,2.2250425755835614
0,-1997.67,-909.79,-1585.38,-1671.42,2.2300426712590316
0,-2017.82,-908.29,-1575.23,-1672.58,2.2350427669345017
0,-2007.39,-912.54,-1585.91,-1675.38,2.2400428626099647
0,-2017.54,-915.55,-1589.05,-1678.99,2.2450429582854348
0,-2004.28,-917.16,-1593.69,-1682.54,2.250043053960905
0,-2006.47,-912.68,-1600.37,-1688.51,2.255043149636375
0,-2024.5,-923.22,-1602.85,-1693.24,2.260043245311845
0,-2002.3,-914.2,-1589.03,-1683.96,2.265043340987308
0,-2034.55,-915.06,-1577.84,-1681.77,2.270043436662778
0,-1988.36,-911.69,-1589.0,-1683.67,2.2750435323382483
0,-2015.65,-912.09,-1577.83,-1680.74,2.2800436280137184
0,-2031.92,-918.36,-1591.63,-1687.56,2.2850437236891885
0,-2010.5,-908.06,-1589.22,-1679.2,2.2900438193646515
0,-2026.79,-914.02,-1595.21,-1680.06,2.2950439150401216
0,-1990.76,-922.14,-1588.4,-1682.18,2.3000440107155917
0,-2001.16,-921.03,-1591.7,-1685.78,2.305044106391062
0,-2020.61,-921.21,-1596.95,-1686.49,2.310044202066525
0,-2023.85,-922.7,-1600.14,-1692.76,2.315044297741995
0,-1978.79,-922.56,-1597.92,-1698.7,2.320044393417465
0,-2000.22,-917.41,-1590.81,-1695.23,2.325044489092935
0,-2024.93,-919.39,-1597.61,-1699.75,2.3300445847684053
0,-2035.41,-915.02,-1591.76,-1690.82,2.3350446804438683
0,-2007.15,-911.41,-1587.87,-1700.13,2.3400447761193384
0,-1985.47,-914.57,-1578.02,-1696.69,2.3450448717948085
0,-2033.08,-922.48,-1585.15,-1701.37,2.3500449674702786
0,-2009.07,-923.53,-1593.08,-1698.19,2.3550450631457487
0,-2013.52,-921.52,-1603.66,-1696.81,2.3600451588212117
0,-2029.78,-926.92,-1608.79,-1698.81,2.365045254496682
0,-1988.32,-922.48,-1594.39,-1688.82,2.370045350172152
0,-1994.85,-919.86,-1604.48,-1686.59,2.375045445847622
0,-2023.56,-921.34,-1598.26,-1688.17,2.380045541523092
0,-2030.64,-918.63,-1593.59,-1691.33,2.385045637198555
0,-2028.01,-924.16,-1599.38,-1689.06,2.390045732874025
0,-2027.75,-936.36,-1611.89,-1697.22,2.3950458285494953
0,-2030.79,-931.89,-1604.17,-1692.31,2.4000459242249654
0,-2029.66,-926.83,-1600.55,-1691.76,2.4050460199004355
0,-2044.42,-920.95,-1589.38,-1691.36,2.4100461155758985
0,-2007.94,-925.28,-1603.65,-1694.72,2.4150462112513686
0,-2022.69,-922.81,-1603.31,-1687.07,2.4200463069268388
0,-2043.07,-929.88,-1609.01,-1697.45,2.425046402602309
0,-2033.64,-924.01,-1602.78,-1689.57,2.430046498277779
0,-2042.09,-918.42,-1603.19,-1678.79,2.435046593953242
0,-2035.29,-927.13,-1601.02,-1688.39,2.440046689628712
0,-2024.94,-927.98,-1590.52,-1684.09,2.445046785304182
0,-2012.67,-922.7,-1584.94,-1686.08,2.4500468809796523
0,-2007.8,-925.13,-1592.83,-1689.58,2.4550469766551224
0,-1983.79,-921.1,-1598.91,-1684.93,2.4600470723305854
0,-1998.97,-926.24,-1604.11,-1688.18,2.4650471680060555
0,-2029.44,-935.85,-1607.69,-1707.53,2.4700472636815256
0,-2017.55,-932.12,-1600.61,-1708.86,2.4750473593569957
0,-2030.4,-916.22,-1588.67,-1690.45,2.480047455032466
0,-1987.71,-911.46,-1584.46,-1685.59,2.485047550707929
0,-1983.93,-915.2,-1589.87,-1685.4,2.490047646383399
0,-2027.94,-916.37,-1593.05,-1683.24,2.495047742058869
0,-2008.09,-916.51,-1587.86,-1684.77,2.500047837734339
0,-2003.21,-917.91,-1589.37,-1691.17,2.5050479334098092
0,-2016.37,-907.58,-1580.28,-1685.68,2.5100480290852722
0,-2021.23,-911.15,-1592.77,-1694.08,2.5150481247607424
0,-2016.68,-916.22,-1590.46,-1706.33,2.5200482204362125
0,-2043.03,-925.71,-1604.89,-1712.8,2.5250483161116826
0,-2019.16,-916.81,-1601.16,-1701.91,2.5300484117871527
0,-2028.55,-921.0,-1594.8,-1700.2,2.5350485074626157
0,-2020.13,-919.63,-1587.89,-1691.83,2.540048603138086
0,-2007.17,-919.94,-1598.34,-1696.67,2.545048698813556
0,-2005.12,-921.6,-1598.59,-1699.93,2.550048794489026
0,-2030.44,-928.04,-1603.02,-1700.54,2.555048890164496
0,-2022.56,-925.69,-1599.25,-1700.28,2.560048985839959
0,-2027.19,-931.06,-1597.59,-1706.19,2.565049081515429
0,-2026.35,-927.47,-1593.98,-1696.19,2.5700491771908993
0,-2024.17,-922.95,-1602.94,-1700.17,2.5750492728663694
0,-2022.27,-929.48,-1612.16,-1702.82,2.5800493685418395
0,-2050.76,-930.69,-1609.97,-1710.66,2.5850494642173025
0,-2034.88,-935.2,-1611.63,-1706.05,2.5900495598927726
0,-2025.05,-926.35,-1605.86,-1693.83,2.5950496555682427
0,-2048.67,-938.08,-1614.53,-1702.78,2.600049751243713
0,-2030.62,-931.1,-1611.76,-1694.48,2.605049846919183
0,-2001.72,-932.98,-1611.53,-1702.95,2.610049942594646
0,-2029.54,-937.8,-1607.46,-1715.89,2.615050038270116
0,-2007.53,-931.82,-1614.6,-1705.81,2.620050133945586
0,-2003.94,-927.28,-1612.75,-1710.32,2.6250502296210563
0,-2009.15,-921.11,-1587.96,-1698.28,2.6300503252965264
0,-2018.25,-927.14,-1600.3,-1697.1,2.6350504209719894
0,-2014.73,-919.36,-1597.95,-1689.23,2.6400505166474595
0,-2023.64,-922.81,-1604.6,-1697.06,2.6450506123229296
0,-2014.01,-932.91,-1609.21,-1692.88,2.6500507079983997
0,-2020.12,-935.31,-1598.98,-1688.19,2.65505080367387
0,-1999.93,-936.23,-1603.62,-1686.42,2.660050899349333
0,-2050.1,-929.89,-1600.27,-1680.24,2.665050995024803
0,-2016.86,-919.23,-1593.51,-1673.4,2.670051090700273
0,-2016.24,-919.39,-1591.01,-1690.7,2.675051186375743
0,-2012.54,-915.51,-1588.61,-1690.96,2.6800512820512132
0,-2021.17,-921.44,-1602.14,-1697.67,2.6850513777266762
0,-2005.14,-914.04,-1588.63,-1696.47,2.6900514734021463
0,-2027.61,-914.4,-1592.54,-1690.11,2.6950515690776164
0,-2014.06,-917.63,-1595.31,-1690.61,2.7000516647530866
0,-2019.14,-921.22,-1590.35,-1696.79,2.7050517604285567
0,-2029.44,-934.31,-1604.23,-1706.58,2.7100518561040197
0,-2036.22,-949.77,-1615.75,-1723.21,2.7150519517794898
0,-2053.39,-957.44,-1629.82,-1724.77,2.72005204745496
0,-2062.7,-962.07,-1636.68,-1723.76,2.72505214313043
0,-2047.31,-945.01,-1630.63,-1711.11,2.7300522388059
0,-2029.32,-934.99,-1624.08,-1705.82,2.735052334481363
0,-2037.6,-930.22,-1613.64,-1700.79,2.740052430156833
0,-2035.53,-905.0,-1584.61,-1694.71,2.7450525258323033
0,-2036.84,-907.61,-1600.72,-1693.84,2.7500526215077734
0,-2043.24,-916.08,-1602.39,-1695.29,2.7550527171832435
0,-2020.3,-915.62,-1592.35,-1692.89,2.7600528128587065
0,-2006.39,-924.82,-1604.04,-1698.9,2.7650529085341766
0,-2019.31,-927.43,-1593.94,-1698.21,2.7700530042096467
0,-2019.62,-930.33,-1596.74,-1697.05,2.775053099885117
0,-2043.7,-925.66,-1605.27,-1695.83,2.780053195560587
0,-2042.82,-927.93,-1603.63,-1686.27,2.78505329123605
0,-2040.25,-934.74,-1611.09,-1683.21,2.79005338691152
0,-2000.86,-920.84,-1582.81,-1668.2,2.79505348258699
0,-1995.37,-917.47,-1568.09,-1661.08,2.8000535782624603
0,-1999.88,-909.3,-1572.95,-1662.92,2.8050536739379304
0,-1990.56,-906.55,-1578.0,-1669.37,2.8100537696133934
0,-1991.56,-904.0,-1576.23,-1676.13,2.8150538652888635
0,-2016.99,-905.77,-1587.08,-1685.79,2.8200539609643336
0,-2004.21,-909.26,-1592.22,-1691.99,2.8250540566398037
0,-1991.0,-915.75,-1591.14,-1688.87,2.830054152315274
0,-2015.92,-916.85,-1589.62,-1694.23,2.835054247990737
0,-2043.09,-916.03,-1591.08,-1686.03,2.840054343666207
0,-2017.07,-921.81,-1604.86,-1690.35,2.845054439341677
0,-2014.58,-919.48,-1602.46,-1689.89,2.850054535017147
0,-2032.66,-936.67,-1611.2,-1707.77,2.8550546306926172
0,-2027.09,-934.89,-1608.65,-1705.91,2.8600547263680802
0,-2015.15,-927.29,-1608.54,-1704.11,2.8650548220435503
0,-2037.85,-937.37,-1616.0,-1702.75,2.8700549177190204
0,-2010.36,-934.96,-1605.91,-1694.24,2.8750550133944905
0,-2033.01,-921.22,-1591.45,-1688.46,2.8800551090699607
0,-2026.16,-918.07,-1595.58,-1686.98,2.8850552047454237
0,-2006.79,-909.19,-1580.11,-1673.59,2.8900553004208938
0,-1997.87,-911.76,-1585.75,-1672.31,2.895055396096364
0,-1990.41,-903.79,-1577.58,-1661.88,2.900055491771834
0,-1980.64,-893.43,-1559.65,-1647.63,2.905055587447304
0,-1989.2,-896.27,-1547.2,-1652.25,2.910055683122767
0,-1985.49,-900.63,-1573.34,-1658.95,2.915055778798237
0,-1994.43,-900.59,-1587.83,-1671.39,2.9200558744737073
0,-2010.54,-912.0,-1587.27,-1681.27,2.9250559701491774
0,-1995.96,-924.69,-1599.81,-1690.81,2.9300560658246475
0,-2005.59,-921.43,-1598.02,-1688.25,2.9350561615001105
0,-2024.9,-918.76,-1601.31,-1689.27,2.9400562571755806
0,-2013.89,-918.49,-1604.15,-1690.32,2.9450563528510507
0,-2005.91,-911.68,-1597.37,-1688.54,2.950056448526521
0,-2021.42,-914.3,-1601.79,-1698.2,2.955056544201991
0,-2004.25,-922.39,-1595.58,-1696.87,2.960056639877454
0,-2011.63,-924.85,-1606.2,-1695.5,2.965056735552924
0,-2031.8,-936.93,-1614.25,-1705.37,2.970056831228394
0,-2036.23,-934.25,-1606.94,-1695.45,2.9750569269038643
0,-2034.89,-939.39,-1612.89,-1702.72,2.9800570225793344
0,-2033.22,-941.57,-1605.97,-1697.64,2.9850571182547974
0,-2000.68,-928.06,-1598.05,-1691.25,2.9900572139302675
0,-2021.38,-925.02,-1588.7,-1690.07,2.9950573096057376
0,-2014.06,-914.07,-1571.01,-1683.64,3.0000574052812077
0,-2015.92,-914.99,-1571.84,-1688.81,3.005057500956678
0,-1990.77,-908.74,-1572.79,-1683.79,3.010057596632141
0,-1999.47,-911.45,-1584.02,-1684.06,3.015057692307611
0,-2023.8,-915.66,-1588.37,-1691.9,3.020057787983081
0,-2038.43,-920.64,-1608.47,-1703.96,3.025057883658551
0,-2029.97,-934.28,-1617.04,-1708.71,3.030057979334021
0,-2048.06,-930.94,-1603.21,-1706.34,3.035058075009484
0,-2045.54,-932.24,-1615.28,-1702.17,3.0400581706849543
0,-2040.14,-930.99,-1605.41,-1705.13,3.0450582663604244
0,-2017.87,-921.69,-1596.83,-1694.5,3.0500583620358945
0,-2016.36,-928.41,-1604.5,-1694.97,3.0550584577113646
0,-2045.43,-928.25,-1602.23,-1694.93,3.0600585533868276
0,-2021.49,-925.53,-1602.5,-1697.56,3.0650586490622977
0,-2030.18,-926.47,-1614.45,-1701.03,3.070058744737768
0,-2033.1,-924.16,-1602.34,-1695.41,3.075058840413238
0,-2025.71,-916.92,-1593.77,-1686.94,3.080058936088701
0,-2026.37,-920.19,-1602.09,-1688.23,3.085059031764171
0,-2017.91,-912.35,-1597.68,-1681.69,3.090059127439641
0,-2017.8,-916.36,-1578.21,-1679.77,3.0950592231151113
0,-2027.9,-918.53,-1583.99,-1687.33,3.1000593187905814
0,-1998.2,-913.14,-1586.88,-1691.53,3.1050594144660444
0,-1994.72,-914.29,-1593.6,-1699.78,3.1100595101415145
0,-2022.35,-913.85,-1602.17,-1703.64,3.1150596058169846
0,-1999.56,-924.87,-1592.19,-1699.26,3.1200597014924547
0,-2017.62,-927.72,-1600.64,-1702.47,3.125059797167925
0,-1991.52,-925.19,-1599.98,-1705.03,3.130059892843388
0,-2018.38,-924.32,-1604.89,-1700.75,3.135059988518858
0,-2020.13,-931.06,-1609.6,-1706.98,3.140060084194328
0,-1998.98,-931.88,-1608.35,-1707.94,3.145060179869798
0,-2012.95,-920.52,-1604.5,-1696.9,3.1500602755452682
0,-2030.61,-915.63,-1590.07,-1694.52,3.1550603712207312
0,-2030.86,-917.28,-1596.06,-1690.86,3.1600604668962013
0,-2037.77,-919.96,-1601.36,-1689.57,3.1650605625716715
0,-2016.34,-917.56,-1596.4,-1688.85,3.1700606582471416
0,-2015.48,-916.1,-1589.53,-1687.41,3.1750607539226117
0,-2019.76,-910.12,-1591.42,-1687.3,3.1800608495980747
0,-2013.58,-918.02,-1599.4,-1690.71,3.1850609452735448
0,-2020.67,-918.78,-1595.03,-1694.71,3.190061040949015
0,-2004.34,-918.39,-1590.22,-1693.93,3.195061136624485
0,-2015.19,-917.85,-1600.96,-1697.07,3.200061232299955
0,-2030.41,-927.38,-1607.58,-1702.55,3.205061327975418
0,-2014.35,-927.04,-1599.44,-1691.77,3.210061423650888
0,-2037.19,-933.77,-1596.22,-1695.74,3.2150615193263583
0,-2014.68,-926.84,-1590.61,-1689.25,3.2200616150018284
0,-2026.35,-931.02,-1611.07,-1689.42,3.2250617106772985
0,-2005.84,-925.88,-1603.59,-1685.49,3.2300618063527615
0,-2030.36,-926.39,-1598.11,-1686.6,3.2350619020282316
0,-2029.17,-924.36,-1597.65,-1686.96,3.2400619977037017
0,-2012.46,-927.85,-1591.55,-1686.69,3.245062093379172
0,-2010.8,-923.64,-1592.01,-1687.5,3.250062189054642
0,-2017.74,-926.48,-1608.28,-1690.54,3.255062284730105
0,-1994.01,-921.53,-1596.05,-1693.41,3.260062380405575
0,-2022.84,-926.5,-1597.49,-1691.31,3.265062476081045
0,-1986.95,-928.53,-1606.73,-1698.97,3.2700625717565153
0,-2013.35,-925.98,-1599.74,-1693.83,3.2750626674319854
0,-2010.81,-919.73,-1588.7,-1683.44,3.2800627631074484
0,-2025.9,-915.34,-1592.16,-1682.95,3.2850628587829185
0,-2025.65,-922.37,-1599.59,-1690.99,3.2900629544583886
0,-2024.7,-923.94,-1597.89,-1693.77,3.2950630501338587
0,-2008.9,-921.6,-1599.61,-1697.98,3.300063145809329
0,-2023.64,-912.46,-1594.37,-1696.32,3.305063241484792
0,-2008.42,-902.85,-1577.57,-1681.9,3.310063337160262
0,-1990.81,-905.92,-1566.82,-1674.88,3.315063432835732
0,-2024.01,-906.96,-1568.49,-1684.3,3.320063528511202
0,-1982.89,-916.45,-1581.18,-1688.27,3.3250636241866722
0,-2002.54,-913.76,-1601.43,-1692.07,3.3300637198621352
0,-2044.25,-916.69,-1603.03,-1695.32,3.3350638155376053
0,-2015.29,-912.35,-1590.35,-1687.34,3.3400639112130754
0,-2043.86,-911.54,-1593.16,-1686.59,3.3450640068885455
0,-2007.96,-906.39,-1568.82,-1679.34,3.3500641025640157
0,-2013.1,-907.78,-1576.7,-1679.51,3.3550641982394787
0,-2000.31,-912.98,-1589.04,-1683.85,3.3600642939149488
0,-2025.88,-900.63,-1572.86,-1679.12,3.365064389590419
0,-2002.08,-916.14,-1595.27,-1689.56,3.370064485265889
0,-2009.75,-919.04,-1595.02,-1691.92,3.375064580941359
0,-2027.25,-924.0,-1591.68,-1691.03,3.380064676616822
0,-2019.82,-924.54,-1595.82,-1691.16,3.385064772292292
0,-2016.17,-922.83,-1603.0,-1688.76,3.3900648679677623
0,-2011.3,-916.39,-1595.29,-1682.62,3.3950649636432324
0,-2008.09,-922.5,-1597.03,-1695.89,3.4000650593187025
0,-2042.77,-931.71,-1602.1,-1699.75,3.4050651549941655
0,-2035.02,-934.0,-1604.99,-1702.4,3.4100652506696356
0,-2035.58,-925.82,-1612.56,-1695.24,3.4150653463451057
0,-2020.87,-934.77,-1620.06,-1703.78,3.420065442020576
0,-2019.51,-923.16,-1609.65,-1692.44,3.425065537696046
0,-2015.26,-929.63,-1603.96,-1688.35,3.430065633371509
0,-2024.74,-931.93,-1595.82,-1684.78,3.435065729046979
0,-2003.74,-928.11,-1598.35,-1693.16,3.440065824722449
0,-2024.28,-920.2,-1602.39,-1691.94,3.4450659203979193
0,-2017.69,-921.6,-1598.07,-1706.58,3.4500660160733894
0,-2020.77,-926.51,-1602.61,-1705.38,3.4550661117488524
0,-2019.99,-915.53,-1606.45,-1701.09,3.4600662074243225
0,-2007.5,-918.05,-1602.8,-1696.93,3.4650663030997926
0,-2038.83,-913.66,-1596.83,-1693.8,3.4700663987752627
0,-2023.42,-908.12,-1582.84,-1685.98,3.475066494450733
0,-2005.97,-913.49,-1584.58,-1688.73,3.480066590126196
0,-2003.01,-918.53,-1589.23,-1701.14,3.485066685801666
0,-2028.63,-906.85,-1585.6,-1686.28,3.490066781477136
0,-2013.73,-916.79,-1593.92,-1693.14,3.495066877152606
0,-2011.04,-921.85,-1593.16,-1688.11,3.500066972828076
0,-2014.14,-918.33,-1595.8,-1682.32,3.505067068503539
0,-2003.82,-919.16,-1582.79,-1677.74,3.5100671641790093
0,-2030.61,-910.69,-1581.9,-1676.96,3.5150672598544794
0,-2012.34,-917.73,-1590.2,-1685.78,3.5200673555299495
0,-1991.28,-917.92,-1580.41,-1684.18,3.5250674512054196
0,-2018.71,-915.06,-1585.24,-1680.83,3.5300675468808826
0,-2007.65,-917.11,-1592.04,-1683.77,3.5350676425563528
0,-2010.51,-919.13,-1596.39,-1678.71,3.540067738231823
0,-2026.15,-919.07,-1587.9,-1678.37,3.545067833907293
0,-2027.82,-921.9,-1594.45,-1679.18,3.550067929582763
0,-1998.88,-923.58,-1590.02,-1682.66,3.555068025258226
0,-2023.16,-924.15,-1596.21,-1688.14,3.560068120933696
0,-2032.1,-922.53,-1601.58,-1694.53,3.5650682166091663
0,-2044.02,-924.28,-1609.27,-1698.62,3.5700683122846364
0,-2043.06,-935.06,-1612.68,-1701.33,3.5750684079601065
0,-2053.57,-933.69,-1610.34,-1705.26,3.5800685036355695
0,-2022.6,-930.42,-1606.09,-1701.09,3.5850685993110396
0,-2012.29,-931.96,-1612.09,-1703.46,3.5900686949865097
0,-2029.19,-930.06,-1596.41,-1701.41,3.59506879066198
0,-2023.41,-932.04,-1612.51,-1701.43,3.60006888633745
0,-2049.44,-939.92,-1626.0,-1710.14,3.605068982012913
0,-2030.04,-931.21,-1600.07,-1703.37,3.610069077688383
0,-2037.07,-935.95,-1611.2,-1709.36,3.615069173363853
0,-2042.97,-939.87,-1621.43,-1714.28,3.6200692690393232
0,-2026.89,-936.66,-1610.57,-1708.23,3.6250693647147934
0,-2042.57,-922.09,-1604.06,-1696.49,3.6300694603902564
0,-1999.0,-921.38,-1598.72,-1689.9,3.6350695560657265
0,-2013.16,-923.69,-1591.02,-1689.33,3.6400696517411966
0,-2012.48,-918.28,-1592.18,-1690.18,3.6450697474166667
0,-2029.12,-927.34,-1595.59,-1693.35,3.650069843092137
0,-2022.01,-930.12,-1606.2,-1691.99,3.6550699387676
0,-2023.41,-934.93,-1611.92,-1692.61,3.66007003444307
0,-2017.31,-930.77,-1617.28,-1689.6,3.66507013011854
0,-2009.0,-928.33,-1597.77,-1686.85,3.67007022579401
0,-2020.42,-918.81,-1589.04,-1690.22,3.67507032146948
0,-2012.05,-915.79,-1582.03,-1684.83,3.680070417144943
0,-2045.01,-922.59,-1601.18,-1696.36,3.6850705128204133
0,-2033.91,-917.41,-1589.89,-1691.87,3.6900706084958834
0,-1995.9,-911.97,-1589.46,-1685.99,3.6950707041713535
0,-1998.49,-924.46,-1586.59,-1685.22,3.7000707998468236
0,-2021.35,-918.5,-1585.48,-1685.72,3.7050708955222866
0,-2011.63,-911.37,-1596.55,-1684.58,3.7100709911977567
0,-2008.8,-911.79,-1588.44,-1684.78,3.715071086873227
0,-2019.54,-907.15,-1572.6,-1673.31,3.720071182548697
0,-1995.81,-921.5,-1583.63,-1690.08,3.725071278224167
0,-2005.79,-922.28,-1603.87,-1692.45,3.73007137389963
0,-2011.59,-922.41,-1598.84,-1694.54,3.7350714695751
0,-2018.92,-926.69,-1602.44,-1693.31,3.7400715652505703
0,-2012.54,-914.04,-1584.02,-1682.2,3.7450716609260404
0,-2024.7,-909.93,-1571.77,-1683.05,3.7500717566015105
0,-2010.52,-915.3,-1593.46,-1681.82,3.7550718522769735
0,-2010.97,-910.4,-1577.14,-1676.48,3.7600719479524436
0,-2006.26,-910.99,-1588.9,-1680.47,3.7650720436279137
0,-1989.01,-911.33,-1588.68,-1680.62,3.770072139303384
0,-2000.07,-911.93,-1580.14,-1677.28,3.775072234978854
0,-2006.22,-917.07,-1585.52,-1682.46,3.780072330654317
0,-2019.73,-915.47,-1596.2,-1689.32,3.785072426329787
0,-2035.09,-923.3,-1603.63,-1688.25,3.790072522005257
0,-2028.67,-921.35,-1594.21,-1682.14,3.7950726176807272
0,-2017.03,-931.73,-1607.13,-1693.32,3.8000727133561973
0,-2019.23,-930.47,-1612.97,-1692.24,3.8050728090316603
0,-1999.58,-923.56,-1599.12,-1684.7,3.8100729047071304
0,-2018.92,-921.59,-1589.67,-1684.79,3.8150730003826006
0,-2020.25,-917.82,-1588.71,-1680.92,3.8200730960580707
0,-2008.2,-915.1,-1583.58,-1678.78,3.8250731917335408
0,-2014.7,-918.43,-1582.9,-1688.66,3.8300732874090038
0,-2015.07,-924.12,-1579.48,-1688.65,3.835073383084474
0,-2021.84,-927.38,-1596.59,-1694.41,3.840073478759944
0,-2007.25,-929.39,-1608.94,-1696.94,3.845073574435414
0,-2024.01,-932.58,-1612.68,-1695.21,3.850073670110877
0,-2037.8,-935.2,-1610.39,-1690.36,3.855073765786347
0,-1995.22,-934.74,-1613.46,-1687.78,3.8600738614618173
0,-2018.99,-923.77,-1593.21,-1687.0,3.8650739571372874
0,-2015.93,-921.86,-1598.58,-1686.85,3.8700740528127575
0,-2002.74,-926.39,-1603.43,-1683.67,3.8750741484882205
0,-2030.15,-922.65,-1591.71,-1689.15,3.8800742441636906
0,-2019.39,-929.51,-1600.22,-1696.24,3.8850743398391607
0,-2026.13,-922.1,-1598.58,-1691.38,3.890074435514631
0,-2004.3,-928.71,-1595.11,-1703.33,3.895074531190101
0,-2007.32,-929.69,-1598.89,-1703.34,3.900074626865564
0,-2033.88,-919.67,-1602.26,-1699.08,3.905074722541034
0,-2006.44,-919.21,-1597.53,-1698.83,3.910074818216504
0,-2019.0,-921.3,-1605.36,-1698.14,3.9150749138919743
0,-2023.04,-920.68,-1604.53,-1697.99,3.9200750095674444
0,-2057.0,-922.39,-1597.01,-1698.54,3.9250751052429074
0,-2007.47,-919.16,-1582.29,-1692.89,3.9300752009183775
0,-2006.67,-912.04,-1586.41,-1686.72,3.9350752965938476
0,-2017.04,-913.89,-1592.45,-1690.76,3.9400753922693177
0,-2021.99,-911.2,-1594.26,-1687.96,3.945075487944788
0,-2010.23,-919.59,-1594.62,-1696.25,3.950075583620251
0,-2030.24,-926.54,-1598.44,-1698.26,3.955075679295721
0,-2024.55,-928.18,-1598.85,-1695.82,3.960075774971191
0,-2023.31,-925.51,-1610.58,-1697.04,3.965075870646661
0,-2024.74,-925.07,-1604.42,-1695.52,3.9700759663221312
0,-2019.38,-926.02,-1590.04,-1690.56,3.9750760619975942
0,-2023.56,-923.79,-1591.82,-1688.51,3.9800761576730643
0,-2027.22,-923.47,-1600.8,-1690.92,3.9850762533485344
0,-2013.59,-916.72,-1597.01,-1690.06,3.9900763490240045
0,-2021.86,-921.82,-1595.27,-1687.61,3.9950764446994746
0,-2014.86,-920.62,-1600.23,-1689.29,4.000076540374938
0,-2008.37,-914.24,-1582.45,-1677.98,4.005076636050408
0,-2016.96,-916.62,-1594.29,-1679.87,4.010076731725878
0,-2017.67,-916.02,-1597.4,-1681.16,4.015076827401348
0,-2023.59,-914.15,-1595.62,-1682.26,4.020076923076818
0,-2008.17,-913.39,-1593.93,-1683.07,4.025077018752281
0,-2001.54,-911.09,-1586.99,-1679.7,4.030077114427751
0,-2004.1,-922.37,-1591.69,-1681.4,4.035077210103221
0,-1989.7,-914.79,-1579.69,-1681.03,4.040077305778691
0,-1999.07,-919.57,-1579.55,-1682.56,4.0450774014541615
0,-1999.77,-912.83,-1585.79,-1674.87,4.0500774971296245
0,-2020.47,-915.76,-1592.54,-1689.34,4.055077592805095
0,-2015.76,-912.48,-1590.65,-1687.62,4.060077688480565
0,-2010.83,-914.75,-1584.41,-1687.08,4.065077784156035
0,-2010.71,-914.13,-1591.26,-1689.28,4.070077879831505
0,-2020.97,-923.87,-1592.2,-1690.99,4.075077975506968
0,-2025.73,-935.34,-1613.37,-1706.56,4.080078071182438
0,-2024.37,-934.99,-1610.84,-1705.36,4.085078166857908
0,-2021.57,-933.45,-1608.25,-1703.62,4.090078262533378
0,-2020.66,-933.45,-1609.95,-1703.7,4.095078358208848
0,-2032.07,-930.21,-1608.34,-1700.86,4.100078453884311
0,-2033.2,-924.86,-1600.79,-1701.79,4.1050785495597815
0,-2010.19,-915.85,-1585.31,-1691.76,4.110078645235252
0,-2014.68,-915.64,-1590.97,-1686.85,4.115078740910722
0,-2022.21,-915.44,-1598.91,-1695.89,4.120078836586192
0,-2021.88,-922.64,-1596.6,-1694.68,4.125078932261655
0,-2024.18,-930.02,-1601.53,-1696.69,4.130079027937125
0,-2023.53,-923.33,-1595.22,-1697.92,4.135079123612595
0,-2031.09,-921.28,-1594.67,-1696.49,4.140079219288065
0,-2018.1,-915.88,-1592.54,-1692.83,4.145079314963535
0,-2011.05,-907.38,-1579.99,-1689.51,4.150079410638998
0,-2024.36,-925.21,-1600.05,-1698.48,4.155079506314468
0,-2023.6,-928.49,-1599.48,-1699.61,4.160079601989938
0,-2030.77,-933.54,-1609.04,-1701.87,4.1650796976654085
0,-2023.17,-929.15,-1609.56,-1699.71,4.170079793340879
0,-2024.5,-921.03,-1602.92,-1692.08,4.175079889016342
0,-2024.68,-916.58,-1603.6,-1695.4,4.180079984691812
0,-2022.89,-914.2,-1592.75,-1686.88,4.185080080367282
0,-2024.2,-919.48,-1589.01,-1685.45,4.190080176042752
0,-2032.52,-925.36,-1593.55,-1691.68,4.195080271718222
0,-2018.22,-927.09,-1594.43,-1694.42,4.200080367393685
0,-2013.2,-913.16,-1591.13,-1686.59,4.205080463069155
0,-2017.17,-915.33,-1595.74,-1684.17,4.210080558744625
0,-2006.46,-912.02,-1589.97,-1682.29,4.215080654420095
0,-2010.8,-920.71,-1596.62,-1684.98,4.2200807500955655
0,-1999.03,-923.84,-1585.15,-1689.96,4.2250808457710285
0,-2015.29,-918.73,-1588.06,-1689.41,4.230080941446499
0,-2022.38,-926.67,-1605.03,-1692.43,4.235081037121969
0,-2026.97,-930.76,-1600.29,-1696.54,4.240081132797439
0,-2013.63,-923.31,-1602.87,-1692.49,4.245081228472909
0,-2009.82,-918.03,-1596.7,-1685.95,4.250081324148372
0,-2033.55,-930.22,-1598.4,-1701.84,4.255081419823842
0,-2026.99,-926.86,-1602.42,-1694.96,4.260081515499312
0,-2024.0,-921.52,-1599.75,-1691.05,4.265081611174782
0,-2020.03,-926.45,-1602.21,-1699.68,4.270081706850252
0,-2017.81,-919.07,-1591.25,-1698.7,4.275081802525715
0,-2023.24,-924.26,-1603.31,-1700.05,4.2800818982011855
0,-2031.12,-932.64,-1614.12,-1707.42,4.285081993876656
0,-2027.08,-930.37,-1610.97,-1706.27,4.290082089552126
0,-2022.86,-928.14,-1608.44,-1703.5,4.295082185227596
0,-2025.61,-924.16,-1609.07,-1706.92,4.300082280903059
0,-2009.06,-923.72,-1600.56,-1694.09,4.305082376578529
0,-2025.22,-924.54,-1597.98,-1694.42,4.310082472253999
0,-2026.93,-922.53,-1600.53,-1697.94,4.315082567929469
0,-2021.92,-922.06,-1595.99,-1704.56,4.320082663604939
0,-2018.95,-927.72,-1606.2,-1694.87,4.325082759280402
0,-2018.26,-922.52,-1590.88,-1691.02,4.330082854955872
0,-2019.05,-928.9,-1602.04,-1693.24,4.335082950631342
0,-2028.44,-925.27,-1602.49,-1690.14,4.3400830463068125
0,-2021.9,-915.14,-1590.58,-1687.41,4.345083141982283
0,-2015.76,-916.43,-1587.85,-1683.94,4.350083237657746
0,-2009.04,-912.2,-1587.89,-1684.93,4.355083333333216
0,-2011.97,-916.3,-1598.89,-1689.44,4.360083429008686
0,-2016.52,-915.16,-1592.45,-1681.87,4.365083524684156
0,-2020.24,-924.69,-1595.64,-1688.77,4.370083620359626
0,-2025.59,-926.01,-1596.71,-1686.96,4.375083716035089
0,-2031.16,-924.33,-1598.54,-1692.36,4.380083811710559
0,-2032.53,-931.94,-1605.88,-1705.86,4.385083907386029
0,-2041.46,-931.0,-1607.13,-1704.95,4.390084003061499
0,-2038.85,-929.33,-1612.66,-1702.52,4.3950840987369695
0,-2028.76,-929.69,-1608.94,-1698.51,4.4000841944124325
0,-2042.26,-933.02,-1612.53,-1706.62,4.405084290087903
0,-2017.0,-923.36,-1595.52,-1693.97,4.410084385763373
0,-2016.92,-928.25,-1600.34,-1696.19,4.415084481438843
0,-2028.27,-928.86,-1610.29,-1700.28,4.420084577114313
0,-2020.47,-919.1,-1601.38,-1694.23,4.425084672789776
0,-2023.16,-926.64,-1598.62,-1697.13,4.430084768465246
0,-2018.06,-917.68,-1589.69,-1692.43,4.435084864140716
0,-2025.17,-922.06,-1600.47,-1692.55,4.440084959816186
0,-2015.72,-926.55,-1595.48,-1700.43,4.445085055491656
0,-2025.33,-927.33,-1595.42,-1704.5,4.450085151167119
0,-2018.6,-924.66,-1601.27,-1699.45,4.455085246842589
0,-2028.0,-927.04,-1615.62,-1697.56,4.4600853425180595
0,-2023.46,-919.14,-1597.06,-1682.7,4.46508543819353
0,-2027.51,-924.65,-1603.93,-1690.4,4.470085533869
0,-2031.14,-927.96,-1600.94,-1690.12,4.475085629544463
0,-2024.39,-930.38,-1600.13,-1700.71,4.480085725219933
0,-2027.23,-938.1,-1615.02,-1705.19,4.485085820895403
0,-2026.99,-938.29,-1620.94,-1705.01,4.490085916570873
0,-2035.77,-938.14,-1613.3,-1705.4,4.495086012246343
0,-2024.73,-928.52,-1607.75,-1697.97,4.500086107921806
0,-2020.89,-923.0,-1601.05,-1693.34,4.505086203597276
0,-2015.78,-912.15,-1593.17,-1687.85,4.510086299272746
0,-2019.93,-914.51,-1585.61,-1688.29,4.5150863949482165
0,-2025.74,-917.54,-1595.28,-1693.2,4.520086490623687
0,-2012.23,-911.44,-1599.04,-1687.74,4.52508658629915
0,-2029.34,-923.18,-1611.23,-1688.55,4.53008668197462
0,-2020.15,-928.76,-1600.06,-1694.69,4.53508677765009
0,-2016.94,-921.14,-1581.17,-1686.01,4.54008687332556
0,-2014.53,-923.33,-1598.28,-1690.82,4.54508696900103
0,-2014.76,-924.12,-1592.47,-1684.78,4.550087064676493
0,-2011.04,-918.12,-1586.09,-1683.04,4.555087160351963
0,-2010.19,-921.65,-1572.44,-1680.24,4.560087256027433
0,-2002.57,-912.25,-1576.61,-1671.72,4.565087351702903
0,-2004.2,-909.1,-1582.42,-1671.68,4.5700874473783735
0,-1997.39,-900.09,-1573.12,-1667.45,4.5750875430538365
0,-1992.11,-900.15,-1573.01,-1670.66,4.580087638729307
0,-2000.18,-910.68,-1587.73,-1683.69,4.585087734404777
0,-1984.28,-907.22,-1584.96,-1679.23,4.590087830080247
0,-1995.32,-919.97,-1588.3,-1686.28,4.595087925755717
0,-2016.36,-912.17,-1583.72,-1684.24,4.60008802143118
0,-1988.8,-906.9,-1576.19,-1678.0,4.60508811710665
0,-2015.17,-911.59,-1580.28,-1678.03,4.61008821278212
0,-2019.04,-915.64,-1581.0,-1682.42,4.61508830845759
0,-1970.42,-903.17,-1568.75,-1676.28,4.620088404133053
0,-2013.47,-907.06,-1569.7,-1679.42,4.625088499808523
0,-2005.41,-913.68,-1580.03,-1685.05,4.630088595483993
0,-2029.89,-919.36,-1585.24,-1684.16,4.6350886911594635
0,-2029.3,-915.36,-1584.0,-1685.05,4.640088786834934
0,-2021.39,-921.83,-1596.17,-1693.3,4.645088882510397
0,-2043.47,-928.49,-1606.09,-1702.11,4.650088978185867
0,-1974.16,-932.07,-1609.59,-1704.95,4.655089073861337
0,-1995.22,-922.28,-1604.67,-1690.3,4.660089169536807
0,-2019.29,-923.33,-1599.85,-1694.16,4.665089265212277
0,-2007.27,-911.94,-1586.65,-1685.4,4.67008936088774
0,-1997.67,-912.79,-1593.34,-1691.58,4.67508945656321
0,-2011.81,-914.87,-1589.51,-1691.89,4.68008955223868
0,-2034.03,-923.57,-1584.33,-1694.83,4.68508964791415
0,-1980.05,-929.32,-1594.72,-1694.67,4.6900897435896205
0,-1983.05,-917.14,-1590.95,-1682.66,4.6950898392650835
0,-1999.36,-910.96,-1594.79,-1678.89,4.700089934940554
0,-2026.81,-918.98,-1601.39,-1685.54,4.705090030616024
0,-2020.26,-917.2,-1603.97,-1688.7,4.710090126291494
0,-2063.73,-927.7,-1605.58,-1693.44,4.715090221966964
0,-2034.55,-920.91,-1607.71,-1693.98,4.720090317642427
0,-2043.28,-926.79,-1606.34,-1689.05,4.725090413317897
0,-2031.02,-928.25,-1597.77,-1686.7,4.730090508993367
0,-2033.81,-928.82,-1608.72,-1686.95,4.735090604668837
0,-2019.6,-924.15,-1603.43,-1685.76,4.740090700344307
0,-2054.97,-931.99,-1609.95,-1692.97,4.74509079601977
0,-2040.81,-930.58,-1611.67,-1696.8,4.7500908916952405
0,-2017.59,-919.47,-1601.59,-1693.2,4.755090987370711
0,-2013.35,-916.86,-1594.35,-1686.12,4.760091083046181
0,-2018.25,-922.95,-1594.64,-1686.62,4.765091178721651
0,-2034.54,-923.15,-1590.62,-1684.81,4.770091274397114
0,-1995.53,-915.63,-1585.78,-1678.55,4.775091370072584
0,-2028.96,-927.19,-1600.47,-1696.31,4.780091465748054
0,-2022.77,-924.21,-1588.53,-1698.28,4.785091561423524
0,-2024.71,-916.2,-1588.1,-1697.93,4.790091657098994
0,-2026.77,-918.85,-1596.48,-1693.7,4.795091752774457
0,-2014.48,-919.59,-1604.74,-1694.31,4.800091848449927
0,-1997.86,-918.15,-1590.61,-1689.01,4.805091944125397
0,-2025.69,-920.13,-1592.38,-1687.33,4.8100920398008675
0,-2004.1,-921.86,-1598.66,-1691.44,4.815092135476338
0,-2046.09,-929.68,-1602.26,-1694.22,4.820092231151801
0,-2026.46,-923.9,-1600.13,-1699.62,4.825092326827271
0,-1993.68,-923.77,-1604.01,-1706.67,4.830092422502741
0,-2018.23,-925.25,-1606.56,-1705.85,4.835092518178211
0,-2045.77,-919.59,-1593.88,-1697.15,4.840092613853681
0,-2014.85,-914.39,-1592.96,-1690.9,4.845092709529144
0,-2004.84,-911.29,-1581.09,-1689.9,4.850092805204614
0,-2019.58,-914.84,-1590.24,-1696.08,4.855092900880084
0,-2003.61,-918.12,-1601.54,-1694.24,4.860092996555554
0,-2016.67,-925.04,-1597.07,-1694.05,4.8650930922310245
0,-2036.98,-935.57,-1617.21,-1702.01,4.8700931879064875
0,-2034.66,-937.41,-1608.61,-1695.65,4.875093283581958
0,-2022.12,-935.09,-1613.36,-1698.19,4.880093379257428
0,-2042.04,-938.14,-1612.24,-1703.42,4.885093474932898
0,-2016.2,-930.16,-1599.76,-1699.53,4.890093570608368
0,-2032.04,-927.56,-1604.36,-1696.39,4.895093666283831
0,-2016.41,-918.77,-1600.55,-1686.92,4.900093761959301
0,-2014.64,-926.78,-1593.97,-1686.74,4.905093857634771
0,-2015.15,-930.24,-1606.11,-1693.06,4.910093953310241
0,-2028.13,-928.76,-1608.09,-1692.95,4.915094048985711
0,-2027.97,-920.7,-1600.12,-1689.9,4.920094144661174
0,-2032.83,-921.36,-1600.66,-1687.62,4.9250942403366444
0,-2043.66,-927.92,-1592.27,-1692.61,4.9300943360121146
0,-1995.3,-919.07,-1592.93,-1680.45,4.935094431687585
0,-2022.33,-921.03,-1595.13,-1690.9,4.940094527363055
0,-2016.5,-917.72,-1592.4,-1687.35,4.945094623038518
0,-2041.94,-924.18,-1601.74,-1691.4,4.950094718713988
0,-2008.5,-927.77,-1605.43,-1695.22,4.955094814389458
0,-2031.39,-933.57,-1610.9,-1701.39,4.960094910064928
0,-2017.44,-929.45,-1603.14,-1695.91,4.965095005740398
0,-2031.58,-919.46,-1605.41,-1692.47,4.970095101415861
0,-2016.47,-922.85,-1604.36,-1688.14,4.975095197091331
0,-2030.26,-915.08,-1599.18,-1692.34,4.980095292766801
0,-2005.88,-917.83,-1593.59,-1695.49,4.9850953884422715
0,-2016.39,-922.76,-1594.57,-1696.27,4.990095484117742
0,-2001.56,-916.83,-1589.55,-1687.1,4.995095579793205
0,-1983.25,-912.15,-1585.03,-1684.56,5.000095675468675
0,-2011.27,-914.65,-1586.23,-1687.15,5.005095771144145
0,-2028.38,-925.67,-1598.18,-1695.29,5.010095866819615
0,-2014.48,-929.61,-1590.27,-1691.43,5.015095962495085
0,-2020.81,-932.5,-1607.23,-1699.5,5.020096058170548
0,-2026.82,-935.46,-1609.09,-1703.68,5.025096153846018
0,-2026.12,-937.6,-1611.77,-1705.68,5.030096249521488
0,-2019.08,-932.85,-1610.08,-1699.36,5.035096345196958
0,-2020.54,-922.88,-1598.27,-1695.36,5.0400964408724285
0,-2021.23,-920.44,-1582.91,-1689.42,5.0450965365478915
0,-2010.05,-919.87,-1600.85,-1694.22,5.050096632223362
0,-2009.5,-923.92,-1595.47,-1691.1,5.055096727898832
0,-2026.38,-922.16,-1596.2,-1690.56,5.060096823574302
0,-2022.01,-918.58,-1583.01,-1686.45,5.065096919249772
0,-2030.73,-918.13,-1581.08,-1681.97,5.070097014925235
0,-2006.66,-920.14,-1585.21,-1688.18,5.075097110600705
0,-2013.55,-917.44,-1592.08,-1685.18,5.080097206276175
0,-2019.47,-921.23,-1601.22,-1681.27,5.085097301951645
0,-2007.16,-914.61,-1586.91,-1673.6,5.090097397627115
0,-1999.14,-912.88,-1591.17,-1673.08,5.095097493302578
0,-2022.61,-919.02,-1598.2,-1679.66,5.100097588978048
0,-2028.22,-912.43,-1596.31,-1680.22,5.1050976846535185
0,-2007.23,-918.45,-1591.85,-1685.59,5.110097780328989
0,-2025.01,-917.69,-1593.58,-1691.46,5.115097876004459
0,-2014.84,-921.42,-1597.19,-1701.23,5.120097971679922
0,-2032.88,-922.19,-1608.21,-1701.44,5.125098067355392
0,-2019.9,-921.36,-1595.66,-1690.01,5.130098163030862
0,-2018.95,-923.71,-1607.57,-1693.63,5.135098258706332
0,-2045.58,-928.86,-1609.45,-1704.87,5.140098354381802
0,-2019.28,-932.4,-1614.97,-1703.34,5.145098450057265
0,-2025.13,-920.05,-1603.41,-1698.71,5.150098545732735
0,-2018.02,-922.59,-1598.28,-1699.34,5.155098641408205
0,-2030.94,-937.69,-1609.14,-1714.3,5.1600987370836755
0,-2039.88,-939.97,-1615.32,-1714.8,5.165098832759146
0,-2044.41,-936.97,-1618.8,-1707.14,5.170098928434609
0,-2044.4,-940.98,-1622.37,-1711.04,5.175099024110079
0,-2036.89,-944.78,-1610.16,-1710.98,5.180099119785549
0,-2039.14,-942.78,-1617.02,-1713.62,5.185099215461019
0,-2027.25,-930.65,-1599.62,-1701.77,5.190099311136489
0,-2019.89,-923.45,-1589.72,-1690.36,5.195099406811952
0,-2017.33,-928.29,-1598.96,-1697.45,5.200099502487422
0,-2022.64,-927.76,-1610.06,-1700.0,5.205099598162892
0,-2030.19,-931.99,-1605.73,-1704.37,5.210099693838362
0,-2020.92,-925.81,-1588.46,-1706.21,5.2150997895138325
0,-2026.53,-918.58,-1590.31,-1697.61,5.2200998851892955
0,-2021.09,-918.34,-1587.1,-1697.91,5.225099980864766
0,-2016.71,-920.39,-1590.28,-1688.56,5.230100076540236
0,-2027.35,-927.2,-1604.07,-1699.18,5.235100172215706
0,-2007.17,-919.07,-1596.61,-1695.04,5.240100267891176
0,-2022.52,-924.07,-1602.0,-1701.3,5.245100363566639
0,-2027.9,-924.6,-1606.14,-1695.04,5.250100459242109
0,-2012.68,-923.84,-1604.45,-1693.75,5.255100554917579
0,-2013.43,-916.55,-1579.47,-1691.0,5.260100650593049
0,-2007.5,-908.6,-1583.17,-1690.44,5.265100746268519
0,-2006.07,-904.16,-1580.98,-1684.62,5.270100841943982
0,-2006.12,-910.71,-1594.32,-1696.04,5.275100937619452
0,-1997.93,-900.21,-1574.43,-1681.97,5.2801010332949225
0,-2002.62,-897.24,-1571.11,-1678.93,5.285101128970393
0,-2000.79,-888.75,-1573.79,-1671.25,5.290101224645863
0,-1997.43,-888.71,-1575.96,-1668.28,5.295101320321326
0,-1994.73,-899.38,-1585.55,-1679.44,5.300101415996796
0,-1996.08,-891.82,-1576.24,-1676.69,5.305101511672266
0,-1991.31,-891.26,-1570.15,-1683.19,5.310101607347736
0,-1999.17,-892.3,-1582.32,-1696.06,5.315101703023206
0,-2005.76,-897.14,-1577.34,-1698.7,5.320101798698669
0,-2004.38,-896.15,-1582.3,-1695.02,5.325101894374139
0,-1991.59,-890.59,-1575.06,-1677.88,5.330101990049609
0,-1984.67,-897.76,-1577.46,-1678.17,5.3351020857250795
0,-1991.27,-901.8,-1572.31,-1681.81,5.34010218140055
0,-1986.36,-901.39,-1582.3,-1685.39,5.345102277076013
0,-1995.94,-904.88,-1573.57,-1690.71,5.350102372751483
0,-2000.01,-910.07,-1589.58,-1690.36,5.355102468426953
0,-2003.97,-905.39,-1590.28,-1694.06,5.360102564102423
0,-2007.9,-911.65,-1600.77,-1701.97,5.365102659777893
0,-2022.53,-914.45,-1598.05,-1694.11,5.370102755453356
0,-2008.91,-908.97,-1592.54,-1685.63,5.375102851128826
0,-2025.4,-914.77,-1598.24,-1695.48,5.380102946804296
0,-2026.83,-923.76,-1604.99,-1699.01,5.385103042479766
0,-2003.43,-921.94,-1597.68,-1693.93,5.390103138155229
0,-2011.89,-914.49,-1593.01,-1681.41,5.3951032338306995
0,-2004.77,-923.14,-1590.23,-1685.74,5.40010332950617
0,-2025.23,-921.97,-1602.0,-1690.93,5.40510342518164
0,-2021.47,-919.36,-1600.85,-1683.21,5.41010352085711
0,-2024.61,-923.77,-1592.64,-1691.96,5.415103616532573
0,-2018.09,-916.21,-1575.8,-1688.27,5.420103712208043
0,-2022.53,-916.25,-1579.91,-1681.89,5.425103807883513
0,-2013.18,-913.12,-1574.68,-1673.62,5.430103903558983
0,-2019.99,-920.71,-1588.75,-1674.77,5.435103999234453
0,-2013.92,-922.01,-1593.86,-1677.87,5.440104094909916
0,-2014.12,-926.13,-1593.85,-1681.84,5.445104190585386
0,-2026.63,-926.75,-1601.75,-1683.31,5.450104286260856
0,-2024.22,-925.42,-1596.93,-1687.07,5.4551043819363265
0,-2018.65,-923.7,-1600.03,-1684.36,5.460104477611797
0,-2027.1,-924.56,-1604.56,-1679.82,5.46510457328726
0,-2025.07,-928.23,-1599.49,-1683.79,5.47010466896273
0,-2019.81,-929.86,-1589.2,-1686.24,5.4751047646382
0,-2027.72,-929.06,-1603.68,-1691.03,5.48010486031367
0,-2021.36,-930.34,-1610.23,-1697.63,5.48510495598914
0,-2026.06,-933.3,-1599.83,-1696.66,5.490105051664603
0,-2018.71,-924.33,-1582.76,-1686.43,5.495105147340073
0,-2009.47,-918.47,-1582.19,-1675.57,5.500105243015543
0,-2017.53,-914.67,-1591.05,-1676.1,5.505105338691013
0,-2019.23,-921.24,-1601.98,-1681.21,5.5101054343664835
0,-2010.73,-910.73,-1585.87,-1681.77,5.5151055300419465
0,-2015.87,-919.39,-1605.21,-1693.25,5.520105625717417
0,-2024.85,-928.71,-1602.26,-1695.01,5.525105721392887
0,-2030.42,-930.76,-1613.31,-1697.71,5.530105817068357
0,-2029.72,-930.88,-1608.15,-1688.61,5.535105912743827
0,-2027.31,-932.7,-1609.59,-1691.72,5.54010600841929
0,-2033.95,-936.45,-1605.46,-1696.77,5.54510610409476
0,-2023.38,-926.4,-1601.18,-1689.43,5.55010619977023
0,-2026.37,-930.63,-1605.74,-1689.88,5.5551062954457
0,-2032.1,-939.8,-1611.86,-1699.22,5.56010639112117
0,-2035.19,-928.72,-1617.75,-1700.63,5.565106486796633
0,-2023.9,-926.16,-1601.15,-1699.66,5.570106582472103
0,-2034.13,-923.14,-1602.0,-1703.27,5.5751066781475735
0,-2035.64,-932.72,-1613.86,-1708.65,5.580106773823044
0,-2034.95,-937.17,-1614.41,-1704.68,5.585106869498514
0,-2029.65,-934.19,-1609.6,-1698.76,5.590106965173977
0,-2040.17,-933.36,-1617.48,-1704.56,5.595107060849447
0,-2021.17,-924.21,-1599.67,-1692.73,5.600107156524917
0,-2024.83,-927.68,-1611.37,-1697.64,5.605107252200387
0,-2034.51,-936.27,-1616.93,-1700.38,5.610107347875857
0,-2024.41,-943.4,-1605.67,-1705.44,5.61510744355132
0,-2020.83,-933.87,-1605.62,-1693.14,5.62010753922679
0,-2014.73,-929.51,-1597.28,-1692.64,5.62510763490226
0,-2022.67,-923.55,-1594.17,-1695.13,5.6301077305777305
0,-2025.82,-933.53,-1608.14,-1703.44,5.635107826253201
0,-2033.82,-934.14,-1615.04,-1709.38,5.640107921928664
0,-2026.47,-930.75,-1604.96,-1697.33,5.645108017604134
0,-2033.23,-930.45,-1612.45,-1700.8,5.650108113279604
0,-2026.32,-933.05,-1608.55,-1707.87,5.655108208955074
0,-2026.8,-937.11,-1614.71,-1704.91,5.660108304630544
0,-2027.19,-931.7,-1608.23,-1701.04,5.665108400306007
0,-2015.63,-933.62,-1614.8,-1695.98,5.670108495981477
0,-2010.02,-924.57,-1595.66,-1687.56,5.675108591656947
0,-2012.94,-922.41,-1591.57,-1690.4,5.680108687332417
0,-2025.09,-933.95,-1602.5,-1698.72,5.6851087830078875
0,-2007.9,-924.36,-1601.09,-1691.72,5.6901088786833505
0,-2014.36,-923.79,-1600.02,-1694.45,5.695108974358821
0,-2016.66,-921.2,-1590.81,-1687.92,5.700109070034291
0,-2023.92,-926.48,-1602.06,-1699.24,5.705109165709761
0,-2028.79,-934.49,-1607.58,-1701.64,5.710109261385231
0,-2025.96,-927.52,-1599.61,-1701.17,5.715109357060694
0,-2026.3,-937.45,-1608.08,-1699.85,5.720109452736164
0,-2029.26,-942.68,-1615.68,-1706.98,5.725109548411634
0,-2039.34,-935.48,-1605.46,-1702.49,5.730109644087104
0,-2041.9,-935.62,-1606.34,-1697.36,5.735109739762574
0,-2016.43,-925.91,-1598.55,-1687.41,5.740109835438037
0,-2020.77,-915.41,-1582.13,-1678.39,5.745109931113507
0,-2013.31,-915.16,-1595.83,-1685.41,5.7501100267889775
0,-2012.23,-908.39,-1596.84,-1681.0,5.755110122464448
0,-2015.74,-911.54,-1595.76,-1684.83,5.760110218139918
0,-2021.54,-909.05,-1592.49,-1685.5,5.765110313815381
0,-2016.28,-909.27,-1592.35,-1686.53,5.770110409490851
0,-2033.67,-911.48,-1599.48,-1687.46,5.775110505166321
0,-2032.87,-916.53,-1590.83,-1698.82,5.780110600841791
0,-2016.3,-912.76,-1591.8,-1695.6,5.785110696517261
0,-2015.91,-908.44,-1586.66,-1695.67,5.790110792192724
0,-1996.51,-901.41,-1579.38,-1690.6,5.795110887868194
0,-2000.38,-892.9,-1570.08,-1685.75,5.800110983543664
0,-1987.35,-891.48,-1582.78,-1689.54,5.8051110792191345
0,-1993.21,-889.6,-1571.0,-1694.11,5.810111174894605
0,-1982.76,-875.35,-1557.24,-1693.47,5.815111270570068
0,-1985.06,-881.69,-1572.94,-1691.06,5.820111366245538
0,-1985.53,-888.05,-1574.58,-1692.7,5.825111461921008
0,-1970.86,-879.98,-1570.15,-1677.18,5.830111557596478
0,-1971.58,-878.15,-1562.21,-1674.47,5.835111653271948
0,-1967.44,-870.42,-1544.77,-1663.58,5.840111748947411
0,-1958.36,-876.27,-1547.83,-1665.3,5.845111844622881
0,-1975.61,-875.28,-1555.33,-1663.94,5.850111940298351
0,-1963.65,-879.66,-1550.51,-1663.6,5.855112035973821
0,-1971.4,-879.67,-1560.11,-1668.12,5.8601121316492915
0,-1981.12,-884.14,-1553.72,-1663.04,5.8651122273247545
0,-1990.79,-890.39,-1568.22,-1673.38,5.870112323000225
0,-1998.7,-903.02,-1587.91,-1691.83,5.875112418675695
0,-2020.26,-910.42,-1590.18,-1699.02,5.880112514351165
0,-2025.61,-916.0,-1604.94,-1701.05,5.885112610026635
0,-2018.57,-920.72,-1601.85,-1701.7,5.890112705702098
0,-2024.95,-925.02,-1601.76,-1700.54,5.895112801377568
0,-2024.72,-927.5,-1597.29,-1701.53,5.900112897053038
0,-2025.14,-927.47,-1609.2,-1701.43,5.905112992728508
0,-2028.15,-932.32,-1606.48,-1698.66,5.910113088403978
0,-2028.85,-931.15,-1608.78,-1705.87,5.915113184079441
0,-2037.01,-927.92,-1604.65,-1700.49,5.920113279754911
0,-2023.79,-926.79,-1595.73,-1698.15,5.9251133754303815
0,-2003.05,-919.27,-1591.87,-1687.78,5.930113471105852
0,-2019.24,-924.77,-1597.4,-1698.07,5.935113566781322
0,-2017.32,-921.6,-1599.94,-1692.93,5.940113662456785
0,-2038.16,-930.52,-1608.9,-1695.29,5.945113758132255
0,-2049.16,-932.97,-1609.64,-1700.6,5.950113853807725
0,-2053.98,-937.31,-1615.41,-1700.25,5.955113949483195
0,-2057.52,-938.31,-1630.87,-1709.5,5.960114045158665
0,-2069.75,-945.71,-1626.32,-1723.09,5.965114140834128
0,-2078.35,-963.57,-1639.89,-1727.87,5.970114236509598
0,-2069.15,-960.08,-1638.18,-1721.0,5.975114332185068
0,-2056.87,-962.9,-1638.8,-1724.28,5.9801144278605385
0,-2059.49,-963.28,-1636.34,-1717.6,5.985114523536009
0,-2054.89,-953.55,-1622.86,-1706.93,5.990114619211472
0,-2041.15,-938.87,-1620.27,-1701.24,5.995114714886942
0,-2027.88,-936.1,-1609.6,-1690.4,6.000114810562412
0,-2023.1,-933.68,-1599.98,-1685.8,6.005114906237882
0,-2010.82,-915.91,-1584.62,-1677.09,6.010115001913352
0,-1996.37,-917.26,-1590.41,-1676.83,6.015115097588815
0,-1980.48,-912.88,-1572.48,-1665.3,6.020115193264285
0,-1978.86,-911.04,-1570.85,-1659.62,6.025115288939755
0,-1987.25,-910.81,-1566.65,-1657.27,6.030115384615225
0,-1990.61,-920.78,-1575.87,-1667.73,6.0351154802906954
0,-2021.63,-935.29,-1600.67,-1681.66,6.0401155759661584
0,-2038.27,-946.47,-1614.43,-1685.5,6.0451156716416286
0,-2030.48,-946.79,-1618.03,-1687.06,6.050115767317099
0,-2049.24,-953.97,-1619.12,-1707.97,6.055115862992569
0,-2033.8,-938.88,-1608.68,-1699.36,6.060115958668039
0,-2047.35,-944.35,-1615.2,-1704.13,6.065116054343502
0,-2050.93,-941.9,-1625.03,-1702.14,6.070116150018972
0,-2042.85,-936.66,-1616.19,-1692.76,6.075116245694442
0,-2032.06,-931.94,-1598.77,-1688.52,6.080116341369912
0,-2029.8,-934.68,-1613.19,-1694.33,6.085116437045382
0,-2031.64,-937.74,-1616.32,-1697.08,6.090116532720845
0,-2039.64,-939.59,-1614.59,-1694.91,6.095116628396315
0,-2046.37,-942.8,-1614.91,-1703.53,6.1001167240717855
0,-2033.88,-939.95,-1614.68,-1700.45,6.105116819747256
0,-2038.26,-944.24,-1614.54,-1700.86,6.110116915422726
0,-2029.58,-928.64,-1601.64,-1688.1,6.115117011098189
0,-2019.72,-932.33,-1596.5,-1690.1,6.120117106773659
0,-2006.66,-919.5,-1582.62,-1685.32,6.125117202449129
0,-2007.54,-914.37,-1594.6,-1681.37,6.130117298124599
0,-2016.24,-923.86,-1600.86,-1679.13,6.135117393800069
0,-2013.3,-916.79,-1595.91,-1679.2,6.140117489475532
0,-2011.66,-914.94,-1589.05,-1677.09,6.145117585151002
0,-2023.54,-920.23,-1591.84,-1690.63,6.150117680826472
0,-2029.91,-920.85,-1599.51,-1693.23,6.1551177765019425
0,-2021.72,-920.96,-1606.5,-1690.16,6.1601178721774055
0,-2033.15,-930.31,-1614.8,-1696.24,6.165117967852876
0,-2029.77,-938.74,-1620.11,-1703.52,6.170118063528346
0,-2034.29,-939.43,-1619.59,-1705.66,6.175118159203816
0,-2047.58,-945.68,-1616.79,-1704.54,6.180118254879286
0,-2036.03,-943.19,-1610.22,-1713.1,6.185118350554749
0,-2032.93,-933.59,-1615.62,-1706.77,6.190118446230219
0,-2022.84,-923.76,-1603.26,-1704.67,6.195118541905689
0,-2041.14,-929.21,-1612.9,-1714.55,6.200118637581159
0,-2029.37,-924.43,-1599.41,-1708.26,6.205118733256629
0,-2031.82,-921.59,-1594.7,-1698.23,6.210118828932092
0,-2021.72,-917.89,-1597.98,-1690.42,6.215118924607562
0,-2018.18,-912.25,-1584.86,-1684.78,6.2201190202830325
0,-2003.51,-918.32,-1583.87,-1684.53,6.225119115958503
0,-2012.74,-910.8,-1589.84,-1680.15,6.230119211633973
0,-1991.61,-902.86,-1574.28,-1669.02,6.235119307309436
0,-2011.56,-913.71,-1590.65,-1682.4,6.240119402984906
0,-2012.06,-917.16,-1590.9,-1685.34,6.245119498660376
0,-2008.95,-919.47,-1596.94,-1681.21,6.250119594335846
0,-2015.22,-925.56,-1597.0,-1688.14,6.255119690011316
0,-2018.4,-927.7,-1597.93,-1695.15,6.260119785686779
0,-2014.96,-933.57,-1601.13,-1693.99,6.265119881362249
0,-2023.37,-932.43,-1610.18,-1699.66,6.270119977037719
0,-2011.94,-931.34,-1604.51,-1696.84,6.2751200727131895
0,-2020.61,-930.66,-1603.43,-1691.22,6.28012016838866
0,-2027.22,-932.08,-1601.6,-1692.08,6.285120264064123
0,-2036.81,-933.77,-1608.19,-1701.07,6.290120359739593
0,-2024.72,-927.02,-1605.09,-1700.65,6.295120455415063
0,-2027.25,-926.48,-1602.41,-1702.06,6.300120551090533
0,-2022.27,-919.5,-1606.74,-1694.16,6.305120646766003
0,-2012.46,-922.02,-1606.15,-1691.12,6.310120742441466
0,-2018.27,-920.28,-1593.95,-1695.92,6.315120838116936
0,-2007.69,-914.38,-1587.51,-1685.0,6.320120933792406
0,-2014.95,-914.62,-1590.58,-1679.08,6.325121029467876
0,-2005.35,-904.71,-1582.15,-1674.47,6.3301211251433465
0,-1988.05,-902.48,-1564.38,-1674.81,6.3351212208188095
0,-2005.7,-911.83,-1587.53,-1689.72,6.34012131649428
0,-2010.91,-908.59,-1586.09,-1691.11,6.34512141216975
0,-2023.17,-905.42,-1582.19,-1693.03,6.35012150784522
0,-2019.69,-923.18,-1603.7,-1702.37,6.35512160352069
0,-2023.14,-919.37,-1598.63,-1696.77,6.360121699196153
0,-2019.99,-921.28,-1590.28,-1700.7,6.365121794871623
0,-2029.91,-922.77,-1593.32,-1701.21,6.370121890547093
0,-2035.02,-928.71,-1614.09,-1704.23,6.375121986222563
0,-2025.32,-920.01,-1600.04,-1696.93,6.380122081898033
0,-2015.37,-926.32,-1598.07,-1692.31,6.385122177573496
0,-2028.59,-933.71,-1612.32,-1697.05,6.390122273248966
0,-2021.55,-936.98,-1602.69,-1701.82,6.3951223689244365
0,-2018.58,-937.79,-1606.75,-1703.44,6.400122464599907
0,-2028.33,-931.98,-1611.2,-1703.31,6.405122560275377
0,-2037.0,-933.17,-1609.69,-1715.65,6.41012265595084
0,-2026.08,-930.63,-1598.27,-1706.91,6.41512275162631
0,-2034.89,-934.1,-1606.23,-1704.06,6.42012284730178
0,-2022.65,-929.93,-1601.97,-1699.6,6.42512294297725
0,-2017.71,-927.54,-1601.18,-1696.49,6.43012303865272
0,-2015.54,-919.96,-1601.66,-1693.79,6.435123134328183
0,-2015.07,-917.66,-1592.37,-1692.1,6.440123230003653
0,-2010.54,-919.02,-1603.14,-1696.61,6.445123325679123
0,-2027.15,-924.32,-1610.37,-1702.53,6.4501234213545935
0,-2030.16,-920.63,-1595.67,-1695.64,6.455123517030064
0,-2028.84,-918.55,-1604.91,-1692.53,6.460123612705527
0,-2025.56,-929.02,-1604.14,-1701.15,6.465123708380997
0,-2020.8,-920.77,-1607.44,-1697.63,6.470123804056467
0,-2024.33,-929.95,-1608.29,-1700.4,6.475123899731937
0,-2016.66,-925.94,-1593.93,-1696.67,6.480123995407407
0,-2024.44,-933.85,-1611.03,-1700.62,6.48512409108287
0,-2019.74,-929.34,-1606.42,-1698.34,6.49012418675834
0,-2019.39,-929.85,-1601.14,-1698.15,6.49512428243381
0,-2029.17,-932.48,-1607.47,-1702.49,6.50012437810928
0,-2014.93,-925.24,-1598.86,-1692.24,6.5051244737847504
0,-2011.47,-920.99,-1600.22,-1691.23,6.5101245694602135
0,-2008.0,-916.94,-1593.45,-1686.83,6.515124665135684
0,-2025.42,-917.3,-1591.78,-1692.91,6.520124760811154
0,-2015.31,-914.02,-1589.02,-1692.81,6.525124856486624
0,-2016.95,-928.96,-1604.59,-1702.34,6.530124952162094
0,-2018.57,-918.62,-1589.18,-1699.82,6.535125047837557
0,-2014.14,-912.63,-1591.01,-1693.33,6.540125143513027
0,-2013.83,-916.26,-1586.84,-1692.94,6.545125239188497
0,-2008.1,-907.89,-1586.81,-1692.12,6.550125334863967
0,-2001.4,-902.53,-1579.1,-1682.99,6.555125430539437
0,-2013.82,-909.66,-1584.14,-1687.8,6.5601255262149
0,-2021.14,-920.99,-1590.57,-1697.19,6.56512562189037
0,-2010.92,-916.93,-1590.94,-1696.41,6.5701257175658405
0,-2021.08,-915.7,-1598.99,-1699.77,6.575125813241311
0,-2026.43,-919.41,-1606.2,-1699.78,6.580125908916781
0,-2032.16,-921.95,-1606.54,-1698.65,6.585126004592244
0,-2020.01,-908.08,-1586.77,-1693.7,6.590126100267714
0,-2036.08,-918.22,-1596.32,-1697.57,6.595126195943184
0,-2019.34,-915.13,-1600.82,-1693.51,6.600126291618654
0,-2018.34,-921.03,-1592.14,-1689.7,6.605126387294124
0,-2020.8,-924.7,-1598.48,-1684.02,6.610126482969587
0,-2032.96,-931.8,-1612.83,-1696.55,6.615126578645057
0,-2031.45,-931.44,-1603.76,-1694.6,6.620126674320527
0,-2029.73,-929.21,-1611.01,-1690.38,6.6251267699959975
0,-2031.87,-939.41,-1618.41,-1694.24,6.630126865671468
0,-2044.18,-947.76,-1625.24,-1709.36,6.635126961346931
0,-2032.19,-932.56,-1597.3,-1697.82,6.640127057022401
0,-2022.36,-927.03,-1599.79,-1693.06,6.645127152697871
0,-2023.81,-931.11,-1605.05,-1695.64,6.650127248373341
0,-2029.3,-934.7,-1600.13,-1693.83,6.655127344048811
0,-2025.31,-937.97,-1614.45,-1700.06,6.660127439724274
0,-2036.08,-936.61,-1622.94,-1700.14,6.665127535399744
0,-2028.5,-934.26,-1609.94,-1696.08,6.670127631075214
0,-2020.4,-930.65,-1607.46,-1692.06,6.675127726750684
0,-2031.28,-926.27,-1599.67,-1692.97,6.680127822426154
0,-2026.38,-927.46,-1599.91,-1695.93,6.685127918101617
0,-2013.17,-918.25,-1589.58,-1681.29,6.6901280137770875
0,-2022.11,-915.38,-1593.0,-1685.17,6.695128109452558
0,-2016.74,-912.12,-1583.85,-1685.78,6.700128205128028
0,-2005.27,-912.17,-1589.04,-1679.61,6.705128300803498
0,-2012.29,-907.81,-1578.02,-1669.62,6.710128396478961
0,-2013.73,-901.97,-1582.08,-1675.33,6.715128492154431
0,-2010.51,-911.34,-1580.39,-1678.35,6.720128587829901
0,-2013.96,-914.86,-1586.91,-1681.03,6.725128683505371
0,-2006.89,-914.79,-1585.0,-1686.79,6.730128779180841
0,-2004.93,-910.03,-1588.14,-1684.65,6.735128874856304
0,-2017.96,-918.64,-1594.44,-1691.39,6.740128970531774
0,-2022.32,-917.38,-1595.09,-1691.56,6.7451290662072445
0,-2006.69,-902.97,-1585.06,-1683.22,6.750129161882715
0,-2013.16,-906.78,-1584.86,-1689.48,6.755129257558185
0,-2009.71,-911.55,-1583.08,-1690.41,6.760129353233648
0,-2012.83,-914.86,-1591.51,-1692.1,6.765129448909118
0,-2021.94,-924.84,-1592.26,-1701.81,6.770129544584588
0,-2017.4,-919.75,-1601.84,-1696.31,6.775129640260058
0,-2019.55,-919.85,-1592.78,-1690.9,6.780129735935528
0,-2028.68,-930.18,-1601.94,-1695.49,6.785129831610991
0,-2036.3,-935.63,-1615.6,-1706.42,6.790129927286461
0,-2038.26,-936.23,-1613.03,-1709.17,6.795130022961931
0,-2032.8,-939.5,-1614.35,-1712.87,6.8001301186374015
0,-2036.7,-945.85,-1627.09,-1719.28,6.805130214312872
0,-2035.67,-946.58,-1617.62,-1716.87,6.810130309988335
0,-2021.29,-935.67,-1604.41,-1701.4,6.815130405663805
0,-2029.28,-932.37,-1607.15,-1701.35,6.820130501339275
0,-2017.36,-921.59,-1598.72,-1692.61,6.825130597014745
0,-2011.97,-916.27,-1584.72,-1695.64,6.830130692690215
0,-2023.7,-922.01,-1605.7,-1699.17,6.835130788365678
0,-2022.61,-929.51,-1604.64,-1708.71,6.840130884041148
0,-2020.17,-918.87,-1602.51,-1700.36,6.845130979716618
0,-2015.63,-921.51,-1596.19,-1689.72,6.850131075392088
0,-2015.94,-920.3,-1594.96,-1685.77,6.855131171067558
0,-2026.98,-925.86,-1602.37,-1690.56,6.860131266743021
0,-2022.05,-930.94,-1612.8,-1699.49,6.8651313624184915
0,-2026.09,-927.63,-1601.96,-1693.03,6.870131458093962
0,-2013.86,-918.82,-1602.77,-1690.73,6.875131553769432
0,-2018.47,-916.79,-1600.08,-1689.12,6.880131649444902
0,-2017.26,-922.38,-1603.97,-1691.53,6.885131745120365
0,-2018.51,-915.67,-1587.52,-1681.3,6.890131840795835
0,-2007.61,-910.25,-1585.21,-1674.34,6.895131936471305
0,-2003.99,-915.54,-1589.09,-1678.61,6.900132032146775
0,-2006.61,-922.01,-1583.49,-1688.81,6.905132127822245
0,-2021.57,-919.47,-1593.46,-1686.66,6.910132223497708
0,-2008.59,-912.37,-1587.94,-1682.93,6.915132319173178
0,-2007.77,-908.27,-1584.51,-1674.13,6.9201324148486485
0,-2016.05,-911.95,-1589.26,-1680.52,6.925132510524119
0,-2022.72,-915.22,-1584.86,-1677.06,6.930132606199582
0,-2016.97,-918.24,-1588.38,-1680.21,6.935132701875052
0,-2018.1,-914.66,-1590.51,-1682.2,6.940132797550522
0,-2003.9,-909.73,-1585.17,-1675.76,6.945132893225992
0,-2014.35,-918.87,-1589.39,-1690.4,6.950132988901462
0,-2014.9,-920.05,-1594.09,-1688.11,6.955133084576925
0,-2014.88,-922.52,-1599.75,-1688.8,6.960133180252395
0,-2016.67,-919.5,-1591.1,-1685.88,6.965133275927865
0,-2014.54,-922.84,-1595.76,-1690.26,6.970133371603335
0,-2018.94,-919.94,-1595.96,-1686.29,6.9751334672788055
0,-2022.05,-929.5,-1601.09,-1691.09,6.9801335629542685
0,-2018.94,-923.37,-1602.89,-1683.11,6.985133658629739
0,-2015.72,-923.18,-1602.09,-1689.18,6.990133754305209
0,-2018.85,-917.15,-1598.52,-1681.36,6.995133849980679
0,-2019.19,-924.04,-1597.54,-1683.96,7.000133945656149
0,-2023.04,-926.12,-1604.18,-1694.21,7.005134041331612
0,-2022.43,-934.93,-1607.09,-1703.4,7.010134137007082
0,-2009.64,-912.74,-1587.27,-1683.59,7.015134232682552
0,-2022.63,-928.5,-1594.76,-1695.28,7.020134328358022
0,-2026.43,-926.01,-1600.94,-1695.04,7.025134424033492
0,-2020.78,-925.33,-1593.99,-1697.51,7.030134519708955
0,-2030.3,-924.3,-1606.12,-1697.69,7.035134615384425
0,-2024.9,-915.49,-1588.2,-1695.12,7.0401347110598955
0,-2014.47,-907.38,-1595.53,-1695.41,7.045134806735366
0,-2012.44,-911.05,-1587.32,-1694.72,7.050134902410836
0,-2014.7,-917.41,-1598.71,-1696.08,7.055134998086299
0,-2008.64,-913.01,-1579.08,-1689.86,7.060135093761769
0,-2025.89,-912.23,-1597.08,-1697.62,7.065135189437239
0,-2018.01,-911.48,-1586.67,-1695.77,7.070135285112709
0,-2025.03,-908.12,-1595.48,-1694.75,7.075135380788179
0,-2022.0,-911.25,-1599.82,-1697.97,7.080135476463642
0,-2025.51,-919.45,-1607.25,-1708.12,7.085135572139112
0,-2026.33,-927.4,-1603.15,-1708.54,7.090135667814582
0,-2025.55,-923.3,-1604.2,-1702.99,7.0951357634900525
0,-2028.42,-930.11,-1608.19,-1694.68,7.100135859165523
0,-2023.52,-931.44,-1599.19,-1699.33,7.105135954840986
0,-2029.52,-931.86,-1614.67,-1705.48,7.110136050516456
0,-2034.15,-932.05,-1607.95,-1714.13,7.115136146191926
0,-2027.04,-929.96,-1614.23,-1706.01,7.120136241867396
0,-2032.87,-929.6,-1608.92,-1708.56,7.125136337542866
0,-2020.94,-930.97,-1602.38,-1712.54,7.130136433218329
0,-2020.99,-925.08,-1606.06,-1701.24,7.135136528893799
0,-2034.19,-930.06,-1601.91,-1704.88,7.140136624569269
0,-2031.69,-922.79,-1610.01,-1701.1,7.145136720244739
0,-2024.9,-930.98,-1603.27,-1706.59,7.150136815920209
0,-2030.47,-932.77,-1607.18,-1709.93,7.1551369115956724
0,-2029.37,-932.03,-1614.02,-1706.77,7.1601370072711426
0,-2039.13,-939.0,-1611.3,-1703.05,7.165137102946613
0,-1995.02,-929.85,-1598.29,-1697.54,7.170137198622083
0,-1998.83,-909.58,-1588.5,-1681.33,7.175137294297553
0,-2042.58,-919.31,-1582.82,-1687.16,7.180137389973016
0,-2024.53,-921.83,-1596.6,-1691.63,7.185137485648486
0,-2020.77,-913.42,-1593.71,-1686.27,7.190137581323956
0,-2018.18,-913.05,-1590.39,-1685.49,7.195137676999426
0,-1996.82,-926.26,-1600.35,-1695.18,7.200137772674896
0,-2011.27,-921.07,-1605.12,-1692.2,7.205137868350359
0,-2029.12,-918.94,-1597.65,-1692.91,7.210137964025829
0,-2011.16,-923.61,-1595.46,-1693.35,7.2151380597012995
0,-2025.38,-930.43,-1596.06,-1700.34,7.22013815537677
0,-2021.12,-918.26,-1584.08,-1691.87,7.22513825105224
0,-2019.32,-919.51,-1598.76,-1691.61,7.230138346727703
0,-2031.29,-918.64,-1597.32,-1693.07,7.235138442403173
0,-2003.0,-914.41,-1589.52,-1692.67,7.240138538078643
0,-2016.54,-925.31,-1587.22,-1700.73,7.245138633754113
0,-2015.95,-919.71,-1601.19,-1697.68,7.250138729429583
0,-2038.03,-919.38,-1596.93,-1693.65,7.255138825105046
0,-2038.45,-923.12,-1612.13,-1701.99,7.260138920780516
0,-2017.46,-922.84,-1596.8,-1693.82,7.265139016455986
0,-2003.16,-917.2,-1595.96,-1693.87,7.2701391121314565
0,-2019.24,-920.28,-1598.5,-1692.89,7.275139207806927
0,-2013.2,-915.5,-1592.52,-1692.77,7.28013930348239
0,-2014.56,-923.92,-1599.76,-1695.17,7.28513939915786
0,-2015.75,-916.89,-1587.72,-1686.14,7.29013949483333
0,-2022.6,-918.24,-1594.17,-1686.75,7.2951395905088
0,-2013.29,-916.03,-1599.53,-1684.54,7.30013968618427
0,-2022.63,-922.16,-1590.37,-1694.65,7.305139781859733
0,-2009.49,-923.7,-1606.14,-1692.3,7.310139877535203
0,-2010.12,-928.9,-1606.67,-1696.44,7.315139973210673
0,-2029.02,-941.22,-1615.12,-1709.72,7.320140068886143
0,-2025.66,-932.09,-1610.87,-1700.74,7.325140164561613
0,-2034.48,-929.7,-1602.94,-1702.83,7.330140260237076
0,-2021.48,-924.07,-1597.73,-1695.02,7.3351403559125465
0,-2024.06,-915.72,-1598.78,-1688.49,7.340140451588017
0,-2018.76,-911.36,-1589.0,-1683.18,7.345140547263487
0,-2015.65,-914.38,-1594.86,-1694.76,7.350140642938957
0,-2016.05,-910.05,-1593.98,-1693.93,7.35514073861442
0,-2016.34,-910.63,-1596.42,-1691.29,7.36014083428989
0,-2017.81,-919.96,-1592.46,-1693.48,7.36514092996536
0,-2018.59,-921.72,-1600.2,-1696.9,7.37014102564083
0,-2021.2,-916.6,-1585.86,-1687.87,7.3751411213163
0,-2005.17,-914.37,-1588.83,-1683.65,7.380141216991763
0,-2033.06,-920.21,-1587.3,-1684.85,7.385141312667233
0,-2013.1,-919.27,-1598.19,-1683.36,7.3901414083427035
0,-2032.42,-926.62,-1598.94,-1694.46,7.395141504018174
0,-2023.43,-920.16,-1594.93,-1695.78,7.400141599693644
0,-2037.62,-926.59,-1606.79,-1706.8,7.405141695369107
0,-2032.22,-931.17,-1615.81,-1713.49,7.410141791044577
0,-2022.46,-912.36,-1590.65,-1699.41,7.415141886720047
0,-2018.6,-920.8,-1598.04,-1700.42,7.420141982395517
0,-2028.16,-923.83,-1601.06,-1698.0,7.425142078070987
0,-2015.92,-922.77,-1596.36,-1691.45,7.43014217374645
0,-2017.74,-922.63,-1602.48,-1690.88,7.43514226942192
0,-2016.22,-922.29,-1596.39,-1695.59,7.44014236509739
0,-2018.22,-923.0,-1598.79,-1695.27,7.4451424607728605
0,-2012.63,-926.75,-1599.93,-1697.59,7.450142556448331
0,-2031.15,-930.71,-1605.18,-1700.03,7.455142652123794
0,-2028.26,-928.13,-1601.82,-1695.84,7.460142747799264
0,-2019.36,-925.53,-1601.76,-1698.78,7.465142843474734
0,-2024.96,-927.97,-1604.73,-1696.41,7.470142939150204
0,-2030.1,-923.96,-1596.88,-1696.97,7.475143034825674
0,-2017.89,-922.95,-1603.55,-1693.06,7.480143130501137
0,-2007.25,-921.36,-1593.1,-1692.55,7.485143226176607
0,-2008.83,-922.82,-1597.54,-1691.83,7.490143321852077
0,-2035.33,-919.02,-1590.96,-1682.54,7.495143417527547
0,-2022.47,-911.05,-1586.72,-1681.4,7.500143513203017
0,-2021.68,-918.95,-1595.02,-1691.0,7.50514360887848
0,-2021.46,-923.06,-1598.0,-1687.01,7.5101437045539505
0,-2001.91,-931.88,-1605.66,-1690.12,7.515143800229421
0,-2031.71,-929.08,-1606.75,-1686.78,7.520143895904891
0,-2026.86,-927.35,-1598.9,-1684.14,7.525143991580361
0,-2029.78,-930.86,-1599.42,-1689.29,7.530144087255824
0,-2008.87,-920.25,-1589.48,-1685.31,7.535144182931294
0,-2008.82,-917.55,-1593.78,-1689.8,7.540144278606764
0,-2022.49,-923.09,-1593.2,-1689.47,7.545144374282234
0,-2026.98,-924.36,-1603.66,-1693.74,7.550144469957704
0,-2011.2,-916.92,-1590.09,-1682.04,7.555144565633167
0,-2013.52,-922.09,-1603.0,-1691.73,7.560144661308637
0,-2017.16,-922.21,-1598.64,-1691.64,7.5651447569841075
0,-2014.98,-920.65,-1595.09,-1683.57,7.570144852659578
0,-2017.79,-917.5,-1596.32,-1685.77,7.575144948335048
0,-2000.81,-917.42,-1589.65,-1684.69,7.580145044010511
0,-2013.85,-910.86,-1581.72,-1679.89,7.585145139685981
0,-2008.53,-911.99,-1581.31,-1687.13,7.590145235361451
0,-2009.41,-906.7,-1585.42,-1683.45,7.595145331036921
0,-2010.44,-916.49,-1595.37,-1686.72,7.600145426712391
0,-2031.04,-924.94,-1593.25,-1697.01,7.605145522387854
0,-2025.39,-924.83,-1604.27,-1700.01,7.610145618063324
0,-2040.53,-928.01,-1606.17,-1700.08,7.615145713738794
0,-2054.88,-931.43,-1613.22,-1701.39,7.6201458094142644
0,-2035.5,-923.11,-1595.05,-1695.62,7.6251459050897346
0,-2032.63,-926.83,-1606.78,-1697.61,7.6301460007651976
0,-2021.94,-922.56,-1604.71,-1697.44,7.635146096440668
0,-2015.33,-919.83,-1603.85,-1696.67,7.640146192116138
0,-2025.45,-923.83,-1607.08,-1697.37,7.645146287791608
0,-2031.19,-918.81,-1599.42,-1690.9,7.650146383467078
0,-2035.4,-934.07,-1613.0,-1695.74,7.655146479142541
0,-2040.5,-936.45,-1606.25,-1697.34,7.660146574818011
0,-2030.16,-937.75,-1608.29,-1702.21,7.665146670493481
0,-2034.86,-942.92,-1616.95,-1704.77,7.670146766168951
0,-2022.13,-934.2,-1593.09,-1694.75,7.675146861844421
0,-2018.45,-928.18,-1599.06,-1688.56,7.680146957519884
0,-2034.72,-922.11,-1600.17,-1688.62,7.6851470531953545
0,-2016.02,-923.18,-1603.8,-1688.42,7.690147148870825
0,-2010.95,-926.48,-1611.92,-1697.22,7.695147244546295
0,-2011.71,-923.75,-1605.56,-1695.59,7.700147340221758
0,-2023.33,-925.26,-1603.25,-1691.53,7.705147435897228
0,-2024.94,-928.03,-1596.43,-1698.93,7.710147531572698
0,-2023.53,-924.3,-1595.26,-1688.31,7.715147627248168
0,-2010.57,-920.43,-1596.14,-1686.66,7.720147722923638
0,-2014.9,-921.84,-1602.37,-1689.48,7.725147818599101
0,-2011.85,-916.15,-1590.99,-1677.99,7.730147914274571
0,-2007.85,-913.94,-1589.8,-1683.06,7.735148009950041
0,-2019.7,-912.11,-1586.47,-1681.38,7.7401481056255115
0,-2011.9,-913.22,-1586.52,-1683.6,7.745148201300982
0,-2021.03,-914.42,-1597.89,-1687.1,7.750148296976445
0,-2011.9,-923.27,-1600.72,-1688.95,7.755148392651915
0,-2004.77,-912.74,-1583.03,-1677.73,7.760148488327385
0,-2011.42,-912.71,-1582.18,-1676.82,7.765148584002855
0,-2015.71,-913.43,-1583.39,-1679.4,7.770148679678325
0,-2027.22,-916.44,-1600.88,-1691.31,7.775148775353788
0,-2020.92,-916.85,-1595.3,-1693.98,7.780148871029258
0,-2015.96,-922.64,-1594.69,-1692.99,7.785148966704728
0,-2016.52,-922.08,-1587.41,-1686.43,7.790149062380198
0,-2016.68,-922.29,-1589.56,-1693.15,7.795149158055668
0,-2014.43,-930.19,-1596.0,-1691.52,7.800149253731131
0,-2004.84,-920.45,-1597.68,-1692.37,7.8051493494066015
0,-2005.8,-926.98,-1596.49,-1696.23,7.810149445082072
0,-2032.75,-927.16,-1600.8,-1700.91,7.815149540757542
0,-2025.61,-921.0,-1587.16,-1695.07,7.820149636433012
0,-2021.65,-920.45,-1587.16,-1702.75,7.825149732108475
0,-2031.75,-917.81,-1601.96,-1697.43,7.830149827783945
0,-2020.39,-929.01,-1609.82,-1695.57,7.835149923459415
0,-2027.79,-934.83,-1599.92,-1698.56,7.840150019134885
0,-2039.34,-935.03,-1610.81,-1697.22,7.845150114810355
0,-2032.6,-940.91,-1612.62,-1712.67,7.850150210485818
0,-2032.68,-934.59,-1612.56,-1705.74,7.855150306161288
0,-2022.21,-936.36,-1614.15,-1705.85,7.8601504018367585
0,-2015.22,-920.9,-1598.72,-1699.06,7.865150497512229
0,-2032.04,-915.13,-1601.37,-1697.85,7.870150593187699
0,-2015.32,-925.06,-1604.46,-1702.66,7.875150688863162
0,-2025.86,-918.81,-1595.37,-1690.3,7.880150784538632
0,-2003.24,-915.89,-1589.37,-1687.05,7.885150880214102
0,-2020.9,-919.85,-1600.16,-1697.63,7.890150975889572
0,-2033.95,-924.51,-1600.2,-1700.15,7.895151071565042
0,-2011.99,-910.84,-1588.75,-1681.18,7.900151167240505
0,-2003.96,-915.19,-1595.15,-1681.92,7.905151262915975
0,-2003.75,-920.94,-1595.72,-1685.39,7.910151358591445
0,-2017.07,-923.85,-1598.88,-1689.56,7.9151514542669155
0,-2005.36,-914.51,-1586.29,-1681.71,7.920151549942386
0,-2005.25,-912.38,-1586.41,-1681.19,7.925151645617849
0,-2008.46,-907.54,-1579.7,-1678.45,7.930151741293319
0,-2019.1,-916.87,-1598.67,-1684.32,7.935151836968789
0,-2028.72,-916.34,-1596.92,-1688.65,7.940151932644259
0,-2013.35,-911.68,-1587.03,-1676.18,7.945152028319729
0,-2014.47,-915.29,-1590.42,-1680.04,7.950152123995192
0,-2013.33,-915.71,-1586.51,-1676.89,7.955152219670662
0,-2011.44,-916.81,-1585.6,-1686.26,7.960152315346132
0,-2003.64,-916.38,-1598.58,-1683.99,7.965152411021602
0,-2025.89,-921.61,-1599.78,-1697.97,7.970152506697072
0,-2023.01,-927.33,-1603.14,-1695.69,7.975152602372535
0,-2015.35,-930.96,-1610.08,-1691.86,7.9801526980480055
0,-2024.73,-930.24,-1599.2,-1699.51,7.985152793723476
0,-2023.79,-925.22,-1608.79,-1694.68,7.990152889398946
0,-2021.09,-923.22,-1598.53,-1689.98,7.995152985074416
0,-2024.45,-921.96,-1602.56,-1689.16,8.000153080749879
0,-2016.69,-912.67,-1596.4,-1686.67,8.005153176425349
0,-2020.02,-916.27,-1583.11,-1691.94,8.010153272100819
0,-2016.46,-922.66,-1583.79,-1695.24,8.01515336777629
0,-2018.22,-921.9,-1589.69,-1695.11,8.02015346345176
0,-2022.97,-923.46,-1600.24,-1690.09,8.025153559127222
0,-2018.12,-920.49,-1605.13,-1687.67,8.030153654802692
0,-2021.53,-926.69,-1606.78,-1698.07,8.035153750478162
0,-2024.6,-931.85,-1606.81,-1704.27,8.040153846153633
0,-2030.29,-932.58,-1617.01,-1707.64,8.045153941829103
0,-2032.55,-941.36,-1617.78,-1707.71,8.050154037504566
0,-2034.8,-943.45,-1620.05,-1713.18,8.055154133180036
0,-2022.71,-935.16,-1601.74,-1706.25,8.060154228855506
0,-2023.89,-930.62,-1599.66,-1697.02,8.065154324530976
0,-2031.69,-931.03,-1610.39,-1706.35,8.070154420206446
0,-2034.21,-931.39,-1608.66,-1703.62,8.07515451588191
0,-2033.86,-930.47,-1607.19,-1704.77,8.08015461155738
0,-2026.81,-928.48,-1607.62,-1696.24,8.08515470723285
0,-2020.72,-927.86,-1610.28,-1699.73,8.09015480290832
0,-2038.94,-928.92,-1616.47,-1705.58,8.09515489858379
0,-2031.8,-922.14,-1608.17,-1693.96,8.100154994259253
0,-2031.52,-929.25,-1602.6,-1698.75,8.105155089934723
0,-2023.67,-919.74,-1603.52,-1692.22,8.110155185610193
0,-2020.56,-917.37,-1602.3,-1690.89,8.115155281285663
0,-2020.4,-922.31,-1588.7,-1699.51,8.120155376961133
0,-2021.51,-916.03,-1585.18,-1696.09,8.125155472636596
0,-2017.57,-923.65,-1602.99,-1696.59,8.130155568312066
0,-2017.51,-919.5,-1598.34,-1696.43,8.135155663987536
0,-2021.12,-925.46,-1604.25,-1700.48,8.140155759663006
0,-2020.34,-922.98,-1592.16,-1693.43,8.145155855338476
0,-2029.75,-928.53,-1605.98,-1696.03,8.15015595101394
0,-2026.62,-920.65,-1601.18,-1695.53,8.15515604668941
0,-2014.41,-916.07,-1601.02,-1686.64,8.16015614236488
0,-2009.85,-917.78,-1586.3,-1685.19,8.16515623804035
0,-2027.17,-926.34,-1603.91,-1693.25,8.17015633371582
0,-2027.66,-926.58,-1599.72,-1694.51,8.175156429391283
0,-2007.72,-924.75,-1600.18,-1690.89,8.180156525066753
0,-2025.06,-927.05,-1597.7,-1688.63,8.185156620742223
0,-2032.65,-926.85,-1611.01,-1701.1,8.190156716417693
0,-2027.21,-930.94,-1607.05,-1703.55,8.195156812093163
0,-2032.64,-928.04,-1608.85,-1704.5,8.200156907768626
0,-2019.91,-933.12,-1604.5,-1698.94,8.205157003444096
0,-2036.54,-935.39,-1611.98,-1702.68,8.210157099119566
0,-2022.55,-931.61,-1601.25,-1698.31,8.215157194795037
0,-2029.85,-934.17,-1610.07,-1696.17,8.220157290470507
0,-2024.66,-927.13,-1599.21,-1699.05,8.22515738614597
0,-2023.77,-927.5,-1602.69,-1694.17,8.23015748182144
0,-2022.78,-923.37,-1590.55,-1695.13,8.23515757749691
0,-2021.9,-921.39,-1601.86,-1697.03,8.24015767317238
0,-2021.16,-924.22,-1600.77,-1696.17,8.24515776884785
0,-2016.57,-918.09,-1601.91,-1692.37,8.250157864523313
0,-2010.21,-912.03,-1587.86,-1686.42,8.255157960198783
0,-2015.06,-921.55,-1588.74,-1685.68,8.260158055874253
0,-2014.81,-924.97,-1595.21,-1685.05,8.265158151549723
0,-2020.66,-924.58,-1586.18,-1683.49,8.270158247225194
0,-2007.39,-921.19,-1590.29,-1678.35,8.275158342900657
0,-2014.18,-922.72,-1595.72,-1686.38,8.280158438576127
0,-2018.31,-925.94,-1596.65,-1684.61,8.285158534251597
0,-2011.54,-918.11,-1591.75,-1675.4,8.290158629927067
0,-2015.97,-920.78,-1596.97,-1679.7,8.295158725602537
0,-2019.76,-920.58,-1588.74,-1688.74,8.300158821278
0,-2021.77,-921.3,-1597.75,-1687.5,8.30515891695347
0,-2015.53,-918.38,-1592.77,-1688.56,8.31015901262894
0,-2013.52,-916.91,-1590.67,-1696.28,8.31515910830441
0,-2006.08,-918.4,-1590.65,-1693.52,8.32015920397988
0,-2023.22,-917.9,-1584.66,-1692.1,8.325159299655343
0,-2017.63,-919.9,-1599.98,-1698.9,8.330159395330814
0,-2009.24,-917.28,-1596.63,-1697.95,8.335159491006284
0,-2027.16,-924.62,-1604.19,-1702.65,8.340159586681754
0,-2011.28,-922.12,-1605.71,-1703.28,8.345159682357224
0,-2026.77,-921.08,-1605.83,-1703.64,8.350159778032687
0,-2031.68,-926.15,-1603.64,-1702.73,8.355159873708157
0,-2030.12,-922.59,-1604.12,-1704.31,8.360159969383627
0,-2008.99,-915.24,-1588.34,-1687.58,8.365160065059097
0,-2009.4,-906.91,-1586.42,-1680.44,8.370160160734567
0,-1996.54,-907.01,-1581.24,-1679.71,8.37516025641003
0,-2009.6,-907.53,-1576.32,-1681.26,8.3801603520855
0,-2007.44,-908.49,-1586.83,-1679.72,8.38516044776097
0,-2009.41,-906.68,-1589.46,-1676.47,8.39016054343644
0,-2016.75,-909.74,-1584.23,-1675.47,8.39516063911191
0,-2007.74,-909.61,-1589.05,-1682.03,8.400160734787374
0,-2009.22,-912.36,-1591.02,-1688.09,8.405160830462844
0,-1998.95,-906.99,-1578.77,-1676.38,8.410160926138314
0,-1994.45,-905.81,-1569.37,-1674.61,8.415161021813784
0,-1998.69,-902.34,-1566.78,-1673.35,8.420161117489254
0,-2008.26,-900.41,-1572.78,-1676.66,8.425161213164717
0,-2015.89,-915.74,-1576.53,-1680.8,8.430161308840187
0,-2018.92,-921.29,-1590.9,-1686.91,8.435161404515657
0,-2028.51,-922.35,-1605.56,-1694.97,8.440161500191127
0,-2026.99,-925.31,-1595.12,-1694.39,8.445161595866598
0,-2015.25,-924.78,-1589.89,-1694.34,8.45016169154206
0,-2017.6,-922.56,-1598.27,-1689.68,8.45516178721753
0,-2013.58,-922.21,-1601.84,-1689.47,8.460161882893
0,-2011.17,-917.45,-1601.46,-1693.03,8.46516197856847
0,-2021.07,-925.9,-1597.56,-1698.25,8.470162074243934
0,-2024.43,-929.95,-1596.74,-1706.88,8.475162169919404
0,-2022.13,-929.41,-1598.93,-1704.86,8.480162265594874
0,-2030.79,-931.16,-1613.68,-1710.54,8.485162361270344
0,-2019.55,-930.23,-1604.43,-1707.16,8.490162456945814
0,-2032.97,-927.44,-1609.94,-1712.59,8.495162552621277
0,-2021.48,-926.35,-1606.03,-1713.71,8.500162648296747
0,-2019.73,-915.09,-1600.62,-1709.82,8.505162743972217
0,-2017.35,-914.81,-1602.5,-1706.72,8.510162839647688
0,-2006.3,-899.88,-1586.44,-1695.62,8.515162935323158
0,-2002.29,-892.35,-1578.33,-1680.48,8.52016303099862
0,-1995.37,-892.03,-1564.97,-1679.83,8.52516312667409
0,-1987.09,-885.36,-1568.2,-1672.7,8.530163222349561
0,-1981.66,-891.42,-1579.77,-1673.85,8.535163318025031
0,-1991.54,-893.61,-1583.51,-1678.84,8.540163413700501
0,-1996.02,-895.78,-1580.39,-1682.77,8.545163509375964
0,-2009.15,-892.07,-1572.73,-1678.07,8.550163605051434
0,-1999.48,-895.47,-1571.52,-1676.5,8.555163700726904
0,-1988.36,-892.63,-1568.41,-1670.1,8.560163796402374
0,-1994.64,-896.95,-1574.03,-1671.38,8.565163892077845
0,-1997.73,-905.91,-1585.4,-1681.34,8.570163987753308
0,-2010.13,-909.44,-1577.81,-1678.85,8.575164083428778
0,-2014.24,-907.51,-1583.8,-1686.53,8.580164179104248
0,-2017.91,-913.23,-1582.28,-1690.85,8.585164274779718
0,-2017.94,-919.3,-1593.86,-1694.46,8.590164370455188
0,-2020.17,-925.08,-1608.69,-1702.98,8.595164466130651
0,-2021.37,-927.43,-1608.48,-1697.9,8.600164561806121
0,-2034.6,-935.8,-1621.51,-1703.74,8.605164657481591
0,-2022.63,-935.6,-1611.98,-1700.6,8.610164753157061
0,-2017.2,-927.9,-1600.57,-1689.58,8.615164848832531
0,-2031.21,-931.74,-1604.79,-1695.58,8.620164944507994
0,-2020.68,-929.02,-1607.07,-1689.71,8.625165040183465
0,-2011.38,-922.26,-1596.06,-1679.48,8.630165135858935
0,-2019.4,-930.12,-1602.81,-1686.3,8.635165231534405
0,-2039.1,-934.52,-1613.59,-1693.88,8.640165327209875
0,-2035.64,-927.16,-1608.56,-1693.85,8.645165422885338
0,-2039.81,-931.27,-1608.89,-1694.02,8.650165518560808
0,-2029.22,-935.36,-1592.49,-1696.89,8.655165614236278
0,-2011.22,-936.48,-1592.23,-1699.04,8.660165709911748
0,-2026.9,-942.54,-1605.28,-1707.16,8.665165805587218
0,-2043.75,-939.12,-1608.96,-1711.42,8.670165901262681
0,-2042.57,-940.04,-1617.16,-1702.77,8.675165996938151
0,-2037.53,-934.8,-1617.36,-1700.17,8.680166092613621
0,-2053.55,-939.81,-1622.89,-1705.29,8.685166188289092
0,-2043.29,-933.69,-1602.99,-1704.11,8.690166283964562
0,-2041.62,-927.91,-1596.31,-1696.99,8.695166379640025
0,-2036.18,-930.03,-1599.41,-1704.6,8.700166475315495
0,-2036.09,-936.12,-1605.11,-1709.81,8.705166570990965
0,-2028.06,-926.35,-1603.91,-1697.6,8.710166666666435
0,-2029.97,-928.74,-1606.49,-1699.37,8.715166762341905
0,-2033.23,-937.97,-1613.21,-1705.26,8.720166858017368
0,-2035.34,-934.94,-1614.8,-1707.86,8.725166953692838
0,-2035.54,-932.95,-1612.82,-1702.89,8.730167049368308
0,-2037.39,-934.8,-1608.42,-1705.58,8.735167145043778
0,-2042.1,-936.86,-1614.23,-1708.99,8.740167240719249
0,-2032.41,-927.23,-1615.43,-1696.93,8.745167336394712
0,-2032.71,-926.09,-1601.64,-1687.75,8.750167432070182
0,-2037.02,-933.54,-1621.66,-1698.89,8.755167527745652
0,-2032.18,-932.86,-1617.7,-1692.98,8.760167623421122
0,-2027.96,-922.04,-1605.1,-1691.3,8.765167719096592
0,-2026.27,-919.52,-1608.48,-1692.98,8.770167814772055
0,-2026.51,-921.61,-1602.78,-1692.68,8.775167910447525
0,-2030.08,-925.82,-1605.08,-1701.97,8.780168006122995
0,-2030.36,-930.33,-1613.92,-1705.25,8.785168101798465
0,-2047.51,-937.25,-1613.6,-1709.74,8.790168197473935
0,-2041.21,-950.07,-1626.06,-1724.57,8.795168293149398
0,-2023.84,-938.83,-1615.3,-1713.71,8.800168388824869
0,-2048.23,-944.08,-1622.07,-1718.53,8.805168484500339
0,-2020.65,-931.57,-1603.07,-1703.72,8.810168580175809
0,-2007.59,-917.75,-1583.9,-1690.18,8.815168675851279
0,-2012.41,-916.41,-1586.29,-1684.59,8.820168771526742
0,-2014.74,-916.17,-1594.43,-1683.2,8.825168867202212
0,-2010.89,-917.82,-1600.64,-1687.72,8.830168962877682
0,-2022.76,-925.68,-1601.18,-1690.92,8.835169058553152
0,-2013.94,-922.8,-1603.13,-1689.06,8.840169154228622
0,-2010.16,-915.98,-1597.56,-1683.28,8.845169249904085
0,-2010.52,-919.09,-1593.52,-1681.28,8.850169345579555
0,-2011.37,-912.79,-1590.11,-1678.44,8.855169441255025
