labels,F4,F3,Fz,Cz,timestamps
0,18.555623275876204,19.811800559899776,24.214729797980926,18.924131895631774,-1.9998909561780032
0,14.657592749159567,15.434518263063147,18.787037254981296,14.155484553098486,-1.9948912287875586
0,6.229558982108273,7.907240447101715,10.459352302489274,8.446840578840074,-1.9898915013971141
0,25.251521972789995,28.39996710455816,26.671674935131016,25.238199971021142,-1.984891774006666
0,25.22348171780664,23.652698226354207,27.26400514573019,21.549562726291988,-1.9798920466162215
0,21.00543821185451,21.24543380138232,22.00634292496917,19.240928839447317,-1.974892319225777
0,14.717391447454588,5.498173816380374,15.658688261190001,6.702298303319108,-1.9698925918353325
0,14.379341415146678,13.41091825634576,16.161041140624803,13.883671109110603,-1.964892864444888
0,11.87128810384525,13.953667105002054,15.003401547746941,13.825047246757794,-1.9598931370544435
0,0.8632315011590281,3.676420344957548,9.195769465502766,4.3864267050461585,-1.954893409663999
0,0.9851715937963931,5.019177957830729,5.058144875546984,3.1978094717507957,-1.9498936822735509
0,-0.09289163196603928,7.401939924516992,6.39052775857251,4.419195533960537,-1.9448939548831063
0,7.179041809977678,7.364706225328846,9.962918094555974,7.230584878304943,-1.9398942274926618
0,0.8809719055274433,3.72747683996174,7.565315862772674,10.351977490908297,-1.9348945001022173
0,7.542898640249758,6.450251747501268,7.937721041715054,8.033373357202773,-1.9298947727117728
0,6.394821999282303,10.503030926451425,13.000133609045202,12.04477246177044,-1.9248950453213283
0,-1.373258032725677,-1.2841856453030014,-0.22744645842481592,0.03617478831024834,-1.9198953179308837
0,-6.461341471474474,-0.711397990404993,-7.225019184547653,0.3775803198194718,-1.9148955905404392
0,-2.339428332644417,-5.848606131692803,-7.662584593309975,-2.251010961043947,-1.9098958631499912
0,-1.0875186316217909,-2.0858100918561657,2.34985729166418,2.760400928328271,-1.9048961357595466
0,-6.815612383473602,-0.3430098932932488,-2.337693552835016,-0.438184029447624,-1.8998964083691021
0,0.5762903970316577,2.239794441815549,5.834762850148806,4.813234148177814,-1.8948966809786576
0,-4.071810304574226,-0.14739710866491906,-1.9427735224834692,1.8346554435881703,-1.889896953588213
0,8.820085497437695,11.915415433000408,7.84969730599809,10.52607983887618,-1.8848972261977686
0,-1.5480222112329458,-2.2817679557766537,-1.3578246879163967,0.7375073156922303,-1.879897498807324
0,-2.676133445058835,-0.3789472979717907,0.18466047202018676,4.778937855181308,-1.874897771416876
0,-0.25424821857955904,0.3538773832405451,2.027152761908407,4.200371438051821,-1.8698980440264314
0,4.047633453728572,-1.3432939353177749,-2.5303478422066252,3.611808044631408,-1.864898316635987
0,-4.300488442599075,-7.6504612767353155,-8.547841364236401,-8.546752345062558,-1.8598985892455424
0,-6.348613922009385,-9.567624663813348,-12.045327827768984,-8.705309751014985,-1.854898861855098
0,-4.146742998709004,-4.074784118785315,-10.632807255672851,-4.813864192770513,-1.8498991344646534
0,8.705124313455027,8.638060336705909,7.789720330058589,6.097584310710176,-1.8448994070742089
0,1.4169880007476212,-10.09909131870296,-0.8977450920185492,-3.120964259223215,-1.8398996796837608
0,2.898848049202914,-0.40623910628486337,4.1147964566964195,3.9504900787787354,-1.8348999522933163
0,-5.579295555419775,0.7466169528759652,-2.9526550453702565,-0.26805269403464993,-1.8299002249028717
0,-2.0874428274061616,-4.290523162088615,0.039900380103489175,1.8134074034762544,-1.8249004975124272
0,-4.1455937808413195,-4.437659471871085,-4.897537288518331,-3.015129647642233,-1.8199007701219827
0,-4.093748429489791,-0.9347919969091905,-2.8349680726897812,-1.3136638663461038,-1.8149010427315382
0,-7.821906786732729,-9.83192075729599,-16.012391993502494,-13.082195271412173,-1.8099013153410937
0,-8.15006886544802,-16.40904577261692,-14.729809071345908,-16.40072388108829,-1.8049015879506491
0,-8.868234677850179,-6.056167061611963,-13.997219325481776,-12.539249712618641,-1.799901860560201
0,-6.916404235382881,-5.03328464199849,-6.374622773846914,-8.317772781965298,-1.7949021331697566
0,-10.074577548689783,-12.030398530617388,-8.902019433201222,-10.456293103887557,-1.789902405779312
0,-7.282754627606697,-6.787508743543976,-7.129409319381015,-9.544810692122583,-1.7849026783888675
0,-7.410935481156491,-4.034615296064849,0.37320755251437254,-0.5633255595108533,-1.779902950998423
0,-11.669120117557043,-10.341718202733865,-7.784168832060079,-8.131837718175756,-1.7749032236079785
0,-4.077308544207877,-3.9288174774431237,-4.781538487216522,-2.530347179710592,-1.769903496217534
0,-1.1955007677508505,-1.5059131334625995,-3.528901426610523,3.2611460447021288,-1.7649037688270859
0,-2.7236967943039274,-0.10300518360504896,-6.186257663412104,-3.187358055886413,-1.7599040414366414
0,-3.2018966296853164,-4.440093640440049,-11.003607210280908,-10.905859492288897,-1.7549043140461968
0,-6.500100279442078,-5.4971785163311715,-6.720950079226663,-4.344358274973642,-1.7499045866557523
0,-2.638307748756428,-1.9442598233224633,-1.9882862815092563,-0.8728544138416132,-1.7449048592653078
0,-1.1765190424071523,-6.411337573061995,0.9043841722054782,-5.6313479182946224,-1.7399051318748633
0,-0.1247341648697431,-2.6884117767934788,1.397061271524476,1.4801612025976358,-1.7349054044844188
0,-4.482953120441984,-3.765482445357164,-1.6502549939130198,-2.6283270600009576,-1.7299056770939707
0,-8.501175913212098,-6.9625495891930615,-13.847564634404211,-10.216812714712134,-1.7249059497035262
0,-13.33940254680556,-11.569613218259153,-14.414867659800564,-15.915295769717432,-1.7199062223130817
0,-29.54763302392318,-32.49667334167141,-35.31216407885003,-32.03377623218796,-1.7149064949226371
0,-7.205867345780274,-5.613729967105182,-9.80945389850704,-8.09225410761895,-1.7099067675321926
0,-6.124105511923818,-0.9507831005821161,-1.5867371237522996,-2.89072939967122,-1.704907040141748
0,-2.8023475206703696,2.642167252950084,-0.7740137582171074,-4.379202110735962,-1.6999073127513036
0,-4.1305933696641475,-3.1148789111323936,-1.2312838049945904,-4.32767224257349,-1.6949075853608555
0,-16.748843056051395,-21.43192159728621,-15.268547266928305,-14.92613979646851,-1.689907857970411
0,8.082903423636713,11.001039190542178,5.694195853548855,7.6353952268937135,-1.6849081305799665
0,-14.445353926510393,-11.155996550951125,-10.953054445475603,-14.773067172590798,-1.679908403189522
0,-21.063615101785622,-17.65302882455172,-17.700298165368302,-16.901526994452233,-1.6749086757990774
0,-12.391880096460499,-10.570057632280937,-11.74753530663893,-5.999984237328493,-1.669908948408633
0,-18.130148903322585,-16.06708297495533,-18.874765868517567,-13.18843889870007,-1.6649092210181884
0,-26.87842151350073,-22.24410485198083,-24.96198984869583,-21.866890974872714,-1.6599094936277439
0,-2.3866979163622917,1.6088767387203025,2.000792756813711,2.0846595390986877,-1.6549097662372958
0,-5.974978099681431,-7.858138199497358,-8.816418046553629,-0.5637873507319243,-1.6499100388468513
0,-4.783262050205562,-5.4151496624741435,-5.473622252464757,0.46776836223712004,-1.6449103114564068
0,-12.201549754051266,-15.422157645441334,-15.280819853934979,-7.250673315256831,-1.6399105840659622
0,-8.829841196649685,-8.509162142823516,-17.198010843100295,-6.4191123762769156,-1.6349108566755177
0,-16.318136362518636,-11.496163148024914,-21.285195210803167,-8.287548813422386,-1.6299111292850732
0,-11.176435235062083,-7.923160653402302,-12.772372946256283,-5.2159826186509965,-1.6249114018946287
0,-14.114737796440275,-16.580154650297416,-19.049544036955954,-10.644413783225241,-1.6199116745041806
0,-8.253044027560168,-8.97714512897247,-15.236708468752221,-8.112842297667733,-1.614911947113736
0,-9.141353908185078,-7.584132078556251,-10.903866225921218,-4.691268151708572,-1.6099122197232916
0,-8.16966741709242,-12.201115487138676,-11.021017291308219,-9.789691334316686,-1.604912492332847
0,2.2820154677459024,2.68190465806777,3.3718383533746965,7.161888166167554,-1.5999127649424025
0,-8.526305231074067,-14.005071629444483,-12.725299272828321,-7.866529638201756,-1.594913037551958
0,-3.3846294905570233,-4.19204433557104,-5.172430150320118,0.5050552648237455,-1.5899133101615135
0,-11.772957287247836,-14.579013445496132,-14.329554258840542,-15.273357112254688,-1.5849135827710654
0,-12.89128859700891,-11.185978943502947,-15.726671577206414,-12.991766756355124,-1.579913855380621
0,-2.559623394808577,4.007059187093165,-6.9137820830826175,-7.600173653439414,-1.5749141279901764
0,8.14203834517568,8.240100963618312,9.489114246931482,10.821422211493177,-1.5699144005997319
0,13.693696648963774,13.753146403328966,18.10201743661799,11.763020853795078,-1.5649146732092873
0,1.2253515420782781,6.326195522777709,6.45492750919639,1.544622288392074,-1.5599149458188428
0,12.127003049255048,4.8992483376058,12.167844486804666,10.656226529460072,-1.5549152184283983
0,9.958651194446157,7.622304862672606,17.08076839044608,7.427833590462039,-1.5499154910379538
0,11.040296000737916,6.485365112195631,11.213699239927836,5.539443484147316,-1.5449157636475057
0,17.421937490174976,17.028429099694527,17.036637053720767,14.071056222504895,-1.5399160362570612
0,12.75357568358055,6.511496837782257,8.499581848929404,4.882671816702938,-1.5349163088666167
0,9.545210600443179,7.554568338040877,12.192533641377713,3.3842902770761514,-1.5299165814761722
0,15.056842258970143,10.317643611113626,15.805492445702866,8.76591161326862,-1.5249168540857276
0,20.028470676114615,20.03072266673233,20.81845827527431,18.54753583426986,-1.5199171266952831
0,21.910095867348584,29.08380551336348,24.341431141880317,23.50916294804245,-1.5149173993048386
0,14.231717846367447,12.926892157657624,8.734411055443577,9.020792961009558,-1.5099176719143905
0,11.923336625067668,10.169982604275647,8.207398024131784,5.12242587798005,-1.504917944523946
0,15.69495221378448,19.63307685620878,13.050392054794745,14.92406170253205,-1.4999182171335015
0,7.416564621510263,3.256174915087007,5.933393153267613,5.095700437299397,-1.494918489743057
0,12.20817385603193,6.549276781377568,5.866401324475585,11.607342083996324,-1.4899187623526124
0,12.37977992403831,13.272382454648465,14.869416572525967,12.818986643395561,-1.484919034962168
0,9.64138283113579,9.155491933650673,12.922438900647053,8.370634115267674,-1.4799193075717234
0,11.62298258183056,10.588605216183621,8.355468310979399,10.732284498332469,-1.4749195801812753
0,14.14457917953162,11.95172229901861,9.388504804533099,11.713937790288021,-1.4699198527908308
0,5.476172626535564,3.5048431779239686,3.3515483813588016,3.9155939878495793,-1.4649201254003863
0,13.567762924064525,12.847967847754317,11.224599040732063,13.797253086812882,-1.4599203980099418
0,2.5293500723796374,-0.1789036974310929,2.197656781239791,8.438915082092523,-1.4549206706194973
0,-5.799065928999478,0.9442285357982133,-5.779278399098205,-1.3294200322648617,-1.4499209432290527
0,-6.327485080829543,-8.17263545942829,-2.5162065024801104,-4.147752262823094,-1.4449212158386082
0,5.114092616323481,4.230504310083887,5.836872469010899,6.933918383671778,-1.4399214884481637
0,2.1656671621126207,-4.4863521622699505,3.2199585133491513,-3.9644080995385207,-1.4349217610577156
0,0.4972385561379381,1.5367951170442444,-1.2269483716786989,0.2872682807384612,-1.429922033667271
0,-1.0011932021718501,0.019946141633492065,1.0461518114930677,-0.7010524823064106,-1.4249223062768266
0,-1.0896281134589185,-4.69689909483966,-2.4707409396493976,-3.6893703953988757,-1.419922578886382
0,-12.238066178253145,-8.833740598555348,-6.867626627545905,-12.46768546505631,-1.4149228514959376
0,-0.6865073967210824,-1.2505783753092352,1.7454947455926026,4.254002302631852,-1.409923124105493
0,-4.364951768506242,-6.287412430391389,-2.141376822169631,-3.3943070979572116,-1.4049233967150485
0,0.4866007071807319,1.505757231341592,2.861758667384892,0.18738632780576464,-1.3999236693246004
0,1.5581500313588532,1.2489306053026237,5.744901212446523,0.0190825746418416,-1.394923941934156
0,0.2896962050997993,-1.7178923130095156,3.3380508109823843,1.1107816373146433,-1.3899242145437114
0,2.211239229412785,5.045288471871003,7.791207460564358,6.85248351053446,-1.3849244871532669
0,0.1027791052008804,8.77847295525688,2.124371158282404,8.444188188751012,-1.3799247597628224
0,8.804315833213886,14.241661132010309,9.957541900713268,12.215895665856845,-1.3749250323723778
0,6.915849413885755,6.7248529961726105,4.950719683873392,8.677605934911778,-1.3699253049819333
0,8.607379847091767,10.618048540791978,9.393904503138588,8.159318988021145,-1.3649255775914853
0,2.1489071320171953,2.5612477579965205,4.827096353190228,2.0710348164131336,-1.3599258502010407
0,7.450431267213002,9.374450639156633,8.430295228016492,4.092753410656849,-1.3549261228105962
0,1.8919522507069662,8.107657174971884,4.183501120939541,5.674474760859931,-1.3499263954201517
0,-0.3965299198936395,4.990867355444643,-1.0932859752963422,2.05619885672987,-1.3449266680297072
0,-2.6650152472192463,-0.1759188300832828,-5.210066068276039,-0.24207431239419908,-1.3399269406392627
0,4.42649626606069,2.6872986072810745,5.1131608343980295,3.9496552425705933,-1.3349272132488181
0,0.2980046172625059,2.1805196561874487,3.8963947251666835,1.5113875105259977,-1.3299274858583736
0,2.2295098035875403,4.213744305082563,0.27963559632091906,1.6231224801760231,-1.3249277584679255
0,-3.7789881778968155,-4.543027457805831,-7.257116560046034,-4.955139859934526,-1.319928031077481
0,0.3025106698513578,-4.629795644334553,-4.963861751770215,-4.163399521234879,-1.3149283036870365
0,0.6640063439447729,2.5834397337866815,3.6694000136454332,-0.711656514916343,-1.309928576296592
0,-9.164501158397144,-11.893321334888311,-9.337331270978218,-14.689910851800626,-1.3049288489061475
0,-2.2430118397265093,-5.820078861434529,0.05594438743781904,-7.03816254215121,-1.299929121515703
0,-1.8215257022131912,-0.506832856382516,1.629226982243146,-2.696411595464642,-1.2949293941252584
0,-0.7600427476769366,0.4864166702331397,0.9025165069452288,-5.284658020520174,-1.2899296667348104
0,3.6814370222356576,1.0596697085921205,3.9558129550014263,2.327098174376398,-1.2849299393443658
0,-2.307086394111982,-5.607073751087464,-0.9108836802946683,-4.611143018807462,-1.2799302119539213
0,-0.8356129983997247,-1.9338137184867228,-0.13757340580283972,-3.109381607913087,-1.2749304845634768
0,2.7158572076950938,1.3994497969279267,3.7057437715293653,0.8323823994327817,-1.2699307571730323
0,-2.7926757774890936,-3.657283214121057,-5.660932155298268,-1.615851004195353,-1.2649310297825878
0,1.2087880443814898,1.315987239199932,1.9223988067137443,-1.004081826103871,-1.2599313023921432
0,-4.6397513283192975,-1.0007388521901313,-0.6842633493603927,-3.442310073496426,-1.2549315750016952
0,-1.7282938970870847,0.2625385026829684,-0.030918630384540124,-1.6705357534114764,-1.2499318476112506
0,-2.396839663203427,4.655819294785445,-2.247567043195487,-1.038758872680581,-1.2449321202208061
0,3.664611372254803,8.06910351492781,4.015791405406356,4.223020562015319,-1.2399323928303616
0,-2.093940791708014,-3.0176088464279407,-1.2108432913828362,-2.3551974559938023,-1.234932665439917
0,13.827503843814641,11.745682200772482,10.612528859506241,8.05658706651188,-1.2299329380494726
0,5.20894527736238,6.53897664614283,1.5559078508350899,2.6283741225292703,-1.224933210659028
0,-0.4696164931254296,0.31227447873107717,-6.6507063250148155,-0.26983629526971764,-1.21993348326858
0,2.2918185297737397,3.0155756870526687,-0.1373136758071063,3.161955805496353,-1.2149337558781355
0,5.213250343201194,2.8688802592900187,3.4060857908176456,1.1337504170216457,-1.209934028487691
0,7.524678944021124,9.482188183340375,8.1994920672435,3.215547531328454,-1.2049343010972464
0,-2.8238956713115786,0.18549944668880947,-6.517094854386095,-1.152652859749139,-1.199934573706802
0,0.30752649330929305,0.43881403637861316,-2.873674982133062,4.599149235458769,-1.1949348463163574
0,-5.4810545660962635,-6.127868060775462,-6.800248323930338,-3.33904619151281,-1.1899351189259129
0,0.740361146632618,5.705453142077564,-2.3268148873173216,3.8627608507696105,-1.1849353915354683
0,2.2417736278348737,2.618777631845794,0.3966253205789103,5.0045703536317605,-1.1799356641450203
0,2.213182873886165,0.44210539530903725,-4.989927707079938,5.276382308157664,-1.1749359367545757
0,5.784588881006335,4.54543641901134,7.353526023028203,12.288196704971496,-1.1699362093641312
0,-2.674008354849305,-1.911229310716947,-1.5430134957575414,0.1800135340590293,-1.1649364819736867
0,-2.032608837926801,4.012108192283909,-3.0595462701913227,-0.8881672152008344,-1.1599367545832422
0,-3.1312125724602176,-0.13455108596686438,-4.276072307019087,-1.8363455537342652,-1.1549370271927977
0,-0.05981956250287873,1.3887928404171506,-1.3225916127700375,2.095478507517649,-1.1499372998023532
0,4.331570188047111,4.062139957182635,0.38089580629661257,2.1673049576372945,-1.144937572411905
0,-6.487043324683606,-3.374509750073992,-6.805610055875125,-4.3108662143458165,-1.1399378450214606
0,1.3343398954437526,-3.4411562958345145,-3.0021092051128866,-6.539035019376598,-1.134938117631016
0,3.6157198446455414,2.7922003055018916,0.16139835307517858,-2.4272014681338594,-1.1299383902405715
0,4.467096519105481,1.5955600396415415,0.37491261344778426,1.0246344290870357,-1.124938662850127
0,-5.6415300851921835,-2.8210771077286108,-6.861566429095047,-11.563527337689656,-1.1199389354596825
0,-1.330159972376861,-1.3077111509502668,1.2419612205068755,-3.2116867780769907,-1.114939208069238
0,6.991206853486849,5.005657895683461,9.295495557467433,6.850156098760636,-1.10993948067879
0,10.892570388256654,12.959030017785373,14.56903657680489,8.792001283831196,-1.1049397532883454
0,17.253930627231483,12.842405200440727,15.352584272761245,15.353848767733428,-1.0999400258979009
0,8.365287564678884,10.565783427770343,10.146138638376721,11.195698540155615,-1.0949402985074563
0,13.74664119364109,8.309164682772026,10.789699665406605,3.967550589672605,-1.0899405711170118
0,4.167991506008081,3.912548947439803,4.423267344483288,2.149404903913016,-1.0849408437265673
0,7.519338492711497,4.405936203006574,2.786841665379809,4.671261469913873,-1.0799411163361228
0,5.640682143927883,3.299326430168289,5.210422617283498,1.8631202743436734,-1.0749413889456783
0,9.452022449178827,8.042719609184783,7.93401018893131,6.514981303538748,-1.0699416615552302
0,-5.386640602625938,-5.543884280097904,-6.212395631380326,-6.303155456479791,-1.0649419341647857
0,-1.3753070229656545,-1.0004852580934864,-3.5387948556158024,-5.781290019813808,-1.0599422067743411
0,5.436023176613261,0.4329166547924814,0.5348125043453831,0.8905775996302362,-1.0549424793838966
0,-3.4526500154233046,-2.753678561716624,-4.7115735631283435,-7.027552611707755,-1.049942751993452
0,4.968673389312193,0.7197290722074531,0.8920469305452159,4.844319332900218,-1.0449430246030076
0,10.039993379027388,11.86313953639942,10.685673974042114,7.196193420290761,-1.039943297212563
0,3.161309941535336,-0.5534471895534434,-0.4606924441401523,-0.9419303628805396,-1.034943569822115
0,-3.73737693587143,-2.6300311264684466,-0.5770523358726722,0.11994796972626143,-1.0299438424316705
0,7.153932733756498,3.0133877046097113,2.4965942867234587,1.1918284042705922,-1.024944115041226
0,6.1352389371556875,5.796809282565011,0.05024741143329137,4.953710926827421,-1.0199443876507814
0,-3.7134583392540357,-5.659766413867936,-1.5760929740240854,-1.584404476680104,-1.014944660260337
0,14.98784089057113,13.97366059382908,10.977573117982846,11.21748217943091,-1.0099449328698924
0,16.18913661215393,11.487090283811312,7.7712456748121,10.819370880434223,-1.0049452054794479
0,12.07042881005497,6.830522633504808,9.534924683211486,12.481261610862683,-0.9999454780889998
0,3.4517174675862354,-0.5760423805527208,-3.801389870821872,-5.36684564568055,-0.9949457506985553
0,9.943002566988714,4.977395217545885,6.452301998158108,5.945049093714249,-0.9899460233081108
0,8.624284089690077,6.790835403329986,6.896000275257712,6.116945811600974,-0.9849462959176662
0,5.785562016352042,6.274278151916019,8.869704945160136,5.1588444901908295,-0.9799465685272217
0,9.00683632686256,6.167723437864287,6.543415991906837,6.710745111192988,-0.9749468411367772
0,7.538107000362106,-0.3788287648376638,1.9071333988371233,2.462647655764477,-0.9699471137463327
0,6.979374015243097,6.16462151735,7.9908571486982005,11.724552104523067,-0.9649473863558882
0,1.000637349191817,6.9580742576000585,1.384587223751228,4.856458437486676,-0.9599476589654401
0,-1.7581030206126935,2.461529428647327,0.3183236058435459,3.7683666340028603,-0.9549479315749956
0,-0.056847117200252595,3.034987002746232,-1.7179337234315928,3.1302766728303446,-0.9499482041845511
0,-6.165594963564682,-2.02155304820728,-2.0541847825205783,-2.8578114676579665,-0.9449484767941065
0,-0.38434658250836273,3.39190924749813,1.3895704102183282,2.4241021907295157,-0.939948749403662
0,11.516898003342813,8.355373861425289,11.553331836437629,9.436017626073546,-0.9349490220132175
0,13.438138771165177,8.618840764787908,12.14709947744423,15.197934816094387,-0.929949294622773
0,9.209375697378032,6.062309928177405,7.630873313759437,9.899853737695553,-0.9249495672323249
0,5.930608757371247,7.565781321452596,6.62465332494485,5.401774366706908,-0.9199498398418804
0,17.0918379255525,13.949254913720868,14.03843948967039,9.973696677976951,-0.9149501124514359
0,14.983063175299092,12.62273067319661,13.522231785680003,14.555620645491633,-0.9099503850609914
0,10.564284478734608,12.226208566981686,12.556030189591327,9.377546242269318,-0.9049506576705468
0,9.485501806667722,3.1396885610142697,9.649834676781321,4.239473440266733,-0.8999509302801023
0,11.896715128749126,10.083170620255757,9.81364522145877,10.361402210516438,-0.8949512028896578
0,9.08792441358916,4.856654708903135,13.077461796773312,10.583332523262467,-0.8899514754992097
0,11.869129628774976,6.740140790474907,10.121284374824526,9.295264347895788,-0.8849517481087652
0,5.120330740894049,3.463628827862238,7.235112926646073,3.4271976528951993,-0.8799520207183207
0,8.24152771563167,-0.34288121655179715,5.148947422316132,4.119132405970721,-0.8749522933278762
0,7.1627205178972835,6.400610619265026,11.992787831124097,7.401068574271132,-0.8699525659374316
0,7.503909111882293,4.934104297046154,8.306634121590841,4.593006124446451,-0.8649528385469871
0,-5.004906538867605,-7.62240022179526,-8.659513738519845,-8.325054977306086,-0.8599531111565426
0,-0.4437264711808768,-2.208902975981008,1.6043442181301288,-1.3731147649512923,-0.8549533837660981
0,-0.6025507219150776,-2.0754040040471278,-3.5817920410974198,-4.01117327224869,-0.84995365637565
0,-19.191379327703807,-14.051903344157326,-17.867922548542936,-17.33923053252999,-0.8449539289852055
0,11.499787675279839,8.751598965989647,10.345952663969756,4.71271342149785,-0.839954201594761
0,-2.1090497486858677,-3.004897110922511,-5.390166434872175,-4.245341442222168,-0.8349544742043165
0,-1.3278916352122652,-1.981391612089756,-1.4162798761626267,-1.0033951553627856,-0.8299547468138719
0,-2.99673801994642,1.2721154253147564,0.9476123090869126,-3.8214477494031933,-0.8249550194234274
0,0.9944110615614206,2.145623964165995,-0.3884899100357231,2.020500744369647,-0.8199552920329829
0,-3.864444426084889,-3.3808660326726203,-3.13458656438147,-4.217549705165205,-0.8149555646425348
0,-7.483304518097251,-2.777354602335701,-7.8206776846775785,-5.415599128967331,-0.8099558372520903
0,-12.542169249293696,-5.6638417817922715,-12.26676330126798,-11.023647557669358,-0.8049561098616458
0,-7.501038653779743,0.7696723922926685,-7.652843443786903,-10.09169502128572,-0.7999563824712013
0,-4.209912764788763,-1.0168121164634405,-9.128918140969013,-7.639741548978298,-0.7949566550807567
0,-2.6987916148102524,-0.7832953442867989,-5.684987420666177,-9.40778716899578,-0.7899569276903122
0,-11.627675235784174,-3.1297773273126923,-7.371051309952426,-10.475831908701865,-0.7849572002998677
0,-6.706563659079873,0.18374189844750788,-6.357109835207014,-7.9738757945655845,-0.7799574729094196
0,1.9745430846006584,0.9972622971113965,-0.853163022185925,4.94808114776646,-0.7749577455189751
0,-6.124355034910551,-2.919216167135694,-5.929210896141942,-2.859961106851781,-0.7699580181285306
0,-9.273258047414265,-7.245693530015018,-6.205253481914817,-14.728002583329772,-0.7649582907380861
0,-3.9921659822443223,-2.962169826972139,-2.1712908039039207,-7.016043306143377,-0.7599585633476416
0,-5.931078868125557,-4.5386450930231765,-1.6873228860692113,-2.464083299004592,-0.754958835957197
0,3.1200032667516475,-0.7051193627669967,-1.6133497520532076,-0.572122584929935,-0.7499591085667525
0,-6.048919605471975,-5.851592670467627,-4.519371425279344,-3.7001611865488826,-0.7449593811763044
0,12.78215248746857,7.871934949859819,10.91461207098581,5.261800873690927,-0.7399596537858599
0,8.983219517653458,8.205463464217086,6.768600713383289,5.1937635733461525,-0.7349599263954154
0,-7.265718543350285,-2.76100716171782,-2.8074055218723837,-3.8942731102280383,-0.7299601990049709
0,-5.094661724370349,-7.387476962610485,-5.593406658949801,-3.8723091998534236,-0.7249604716145264
0,0.9063899458530927,-0.32394597309151707,3.7505972779670795,1.8396552817152316,-0.7199607442240819
0,-1.322563561125842,-5.650414227462172,-2.9853937351473894,-2.688379688100714,-0.7149610168336373
0,-0.4315222735831057,-3.166881759658162,0.23862027776871364,5.483585868202968,-0.7099612894431928
0,1.739513780262578,2.716651396704547,5.5026392927897625,3.305551928053817,-0.7049615620527447
0,-0.28945542780566824,1.9401852081873494,6.096663285860159,4.467518468625769,-0.6999618346623002
0,1.3515700739491094,1.9037196413050523,2.7306922325705685,3.7094854667233244,-0.6949621072718557
0,0.712590257197527,3.0872546623895687,1.7347261080764478,2.8714528987661216,-0.6899623798814112
0,-3.526394906438682,-2.169209762422528,-2.071235112778096,-1.8265792591494714,-0.6849626524909667
0,0.8346145546858488,0.5743263328838031,3.4328085447135996,3.7153889688725883,-0.6799629251005221
0,6.205618612261616,7.747862914254804,8.43685705514002,8.99735755855698,-0.6749631977100776
0,-2.1833827621077093,-2.268600052524996,-3.199089607181847,-3.4306735146783183,-0.6699634703196296
0,-1.3223895969826769,1.534937398090959,-4.285031468210179,-0.6487042757359973,-0.664963742929185
0,5.208598079000156,8.558475231450494,2.299031446077678,9.963265250320035,-0.6599640155387405
0,1.5995802371313874,0.23201341264355912,-3.5069008901471816,-0.5247649617611312,-0.654964288148296
0,10.560556848453512,11.565551906347865,8.087171497362359,9.617205062396712,-0.6499645607578515
0,9.17152788351893,6.379090676694395,4.861248582725064,6.2991752966775,-0.644964833367407
0,-3.7375066877770964,0.6926296871743549,1.6353303397073664,-1.2888542855794314,-0.6399651059769624
0,-6.386546896011379,-5.533831099220289,-0.5205832583141259,-4.8468837114350265,-0.6349653785865144
0,-8.475592771704477,-7.6702917195672455,-1.7764922381666657,-6.714913007956166,-0.6299656511960698
0,-2.2946443448883485,-1.6867522106006492,-4.192396626659131,-0.5129422018729954,-0.6249659238056253
0,-0.8137016450462731,4.6667873913687306,3.5717035495475757,-2.1309713195189897,-0.6199661964151808
0,-1.7927647013013686,4.50032705017118,2.265808263891333,-1.3390003869557918,-0.6149664690247363
0,-11.021833542529208,-7.356133270510533,-8.220082510212652,-10.447029430017809,-0.6099667416342918
0,1.2290918027551199,-1.2225936070748027,3.834031200683435,-1.6550584741707306,-0.6049670142438472
0,-4.359988693515719,-7.159053995715977,-4.741850629813758,-1.7230875444024814,-0.5999672868534027
0,-0.3990750590661105,-1.2755144722498875,-4.967728027905507,-1.071116665329476,-0.5949675594629547
0,-1.0781673214075256,2.8680249278572445,1.8863989804462757,1.9108541386132374,-0.5899678320725101
0,-6.767265507870931,-2.3684358306877407,-7.409469630447562,-8.727175156911583,-0.5849681046820656
0,-0.6863696455425508,5.585103216815455,4.164666113959879,1.044795423931683,-0.5799683772916211
0,1.8445202387728736,-0.24135796504293672,0.9888061883629892,1.0567658572255276,-0.5749686499011766
0,3.7054041183992696,10.41218058810602,7.5529505674029345,5.098736119158457,-0.5699689225107321
0,3.3562819665407244,6.275718840226692,3.477099225423344,2.6107061857680334,-0.5649691951202875
0,0.8371537561382193,0.8892567547167264,1.5212521363485876,-2.577323967174487,-0.5599694677298395
0,7.02801945984559,1.2727942944630912,8.535409273697056,2.6646456359227177,-0.554969740339395
0,8.668879049957713,6.296331422034662,6.0895706105559695,6.276614970547936,-0.5499700129489504
0,0.34973249825890845,4.219868099714956,-2.4462638804908314,1.7185840119757376,-0.5449702855585059
0,0.4905797760288461,3.8434042893949303,5.577905772726533,-2.419447264824904,-0.5399705581680614
0,-1.9085791457194805,3.4169399525359196,5.962079542094898,0.7425211149374508,-0.5349708307776169
0,-1.0177442959999314,-1.6695249497552758,-0.2137426008240395,-0.4455108739528466,-0.5299711033871723
0,-0.2769157037440718,1.8740095434132733,0.8904393151924845,2.2664567433069855,-0.5249713759967243
0,6.433906602164761,4.0975433928172915,4.074625261149393,7.158423941433981,-0.5199716486062798
0,-1.9652774072549843,6.201076559046385,2.8988152078711167,2.090390694881432,-0.5149719212158352
0,4.5555322388130195,6.264609002315827,5.16300912591084,7.612356977691651,-0.5099721938253907
0,2.8463355109739217,4.628140682322485,4.3872069854587545,6.224322763418988,-0.5049724664349462
0,6.907132379563517,6.091671558208619,6.141408756276845,5.8362880250583276,-0.4999727390445017
0,4.517922814519029,7.455201588563367,7.9656144076254005,5.818252735001389,-0.49497301165405716
0,6.368706785279715,3.7387307313982223,6.299823908169757,2.5902168650713855,-0.48997328426361264
0,4.249484260753041,6.842258944143095,4.6040372259265805,6.912180386593767,-0.48497355687316457
0,-19.359744790523674,-19.484213816175302,-14.781745671571098,-19.635856729426525,-0.47997382948272005
0,12.191019600046205,10.959312407491147,11.122475183131934,10.96610548807577,-0.47497410209227553
0,7.851777401279543,8.002837572397272,9.646699757550767,8.14806701038242,-0.469974374701831
0,2.9625285817842313,4.186361635610054,4.150928018865946,0.8100278086073713,-0.4649746473113865
0,2.093273109617545,0.029884553653729773,-1.1048400663695568,1.7219878533893578,-0.45997491992094197
0,4.974010952381627,3.693406282614821,8.549395467917812,5.273947114998048,-0.45497519253049745
0,-6.35525792259993,-7.853073221614075,-3.8263654125027804,-4.784094436528266,-0.4499754651400494
0,-3.9745335480755513,-7.529554003064411,-4.902122742049761,-1.9721368312623633,-0.44497573774960486
0,-0.7838159565936376,-3.5560361053658607,-2.3078765550698543,4.45981990077986,-0.43997601035916034
0,-3.4331051803930235,-0.7125195716133974,-2.8236268856161892,1.0317757296237375,-0.4349762829687158
0,2.957598748517152,4.4909955554491034,3.4206262325330252,2.6837306251676862,-0.4299765555782713
0,7.52829579817863,8.334509233076114,11.504882765635427,14.615684557021323,-0.4249768281878268
0,-0.5510140635664689,1.6080214181842842,6.409142679587308,4.7476374942591315,-0.41997710079738226
0,6.009669130774619,5.021532067211107,7.403405939597473,7.389589405189553,-0.4149773734069342
0,2.13034534835422,-2.9249588637994712,1.7276725101487824,4.531540257367736,-0.40997764601648967
0,7.3210145559762285,3.93854858097038,8.04194235513652,8.413490017712846,-0.40497791862604515
0,0.09167672004481298,-2.367945642768164,1.9762154379656605,-1.874561347424165,-0.39997819123560063
0,1.162331806599033,0.7955584206456459,4.390491721585441,1.4173861278824609,-0.3949784638451561
0,8.772979781401654,9.099060726806158,6.5447711685197705,7.83933240931187,-0.3899787364547116
0,1.4136206099037536,2.5325612310753893,6.299053740837382,3.4812774622741163,-0.3849790090642671
0,0.05425425717259713,-1.8439401115724803,-0.9166605998988446,-4.106778748190467,-0.37997928167382256
0,0.5148806879983383,0.35955665356056654,0.3776281074777985,4.275163742706205,-0.3749795542833745
0,0.8454998670638528,-1.1269485188790864,-1.0980801760282621,-0.11289510033396755,-0.36997982689292996
0,4.6761117589742085,2.8465443257813994,2.036214510571945,2.2990446873023354,-0.36498009950248544
0,-8.513283671771509,-2.889964857793214,-8.159487871696056,-9.619016929843822,-0.3599803721120409
0,-9.432686460603795,-9.076476114891284,-6.925187361615775,-9.32707998704786,-0.3549806447215964
0,-10.712096642466422,-8.932989490482568,-8.680883997494107,-6.405144519022632,-0.3499809173311519
0,-17.6115142514115,-18.339505028823105,-15.14657781689505,-13.503210559682131,-0.34498118994070737
0,-4.020939320365076,-5.276022773125223,-3.072268856459613,-2.7412781420751253,-0.3399814625502593
0,-5.8203718811581755,-2.8725427655125912,-4.6079571519191065,-5.999347298441009,-0.3349817351598148
0,-8.869811964785153,-11.089065047277725,-5.763642738323595,-6.737418060364229,-0.32998200776937026
0,-8.099259601557266,-9.865589659037877,-7.83932565019971,-3.8954904588731187,-0.32498228037892574
0,-3.868714821074744,-0.8521166406578002,-3.2450059215219618,0.2564354755060777,-0.3199825529884812
0,-2.9081776522786185,-2.1386460313205267,-5.8606835856953925,-1.6016402874065903,-0.3149828255980367
0,-15.127648123554556,-15.495177869723815,-17.986358675528287,-11.65971777755443,-0.3099830982075922
0,-5.297126262637674,-10.32171219396626,-7.142031223006592,-2.177797024507597,-0.3049833708171441
0,-10.286612096424518,-11.99824904119882,-9.387701259065707,-6.835878057278217,-0.2999836434266996
0,-20.23610565085841,-18.154788447402318,-17.693368813570114,-13.243960904258097,-0.29498391603625507
0,-14.455606950704997,-17.7213304472236,-18.969033915211583,-16.252045593043874,-0.28998418864581055
0,-17.205116019251165,-16.267875073760706,-12.28469659122674,-12.280132150098032,-0.28498446125536603
0,-10.574632878216939,-7.274422358508753,-4.770356867343087,-3.628220600604404,-0.2799847338649215
0,-6.314157547922754,-2.2909723316354293,-5.336014768121055,3.9236890312429487,-0.274985006474477
0,-4.3736900476155,-6.467525022443489,-4.431670317375257,2.305596721670734,-0.2699852790840289
0,0.12676960415682895,1.7859195402708,-1.6573235384164131,0.45750244686653274,-0.2649855516935844
0,0.43722138921822545,4.459361327976892,-4.612974454165933,5.799406182813914,-0.2599858243031399
0,-2.802334710460502,-0.6071996878544612,-5.3886230871991305,5.291307905226086,-0.25498609691269536
0,-3.3718987128122357,-2.2637635358909765,-6.114269459687037,1.753207589439735,-0.24998636952225084
0,-5.461470635563587,-10.130330244780811,-10.089913593271078,-5.8748947895524966,-0.24498664213180632
0,-7.58105049607318,-2.6868998428387583,-7.1555555089207505,-4.222999256817589,-0.2399869147413618
0,-15.670638311120939,-12.683472357808089,-15.201195226788496,-10.311105837117115,-0.23498718735091728
0,-22.18023409653979,-26.220047816604975,-16.86683276600953,-20.539214554549893,-0.2299874599604692
0,-11.889837866759851,-9.026626244861658,-4.862468144487785,-2.8573254321819017,-0.2249877325700247
0,-27.05944963451876,-24.603207666557797,-18.448101378866603,-21.445438491851874,-0.21998800517958017
0,-15.939069410728491,-15.259792103935492,-14.843732484568752,-11.243553754140622,-0.21498827778913565
0,-18.42869720438753,-18.706379577473196,-15.119361475668532,-9.961671238316422,-0.20998855039869113
0,-11.1683330226641,-10.822970105916431,-8.044988364801968,-7.949790962406041,-0.2049888230082466
0,-5.5879768711943765,-6.279563706504159,-4.3706131633564995,-7.397912943429751,-0.1999890956178021
0,-8.457628754473081,-3.696160395356163,-8.236235881810549,-4.846037197596351,-0.19498936822735402
0,-4.587288676172756,-3.5027601878740477,-1.001856529988237,1.3058362595196868,-0.1899896408369095
0,-12.636956639264397,-14.839363098929931,-14.357475117145638,-8.102292587232965,-0.18498991344646498
0,-21.946632645870036,-20.7759691426519,-17.863091651816635,-10.6304237526282,-0.17999018605602046
0,0.9736833030417007,1.8374216679765742,-0.7987061414962353,9.331442749055906,-0.17499045866557594
0,-13.516008792301955,-9.369190678874066,-12.594318592575105,-7.336693096063972,-0.16999073127513142
0,-9.275708930712344,-5.065806194245155,-7.709929010538641,-2.7248313017081904,-0.1649910038846869
0,-15.355417110077825,-8.27242488858042,-14.335537400008976,-14.39297188133787,-0.15999127649423883
0,-21.06513332712243,-18.119046771609685,-21.651143764534122,-26.12111484768319,-0.1549915491037943
0,-17.974857577078815,-16.245671852040132,-16.466748106246495,-17.079260212097292,-0.1499918217133498
0,-18.164589853431295,-16.022300137191603,-19.542350425571605,-20.417407984071946,-0.14499209432290527
0,-15.304330147865718,-14.678931632819346,-15.117950721150986,-13.645558171171215,-0.13999236693246075
0,-13.264078450384991,-3.15556634321067,-9.043548989956273,-10.593710779241247,-0.13499263954201624
0,-9.393834749500769,-9.292204271494292,-11.299145227541711,-6.351865812732064,-0.12999291215157172
0,-19.91359903240722,-18.328845419890698,-20.584739428243566,-19.040023274979646,-0.1249931847611272
0,-9.953371284993526,-12.115489789594657,-12.340331585096667,-6.288183168244644,-0.11999345737067912
0,-10.473151491805694,-4.89213738056109,-3.265921689733314,-0.08634549371963224,-0.1149937299802346
0,1.6170603637610386,4.841211808290242,4.448490267287498,5.565489748103289,-0.10999400258979009
0,-8.742735700928339,-12.305442221418065,-5.6170957041222165,-10.702677443066339,-0.10499427519934557
0,0.09746033195992143,3.3679005322317885,3.11732040605954,1.3691529325705647,-0.09999454780890105
0,-1.1123515193922777,-0.3987599285605928,0.6217386078917837,-2.349019124950164,-0.09499482041845653
0,-12.5621712365,-8.28542360138828,-7.4738410885402695,-8.677193615305729,-0.08999509302801201
0,-6.021998800444132,-3.5320904836135854,-3.789418673010737,-4.295370537818479,-0.08499536563756394
0,-2.8618341916561763,-6.378760572182149,-2.114994134949711,-0.2035498913388899,-0.07999563824711942
0,-6.391677389926387,-4.665433863522635,-5.6305674633848515,-3.101731674311341,-0.0749959108566749
0,-1.0715283745552198,-0.46211035357781294,1.1938613530010787,-3.829915884916037,-0.06999618346623038
0,5.088612875491972,3.9212099620441982,8.618292325724026,8.021897478855049,-0.06499645607578586
0,-0.10125361866143323,-7.965472912142422,-0.8872745337981741,-0.47629158096525637,-0.05999672868534134
0,-4.041127835985673,-3.0221589715146457,-3.422839214414813,-3.664483062491481,-0.05499700129489682
0,-4.131009755441225,-0.06884821117719037,-3.7784017050535827,0.8473230360914841,-0.04999727390444875
0,-4.540899355741184,-0.9055406259470411,-1.0839619944493935,4.209126716649022,-0.04499754651400423
0,-6.650796615197753,-7.17223621045089,-8.419520071032709,-2.7490720189779867,-0.03999781912355971
0,-18.36070151155819,-11.558934959017224,-11.275075922807883,-13.12727316895402,-0.03499809173311519
0,-4.150614021718793,-0.44563686540586545,0.8693704628469796,0.4745232688660981,-0.02999836434267067
0,-12.770534121536603,-13.422341922681667,-8.816180900790247,-11.273682702794376,-0.02499863695222615
0,-3.940461785894561,-0.25905012323962356,3.2382700000473963,-0.8518910806136863,-0.01999890956178163
0,-6.6803969888595605,1.3142385410951376,0.25272317941595535,-1.8601018607576632,-0.014999182171337111
0,-14.850339703765162,-8.06247592114646,-12.132821348469687,-13.118315038964191,-0.009999454780889039
0,-2.4502899031508556,0.06080649880261135,-2.69836356911716,3.663469389483166,-0.004999727390444519
0,-6.620247558726808,-1.8659141900168044,-3.1839034675317035,-0.5047485702553289,0.0
0,-8.730212641497001,-12.602637978255473,-11.229441028180132,-9.382968912753274,0.004999727390444519
0,-7.3501851218162955,-6.4593648561021855,-5.054976234969159,-5.301191632314291,0.009999454780889039
0,-3.1201649693463622,-2.2860948130691163,0.20949092882047993,-0.3494167227781053,0.014999182171333558
0,-8.080152153102418,-2.102827838045765,-1.2060395196122038,-6.747644177509589,0.019998909561778078
0,-9.960146641496149,-3.869563919529254,0.7084324371406772,-7.765873989463092,0.02499863695222615
0,-4.030148402256177,-1.0863030457441347,4.162906816514132,-2.3441061511022663,0.02999836434267067
0,-6.070157402396452,-7.243045204637887,1.107383635837281,-3.1923406543641066,0.03499809173311519
0,0.6398263916518534,2.4102096161504347,8.131862912200788,3.4894225091866913,0.03999781912355971
0,-12.690196986100142,-12.416538570686743,-8.153655337599233,-12.16881665180447,0.04499754651400423
0,-7.440227501137931,-7.20328975201581,-3.7591710968945335,-4.587058128403408,0.04999727390444875
0,-9.670265118222066,-6.770043914047554,-3.8146843488090703,-8.055301911136173,0.054997001294893266
0,20.26969019857568,10.56319895765862,16.3098049238132,14.23645201002331,0.05999672868534134
0,-0.5703615146946055,-0.04356112221540953,0.09429673801106397,3.3182036452141643,0.06499645607578586
0,-8.330420222377935,-3.4203241391429087,-2.0612088896463967,-0.13004699580028312,0.06999618346623038
0,-3.2304858890107027,1.8229099212604956,4.243288057056857,-1.6982999036620767,0.0749959108566749
0,-4.970558478825739,-4.23385892657765,3.4777875941860286,-0.046555069134539884,0.07999563824711942
0,-1.5906379556006642,-3.330630668089505,1.4622897376073678,-3.2248124829149836,0.08499536563756394
0,-9.35072428270647,-13.077405288415399,-8.343205497015514,-7.193072135534658,0.08999509302800845
0,-2.270817423073884,-3.754182772140666,0.5613019060168032,-0.40133401721792294,0.09499482041845653
0,-4.570917339139827,-6.2709631031364665,-5.394188037329103,-10.299598117775208,0.09999454780890105
0,-8.631023992857049,-10.037746264584218,-5.989675310745062,-8.357864426505476,0.10499427519934557
0,-1.6011373456791893,-9.644532238962142,-3.205159897523348,-3.5861329320527924,0.10999400258979009
0,-6.371257358541888,-12.331321007896241,-9.5206417804735,-9.704403622356228,0.1149937299802346
0,-0.62138399192491,-1.2381125520697625,0.443879058119905,4.74732351524991,0.11999345737067912
0,-5.691517205934378,-3.0749068513706908,-5.381597363543505,-1.6209515061817448,0.12499318476112364
0,-14.351656960262588,-8.751703885154555,-11.427071026828292,-13.629228673391363,0.12999291215156816
0,-25.551803213835072,-20.378503632222174,-21.022541912449046,-23.907507972639085,0.13499263954201624
0,-2.1019559242757184,0.5546939295206357,-1.128010000055751,-3.4957893890730434,0.13999236693246075
0,0.5878849521568945,3.237888823111035,4.876524731778325,5.125927093427635,0.14499209432290527
0,1.9977194599638683,4.341081072010256,8.651062304931227,4.307641491625578,0.1499918217133498
0,-0.6424523562128934,0.10427069956541901,2.1056027410348297,2.769353822205188,0.1549915491037943
0,1.7173695481990032,2.747457728863586,4.710146061213168,5.831064101486982,0.15999127649423883
0,8.467185217649845,9.890642182735473,13.424692286076557,14.48277234532402,0.16499100388468335
0,2.9769946963064084,4.033824083617025,7.57924143558625,5.71447856887525,0.16999073127513142
0,-5.103201972053162,-0.24299654658138226,2.8237935288838147,3.4261827864516454,0.17499045866557594
0,-8.223404743801833,-4.559819686320624,-1.3116514155823948,-1.6021149883063386,0.17999018605602046
0,-0.26361357504824756,11.653354685828912,4.382906620271774,0.09958525792762929,0.18498991344646498
0,-3.9238284214643393,0.19652659115981885,-0.5525323456399178,1.7812835384068464,0.1899896408369095
0,-9.864049238325372,-6.350303949314624,-5.66796829550106,-5.0670201336132505,0.19498936822735402
0,-6.014275980429989,-4.257136914663752,-2.9634012114177626,-4.825325744782281,0.19998909561779854
0,-2.614508601956851,-6.24397228365898,-5.528831075196486,-4.693633281462789,0.2049888230082466
0,-7.304747056492945,-7.360810034565944,-5.9342578682232805,-8.221942729563843,0.20998855039869113
0,-8.344991297094468,-8.897650145046383,-6.439681571391852,-11.680254074403857,0.21498827778913565
0,-2.725241276230469,-1.6144925920887352,-1.245102165062047,-4.5985673005442065,0.21998800517958017
0,1.8445030541834484,1.0186626478940402,2.2694803708361926,-1.1268823917725463,0.2249877325700247
0,5.314241742501913,4.311815598758306,5.814066056520702,0.5648006686503759,0.2299874599604692
0,8.023974836950972,9.944966284251215,11.268654911985728,12.776481897596462,0.23498718735091373
0,-1.0962976146545398,-2.4118852722800694,2.3732469566766214,0.17816131165992433,0.23998691474135825
0,-3.9065755648828917,-3.348739047883799,0.9578422094080397,0.2498389269558967,0.24498664213180632
0,-10.026858966334084,-6.575595019666871,-3.7075593114025924,-9.268485240671394,0.24998636952225084
0,5.622852228722458,7.607546835498053,9.697042412532008,8.253188824706413,0.25498609691269536
0,8.732558068295363,2.270686540875687,9.231647399304425,7.804861139100723,0.2599858243031399
0,-4.047741399732233,-5.696175880387257,-6.173744333449751,-5.133468281713264,0.2649855516935844
0,-4.748046127744768,-1.493040405224373,-2.9591327684773403,-2.9817994222469766,0.2699852790840289
0,2.3716439318756617,0.06009298957309772,2.9254821114707434,7.009867732965678,0.27498500647447344
0,5.311328826875864,5.483224327358594,11.09010032370706,8.391533199355091,0.2799847338649215
0,-3.9589913950493596,0.3563536314186311,0.05472188527654043,4.743196991966396,0.28498446125536603
0,-6.609316686291064,-1.1105190751548426,-1.0206531872293019,1.2648591252623276,0.28998418864581055
0,-3.6596469990565144,-2.3373937693754927,-1.5560248774745369,2.0165196132423224,0.29498391603625507
0,-7.539982285112227,0.5857295717948563,2.248606830869419,-0.4118215303535976,0.2999836434266996
0,-2.560322495706776,-3.451149028488611,-2.9867580458240717,-0.1401642919079047,0.3049833708171441
0,-2.4506675816069365,-0.9180295469388167,0.9878805088470479,-2.148508657828387,0.3099830982075886
0,-0.24101749321862398,2.4350880398649255,7.192522511280804,2.2431453855188304,0.3149828255980367
0,2.598627819239906,3.8882037553743007,6.567167977683031,4.784797851768172,0.3199825529884812
0,-1.1417315944217434,4.41131762287388,-2.0081830761567216,-2.693551245574668,0.32498228037892574
0,-1.532095684431178,-2.4455703346400544,3.476469365157769,1.0680981068385085,0.32998200776937026
0,-0.6524644009946381,-2.1624600943691057,1.741125316797095,2.7997459222812395,0.3349817351598148
0,-1.862837694223241,-6.379351633465191,-1.4742152062196234,-2.46860778602854,0.3399814625502593
0,-1.9132155141029994,-2.1562449288000254,-1.079552188966846,-0.6969630049208022,0.3449811899407038
0,-5.913597810444136,-6.053139956855417,-3.204885616482942,-1.9353197211806819,0.34998091733114833
0,0.39601546720407077,-3.790036693695353,-0.16021547366250946,-4.453677921451194,0.3549806447215964
0,-0.46437563044061614,-4.696935114950544,-4.435541745216935,-1.4720375921548037,0.3599803721120409
0,-4.264771052481912,-7.213835195794394,-2.8308644156418485,-8.24039871941399,0.36498009950248544
0,-0.3851707478740063,-2.3407369109096163,4.103816530796484,-1.0787612889700502,0.36997982689292996
0,-0.06557466539669043,-4.417640234494112,0.3985011099418402,-0.6071252861702432,0.3749795542833745
0,-7.205982753663651,-10.804545140282645,-3.586810662403835,-5.8554906960625495,0.379979281673819
0,-8.956394961020463,-4.0614516014598046,-3.762118770425598,-2.5238575034382773,0.3849790090642635
0,-6.926811235285563,-5.44835959056165,-0.9174231981149751,-5.652225692757423,0.3899787364547116
0,-8.737231523552353,-12.015269079480017,-6.122723929181534,-9.740595248044805,0.3949784638451561
0,-5.26765577215449,-3.972180039426278,-2.9480209470208316,-2.3189661527702943,0.39997819123560063
0,0.681916073241168,3.520907559059867,1.5566857653028077,0.31266161015978944,0.40497791862604515
0,-9.45851593254439,-10.556006254112008,-6.598603775010326,-7.805711941764805,0.40997764601648967
0,-3.128951734283652,-5.0229214487032925,-2.2738895505331724,-0.9040867907542969,0.4149773734069342
0,2.7706087236706516,5.970162005934559,2.86082845642033,7.377537081249738,0.4199771007973787
0,5.080165497208252,10.04324414066268,7.3055502636563965,12.439159692271632,0.4249768281878268
0,-6.230281357834559,1.8963249860546103,-3.8997241111818948,-3.159218940147996,0.4299765555782713
0,1.4392682142877118,7.4594045721106035,5.8650053492851395,4.822401200950547,0.4349762829687158
0,0.20881426937099024,2.702482928282631,6.489738662201934,6.954020132134841,0.43997601035916034
0,3.1583568632553307,2.3455600835627477,8.904475844336947,15.46563786953391,0.44497573774960486
0,4.857896051669448,5.328636066561545,7.569216911839549,8.267254428497491,0.4499754651400494
0,0.7074318900901573,-0.18828909443593966,5.203961880124099,3.738869823387784,0.4549751925304939
0,3.9069644336976417,4.054784628567061,6.338710763906793,10.670484067689916,0.4599749199209384
0,6.676493737373167,4.1478572633061095,4.2134635772951645,12.382097174121645,0.4649746473113865
0,0.20601985564418612,-0.059071162759854356,0.7282203338853528,4.043709154543709,0.469974374701831
0,2.555542842674731,-4.416000622392657,5.7229810468809825,6.075320019946149,0.47497410209227553
0,4.775062752343211,6.147068911592475,7.277745729134187,12.066929780583596,0.47997382948272005
0,3.6645796382507854,3.11013746634909,5.672514393032894,3.158538446001671,0.48497355687316457
0,-1.6659064463186866,-0.1367949311607013,-0.7227129495783383,1.3801460250474689,0.4899732842636091
0,-2.9463954482882713,-5.183728254176383,-1.787936287245755,0.10175252608748109,0.4949730116540536
0,4.783112685403768,4.779337524051547,3.7868443913488328,5.9533579572488,0.4999727390445017
0,-1.1573819921639237,6.872402430288114,6.741629097438727,5.974962326420485,0.5049724664349462
0,3.002120572003994,7.985466491034849,5.406417841969754,6.956565641075512,0.5099721938253907
0,8.111620430724273,4.978529732232634,4.781210635399387,5.328167908121098,0.5149719212158352
0,4.511117636477995,-0.9784078207810591,-2.1639925123028974,-0.8202308660961971,0.5199716486062798
0,-6.269387758687782,-5.485346143029716,-3.889191591438575,-2.518630675594905,0.5249713759967243
0,4.830104297016831,4.917714790432726,6.065613407678346,5.82296848549031,0.5299711033871688
0,5.079593855302699,11.300775004557629,13.840422494667537,10.334566622899457,0.5349708307776169
0,-1.2909190322862931,2.0238345239687288,-0.18476432130093856,3.406163741953815,0.5399705581680614
0,-3.7614343144169142,0.31689337273942186,-3.4699470316609697,0.4977598473847922,0.5449702855585059
0,-0.49195193976731577,3.1199515745372963,1.2448743718632291,2.229354943486253,0.5499700129489504
0,-1.3924718568570935,4.823009152794942,1.1996998975568136,0.23094903433270397,0.554969740339395
0,7.28700598590069,8.926066130639157,7.454529553670499,10.02254212381743,0.5599694677298395
0,-1.5435183599888165,-1.7808774692638816,1.1693633482133268,2.2841342155101536,0.564969195120284
0,-1.564044843202982,-0.9078216246615809,-1.1457987111362498,-6.954274687418116,0.5699689225107321
0,0.6154265875026894,3.285233686519038,4.1490433830712945,2.8573154180268263,0.5749686499011766
0,10.524895983344013,7.198288486249341,3.623889638130398,7.208904534862929,0.5799683772916211
0,8.824363395251657,11.971342796165475,12.418740061040854,13.220492665903254,0.5849681046820656
0,10.96382887348493,12.06439663720114,12.733594658196061,12.322079813273374,0.5899678320725101
0,7.113292467410226,4.477450029336415,2.7284534350955774,5.333665978090345,0.5949675594629547
0,6.732754225500306,6.72050299162539,4.0733163963580985,2.955251160507505,0.5999672868533992
0,-3.3777858044958533,-3.806444457548582,-2.551816453966724,-3.943164639945275,0.6049670142438437
0,12.351672424691627,8.636607699810021,9.303054887883532,13.288418575964254,0.6099667416342918
0,3.541128959926641,5.269659481402404,4.117930425397041,4.21000080715864,0.6149664690247363
0,13.800583847492643,14.492710904449522,15.24281016156645,12.251582051975907,0.6199661964151808
0,17.950037132818345,13.055761985360267,21.687694098519696,18.473162307889957,0.6249659238056253
0,12.379488860154455,10.448812739451704,11.11258223707522,9.734741571234503,0.6299656511960698
0,12.568939072360173,12.511863180848326,18.157474576481828,12.016319837034338,0.6349653785865144
0,12.908387810936835,11.42491332251254,15.69237111442371,11.207897099073367,0.6399651059769589
0,17.537835116094676,15.467963176243348,16.30727184703773,14.279473349987173,0.644964833367407
0,10.667281026699028,10.911012752611027,13.862176768896173,10.481048581238266,0.6499645607578515
0,11.456725580254163,12.274062060926017,14.587085873056573,10.822622783100533,0.654964288148296
0,8.02616881304117,3.9071111093312147,6.911999151180139,8.934195944731105,0.6599640155387405
0,5.0256107603299185,4.7101599050375365,3.5469165937684637,1.5557680543225052,0.664963742929185
0,4.265051456604985,2.453208454618147,3.4418381905236806,4.287339099349526,0.6699634703196296
0,4.024490935773666,2.7262567642279487,1.3567639306691703,2.7489090668254805,0.6749631977100741
0,2.263929231304468,3.509304839706012,-1.1683061968518058,1.1104779434412921,0.6799629251005221
0,-4.426633623643729,-8.147647313332467,-9.793372203162885,-7.727954284306662,0.6849626524909667
0,-3.967197595986722,-5.104599689252298,-5.0384340991298435,-5.946387629831035,0.6899623798814112
0,-3.5077626524404555,-6.581552282058384,-2.513491895102538,-9.764822106101775,0.6949621072718557
0,1.3416712405954891,-2.5985050852159755,0.28145439905831826,-9.383257725395191,0.6999618346623002
0,2.8211041169231494,9.93454190822675,5.266404773727235,-1.8816944991992544,0.7049615620527447
0,3.2805360103168875,6.817588705224493,5.541359219198331,-4.100132438314187,0.7099612894431893
0,-0.3400330456416225,1.5706353122968122,5.416317725413896,-3.5385715530622806,0.7149610168336338
0,0.7993969824363094,3.073681735431148,-1.2687197181403556,0.5729881465697535,0.7199607442240819
0,2.158826127822168,-2.7332720197271403,2.396246877672761,-1.2054533491712025,0.7249604716145264
0,3.2382544236739923,1.5697740523322852,1.771217501801985,-0.8838960499128787,0.7299601990049709
0,5.447681902941696,4.312819957070709,4.356192143036796,0.5276600347865614,0.7349599263954154
0,5.427108598233768,2.33586569982065,0.061170789944885784,0.6492148954105532,0.7399596537858599
0,1.996534541723336,-2.71108871430483,-4.423846569097456,-1.899231477552204,0.7449593811763044
0,6.5559597651445145,5.791956719638108,3.171140054255388,1.5823209063923427,0.749959108566749
0,14.605384299744347,12.52500200639196,9.386130648348251,4.043872037725512,0.754958835957197
0,14.174808176006891,9.908047150174056,13.381125201207444,10.35542190675172,0.7599585633476416
0,20.604231423240293,18.87109215426356,19.21612370002327,8.696970503295313,0.7649582907380861
0,12.103654069263749,9.014137020722924,12.541126130705056,-0.681482183513255,0.7699580181285306
0,15.913076140318257,6.847181750346602,10.496132477707883,0.910063834873122,0.7749577455189751
0,13.872497661142448,9.820226342853312,7.2611427241794715,-1.7883914532597363,0.7799574729094196
0,12.231918655061332,7.4232707970929335,8.27615685223455,-5.646848059617782,0.7849572002998642
0,6.531339144094243,4.21631511112856,5.30117484315681,-5.545305995688121,0.7899569276903122
0,10.840759149154003,2.8893592823510166,2.9961966775395767,-6.4237652725397005,0.7949566550807567
0,1.6501786902584437,-7.56759669226771,-5.288777664504,-14.532225900645475,0.7999563824712013
0,4.269597786729758,-3.184552815805431,-0.6937482030166486,-5.330687889687939,0.8049561098616458
0,-1.6309835425680723,-2.68150909106564,-2.3387149579220403,-6.359151248460083,0.8099558372520903
0,-1.2315652789858649,-4.988465520473104,-8.193677948901117,-7.36761598496745,0.8149555646425348
0,1.8578525960896863,-0.11542210610889239,0.10136280469864456,-0.4960821065826332,0.8199552920329793
0,1.3672701012770436,-7.952378849735927,-4.1435927160870145,-2.834549620192285,0.8249550194234239
0,-5.073312744835554,-12.039335752708103,-8.53854452985939,-8.67301853232509,0.8299547468138719
0,-9.493895923566399,-13.116292815682652,-10.633492654748322,-11.961488849065127,0.8349544742043165
0,-5.7744794158264865,-11.553250038292889,-6.118437108175266,-13.169960575736361,0.839954201594761
0,-6.995063201881834,-8.930207419015726,-5.9733779067547355,-7.7184337166293435,0.8449539289852055
0,-8.375647261303993,-10.147164955234055,-13.47831506633928,-10.396908274958502,0.84995365637565
0,-12.096231572932819,-9.524122643338325,-10.843248601955265,-13.31538425292824,0.8549533837660945
0,-7.586816114756202,-10.68108047876346,-8.668178527637181,-12.923861651692283,0.859953111156539
0,-1.4174008638800375,-4.118038456009917,0.666895143548204,-1.4823404712939867,0.8649528385469871
0,-2.6179857967372806,-0.7849965687891722,-0.7280276008149371,-1.380820710872444,0.8699525659374316
0,-14.028570889301376,-16.001954810227648,-12.51294677279579,-19.049302368967407,0.8749522933278762
0,-2.4591561170127916,-0.13891317286723315,-2.727862384079049,-0.567785443485964,0.8799520207183207
0,-7.069741454624397,-2.0758716486051254,-8.592774445759964,-3.6362699315606917,0.8849517481087652
0,-4.160326876244024,-1.4028302288798682,-7.89768296826762,-4.794755829713513,0.8899514754992097
0,-10.43091235541135,-5.549788904885391,-8.722587961329197,-2.8732431340692206,0.8949512028896542
0,-7.2314978650286585,-0.916747667572295,-7.267489433900842,0.048268159583913506,0.8999509302801023
0,-3.2420833772771926,0.5262934923774918,-10.242387394136134,2.7097780556839552,0.9049506576705468
0,-5.472668863682295,-8.310665415503035,-10.747281849347795,-1.678713441289339,0.9099503850609914
0,0.15674570472087956,3.8423756185350504,-0.5421728059793063,4.632793673073727,0.9149501124514359
0,-0.24383964278201375,2.7054166044269405,-4.007060269750324,-3.065700596916235,0.9199498398418839
0,5.915575123211619,5.448457552067606,1.4880557540519388,3.395803752960362,0.9249495672323249
0,-5.025009967970574,-6.348501528883844,-7.51682473962523,-2.7626932731332134,0.929949294622773
0,-5.02559488705899,-1.435460628893201,-4.821701755575582,-3.901191671020243,0.934949022013214
0,-5.936179604584566,-3.9324197382846675,-5.596575298178671,-3.1996914363726527,0.939948749403662
0,-2.55676409064838,-0.7193788471083937,-2.161445371314457,-1.9681925645834295,0.944948476794103
0,-13.807348314835064,-16.396337945079967,-10.286311978380034,-13.466695050686997,0.9499482041845511
0,-5.637932246090372,-6.033297021348158,-7.601175122231108,-3.1851988891966876,0.9549479315749991
0,-4.088515852594837,-3.900256064250685,-5.996034805039342,-8.253704073938907,0.9599476589654401
0,-9.089099101816615,-10.567215061341873,-5.230891028257212,-10.592210598017969,0.9649473863558882
0,-5.909681960595846,-4.794173999500321,-4.89574379271324,-5.280718453787458,0.9699471137463291
0,-4.460264395135397,-6.211132864932355,-3.9205930987094995,-6.509227632825148,0.9749468411367772
0,-5.190846371036002,-6.978091643194354,-9.215438946053752,-4.917738126019253,0.9799465685272182
0,4.508572146562567,6.374949680696449,-1.1602813340279894,3.4537500762713496,0.9849462959176662
0,2.8679911927278097,0.4979911219997495,-0.4651202614212169,5.705236983939522,0.9899460233081072
0,-2.9325891975360747,-2.688967304045487,-6.849955726678749,-2.0132773932155645,0.9949457506985553
0,-1.0631689893298433,-0.6359255822619773,-1.6647877279675791,-2.2417930455943953,0.9999454780890034
0,3.6362518522591967,0.7271163025859451,8.22038373680439,4.059690036345969,1.0049452054794443
0,1.9156733621363702,-0.989841634192093,2.105558669746702,-2.3388281378402507,1.0099449328698924
0,8.775095575017897,4.483200622715706,2.9907370726813993,3.112652441357988,1.0149446602603334
0,4.88451852522452,4.256243088508279,2.8059189470736334,4.534131783348632,1.0199443876507814
0,-0.15605775343049544,-3.0507142218445087,-2.078895705877683,3.875609897323754,1.0249441150412224
0,-5.156633227502287,-3.647671293534976,-1.6237068851012708,1.6770867921440527,1.0299438424316705
0,-9.60720786352876,-5.334628111653618,-5.458514589463677,-2.8714375236242753,1.0349435698221185
0,-3.167781627631967,-1.991584660967236,2.776681182377431,-1.949963041516308,1.0399432972125595
0,-3.5083544853580992,-2.4185409258771875,-3.4781195680304786,-5.648489752944986,1.0449430246030076
0,0.4810735982101171,4.904503109469062,0.9670831609802722,-1.8870176490432826,1.0499427519934486
0,2.030502658229887,1.0575474609675537,0.7722893711417723,2.9144532793555493,1.0549424793838966
0,0.2599327298943883,-1.3794078556112102,1.4274990641910716,-0.694076958430333,1.0599422067743376
0,-0.6206361516702454,-0.036362824606232746,1.2627122417921797,2.097391646895398,1.0649419341647857
0,1.7887960486044445,2.5366825696237196,-0.4320710944958297,-1.9111408954447293,1.0699416615552337
0,2.838229365730103,6.039728342649768,2.8731490567935416,3.990325423716902,1.0749413889456747
0,7.127663834554083,5.632774509778304,5.898372696997252,5.951790613437148,1.0799411163361228
0,5.79709948957127,4.255821085870483,6.823599827164971,6.263254682478065,1.0849408437265637
0,4.986536364764784,-0.9011319146789973,-0.5711695520991285,1.964717639134137,1.0899405711170118
0,-2.4940255063912646,-2.6580844777667076,-5.565935440553462,0.1161794912533769,1.0949402985074528
0,-2.7345860907118964,-0.22503658932813303,0.1293021619970965,-5.812359753544345,1.0999400258979009
0,-3.9351453549872777,-4.68198823517166,-2.9954567440615585,-2.2809000875737633,1.104939753288349
0,7.994296734169815,6.5610605990468835,9.519787841805751,4.86055849707382,1.10993948067879
0,2.933740210159575,0.22410992770316518,2.1150359200296496,0.3020160084109189,1.114939208069238
0,-1.026814893862616,3.727159765020457,0.7602874907090562,-2.726527545627134,1.119938935459679
0,-4.347368544967605,-8.819789874954505,-6.8344574463248815,-4.675072157125727,1.124938662850127
0,-2.047920710190599,-5.396738978108904,-1.7991988912008403,-5.243617817961923,1.129938390240568
0,-5.198471356319278,-5.413687529935504,-2.0739368437728305,-7.122164519606277,1.134938117631016
0,-2.3890204498133985,-4.9006355153761145,1.8013286963722333,0.7792877469612185,1.1399378450214641
0,5.890432043155978,2.4324170811147616,4.296597729738583,3.8807389911344456,1.144937572411905
0,8.979886156445884,7.475470275321653,5.841870256685916,7.06218922234656,1.1499372998023532
0,-5.270658076398528,-5.631475917055234,-3.9028537227327744,-5.8363615502230966,1.1549370271927941
0,5.008799377808956,5.201578519487288,8.81242579124793,2.685086682373533,1.1599367545832422
0,7.798258552022885,10.35463360027158,8.377708798101953,9.676533928977559,1.1649364819736832
0,-0.2922805210995173,-0.012310659730470519,0.6229952968329925,2.6879801981794116,1.1699362093641312
0,6.7071821906905615,2.710745753966179,3.498285285911433,4.539425498092751,1.1749359367545793
0,4.266646719242722,-0.8561971444975733,-0.2964212365561901,1.670869836360648,1.1799356641450203
0,1.6161130960077408,2.596860658862435,0.7388757273454472,-0.19768677970367113,1.1849353915354683
0,6.215581352041316,5.05991917790164,6.604176175395299,2.5237556570145934,1.1899351189259093
0,1.9750515180326977,-0.9570215737324248,2.3094801051563554,-3.0648028464737602,1.1949348463163574
0,2.19452362431658,-3.343961582591397,5.80478751384261,1.196637716812032,1.1999345737067983
0,1.733997700930784,0.7390991647459566,2.2300983982634213,1.8080773538641177,1.2049343010972464
0,6.66347377766405,3.4321606817766046,3.4854127548441305,0.17951607164524086,1.2099340284876945
0,3.312951883993883,-0.6347770180219694,0.9707305796824148,4.490953877009698,1.2149337558781355
0,-2.487567950966746,-1.8117139212687463,-1.1039481313579353,-4.66760922332679,1.2199334832685835
0,1.0419143016556238,-0.5586500146001351,3.26137661745999,-0.13617322271368554,1.2249332106590245
0,-0.6686013293174934,-0.6455852845742366,-0.06329517821047814,1.8852618855515746,1.2299329380494726
0,4.69088518492591,3.147480282315812,3.62203647716532,3.566696108195285,1.2349326654399135
0,-1.0596261268960634,-5.299453300419314,0.31737157896152934,0.4081294518171721,1.2399323928303616
0,-4.07013523617607,-4.566386019207985,-2.157289877592937,-0.2704380771667632,1.2449321202208026
0,-4.310642114252747,-2.483317860231276,-2.431947897301219,-2.1790064724338087,1.2499318476112506
0,-2.2411467322004457,0.8797511906614779,-2.7966024848412014,-3.437575727608925,1.2549315750016987
0,5.878350939188571,8.962821147779126,8.348746355265959,2.733854163833475,1.2599313023921397
0,3.317850929170133,0.8758920252630733,3.764098618447369,-2.484716791452238,1.2649310297825878
0,3.067353266766764,4.968963836869451,6.469454299777052,2.57671141323062,1.2699307571730287
0,5.046857980644946,2.9520365959597696,4.334813393821298,5.1081387845296415,1.2749304845634768
0,3.1163650991004164,9.855110315506279,7.650175894615451,8.429565328866552,1.2799302119539178
0,1.7558746500631939,7.108185007963748,1.7155417956592998,-0.939008947770737,1.2849299393443658
0,-1.9546133388228273,-2.338739314834024,-4.569088909985715,-2.6675840398030286,1.289929666734814
0,1.904901159951352,-0.3456626415117616,1.3562837705694877,3.363840058191094,1.2949293941252549
0,-2.8755818261245496,-2.79258496081654,-4.048340169715841,-3.8147366483566563,1.299929121515703
0,13.213937730396406,12.680493738521797,9.40703926221016,4.246685846000319,1.304928848906144
0,10.283459856646942,9.013573467534286,4.932422059282889,2.9881075466607543,1.309928576296592
0,6.712984579044376,9.78665423657986,5.017808214033792,-1.140471541125172,1.314928303687033
0,6.592511923122438,10.16973605509614,10.393197718424243,0.08094858773052593,1.319928031077481
0,8.912041913624053,6.002818931582337,4.7385905637729655,-3.347632061722557,1.324927758467929
0,19.16157457449151,17.785902873618532,20.71398674062533,10.34378651559027,1.32992748585837
0,13.691109928590244,13.268987887744357,11.60938623849483,1.8152043246080223,1.3349272132488181
0,17.490647997388567,9.56207397926032,14.434789045589062,5.4166213698956165,1.339926940639259
0,22.24018880077253,18.095161152169542,18.74019514869264,10.358037655525369,1.3449266680297072
0,23.439732356854847,21.218249409124567,20.005604533075896,8.149453184962596,1.3499263954201481
0,23.769278681710993,19.541338751167668,20.941017182287766,8.780867960899418,1.3549261228105962
0,23.22882778919196,16.29442917749208,20.006433077970378,8.032281985182175,1.3599258502010443
0,28.428379690835442,26.707520685390953,28.571852199738515,18.483695258767014,1.3649255775914853
0,20.797934395790275,23.480613270163797,18.317274525037032,9.575107781544599,1.3699253049819333
0,18.107491910839656,18.68370692493319,17.632700029099038,14.416519552160572,1.3749250323723743
0,13.007052240653227,17.096801640655393,12.978128685162508,6.347930568022071,1.3799247597628224
0,1.1066153882360645,3.399897406432634,-1.266439535107048,0.22934082550777973,1.3849244871532633
0,15.936181355426756,15.78299420996586,15.888995338875056,15.430750320255687,1.3899242145437114
0,6.0857501431711505,4.426092037890414,6.15443327689189,8.132159047227812,1.3949239419341595
0,-2.3146782484071537,-1.370809124021219,2.819874247930977,-2.4164329994052305,1.3999236693246004
0,-6.125103819708041,-4.867709290500273,-9.514681779634977,-0.32502582608597663,1.4049233967150485
0,-8.485526571091219,-6.82460847627166,-2.7692348375342943,-2.0436194394404232,1.4099231241054895
0,-9.545946502408869,-8.32150669565923,-8.223784957136402,0.46778615397340567,1.4149228514959376
0,-13.596363612724327,-10.128403962346347,-13.888332169210198,-8.900809052262275,1.4199225788863785
0,-4.436777900150286,-3.065300289251217,-6.15287650372313,-2.4894050642985444,1.4249223062768266
0,-3.787189361887636,-2.592195688587479,-2.337417989754142,4.491998112072571,1.4299220336672747
0,-9.957597994433204,-4.569090172068516,-6.551956655672344,3.693400471232414,1.4349217610577156
0,-12.978003793632876,-10.305983751002742,-15.216492529274852,-6.4651979925376795,1.4399214884481637
0,-10.658406754469024,-11.222876436130543,-14.381025637566967,-3.303797285008073,1.4449212158386047
0,-13.128806870844492,-9.889768237355302,-12.285556006399371,-7.9223974117013105,1.4499209432290527
0,-6.069204135539743,-2.076659163638177,-1.770083660377006,-0.30099837768985865,1.4549206706194937
0,-7.409598540323959,-7.623549223146016,-7.464608623124668,-4.729600187600624,1.4599203980099418
0,-8.799990076126287,-7.110438423431676,-4.939130917603867,1.4617971542697257,1.4649201254003898
0,-10.530378733098887,-7.497326771440021,-7.333650566220646,-3.9968063561584772,1.4699198527908308
0,-4.780764500569527,-3.734214273452519,-4.198167590803898,-4.845410722774318,1.4749195801812789
0,-0.5811473671020888,-2.771100935149454,-1.8826820126352288,0.73598405078574,1.4799193075717199
0,-3.7715273207384294,-5.13798676175004,-3.297193852568297,-0.19262203886600793,1.484919034962168
0,-1.6719043492168149,-3.72487175808783,-1.5117031311516098,1.5787710049931656,1.489918762352609
0,-1.1022784400471017,0.07824407137162692,-1.5662098686954744,4.200163179040614,1.494918489743057
0,5.147350419412968,-0.7386392775564852,1.0692859146684028,4.32155447976764,1.499918217133498
0,-2.9130177581981154,-0.6455218089159259,0.47478419889348766,-0.25705509662879844,1.504917944523946
0,3.616617039655993,5.747596473278003,-1.9797150360579803,5.554334445750789,1.509917671914394
0,-0.4537451745857497,-0.3992844350864515,-3.654211810187145,-1.2142768974430915,1.514917399304835
0,-6.604104388525661,-0.6861645382968569,-6.258706143313826,-3.7128891307309817,1.5199171266952831
0,-8.32446058960844,-4.503043840718121,-8.953198054872107,-4.461502258605071,1.524916854085724
0,2.5351862351389447,-0.9799223465997131,-2.2376875637347453,-0.510116285314434,1.5299165814761722
0,4.294836099069082,4.863199939986749,5.067825311750825,6.851268785123365,1.5349163088666131
0,2.514489015565175,6.786323014959553,4.8333405534222145,5.162652948642244,1.5399160362570612
0,-1.865855002207483,-1.6105531260448194,-2.3711418570623457,-1.9459637991480299,1.5449157636475093
0,-0.2761959412483762,4.932571512258879,4.114378061701718,3.8354185370335085,1.5499154910379502
0,-8.826533788515562,-4.134303075074994,-11.580099708972657,-11.633200047650716,1.5549152184283983
0,-8.636868530659621,-12.101176893000089,-9.43457518755506,-9.841819557819587,1.5599149458188393
0,-18.13720015366967,-21.078049946006278,-19.66904839182834,-21.3404399973786,1.5649146732092873
0,-10.547528642496927,-6.194922237519722,-7.873519338446828,-10.58906136902984,1.5699144005997283
0,-16.69785398080751,-12.741793769648405,-17.747988042746357,-9.727683674068299,1.5749141279901764
0,-0.8281761509760562,0.13133545662252377,-2.8824545187889403,-2.836306912568308,1.5799138553806245
0,-2.1984951343668655,2.8844654410316957,-2.496918779591429,3.7950689161848956,1.5849135827710654
0,2.26118908819701,3.6175961835687724,-1.3013808375164935,-0.7635561867769516,1.5899133101615135
0,-5.099123463929581,-3.37927231587515,-4.145840704600431,-2.0221822204012216,1.5949130375519545
0,-3.7694327712687277,-1.8161400575187847,-2.650298392636525,-4.480809183606239,1.5999127649424025
0,-4.139738814080629,-0.40300704151640004,-5.204753913123536,-4.649437075103454,1.6049124923328435
0,0.7699584277184475,5.0301267320835015,2.8007927227552076,3.50193410670512,1.6099122197232916
0,-3.060341025513742,-6.026738736773785,-2.0436584959595194,-4.00669563635213,1.6149119471137396
0,1.1993628467434037,1.6763965518306614,4.971892419833163,-0.895326302331134,1.6199116745041806
0,7.23907006505551,3.4595325978540106,5.76744545911605,2.496042110808018,1.6249114018946287
0,1.0087806498318825,2.3826694012095704,1.0230006105763776,-0.15259039484554265,1.6299111292850696
0,10.358494621118897,7.315806961577572,10.648557862492325,5.208776182724308,1.6349108566755177
0,0.3082119984887539,0.3589452782764419,-0.6758827973212376,-0.6498581546390401,1.6399105840659587
0,2.9979328010405073,0.9520843502637313,2.019678618505747,3.8215065946988243,1.6449103114564068
0,-0.9523429524635216,-0.13477582373114927,-1.8147579029356637,-2.4371295678084484,1.6499100388468548
0,-4.232615243391999,-9.5216352450056,-2.6791923746160613,-11.27576664073422,1.6549097662372958
0,0.7371159469446182,-2.0884939146328514,-2.373624809405122,-7.384404622332849,1.6599094936277439
0,2.5068506373625845,-0.49535183328701315,0.551944780011703,-1.2830435102227473,1.6649092210181848
0,2.1265888466857463,5.717790998644078,3.747516381075685,2.0983166985551223,1.669908948408633
0,-6.813669406355827,-8.28906541918926,-6.506910018769588,-8.330323992745111,1.6749086757990739
0,-4.7339241029808035,-5.115921087087817,-6.50133443201837,-5.9489655806308575,1.679908403189522
0,-7.554175224064456,-9.102776005005806,-12.805756870785574,-7.057608061160501,1.68490813057997
0,-3.164422749953114,-2.8696301723044066,-3.8201773464778546,0.8237485701817597,1.689907857970411
0,0.9753333395107697,1.5135164122235196,2.645404130240748,-7.564895681608861,1.694907585360859
0,-2.9349069351926835,-1.433336249885465,-2.8490124508499015,-5.193540811143426,1.6999073127513
0,2.1548564465622038,0.09981184300955215,1.0565729001673805,-3.2021868125876085,1.704907040141748
0,0.19462350545049356,2.942960692562095,-1.5578398267435758,4.0791663203147515,1.709906767532189
0,-5.765605737835828,-6.113889699586676,-13.932250641481495,-3.0094814059714046,1.7149064949226371
0,-5.095831262474972,-6.56073933170803,-8.846659553503432,-8.278129984897157,1.719906222313078
0,-7.366053047283384,-12.127588201688566,-8.281066571460173,-7.146779409638198,1.7249059497035262
0,0.05372892942671259,-4.774436306719804,-1.51547170311968,-5.005429672814985,1.7299056770939742
0,0.9435146897644606,-1.3012836432291353,2.2701250443759102,-0.764080766440234,1.7349054044844152
0,-2.3666957439611513,-0.9581302070967621,-4.02427633583544,-5.882732682065202,1.7399051318748633
0,-2.4469023493595303,-1.3849759939334387,-5.838675850477809,-3.391385410883859,1.7449048592653043
0,4.222894896056879,1.4681790007706084,-3.4230735060113218,0.2999610562545859,1.7499045866557523
0,2.972696014796115,-0.598665218425112,-2.307469308501234,0.7113067287610784,1.7549043140461933
0,2.8425010291960517,1.5244913530301532,1.1781367363279476,4.672651616108347,1.7599040414366414
0,-8.967690038616364,-8.582351280303213,-11.136255377005984,-5.876004272321806,1.7649037688270894
0,4.112122833477051,1.6508068862841287,-2.110645653667187,6.735339072764826,1.7699034962175304
0,-0.6680603322611205,0.05396585774096932,0.10496590162308223,1.2666816605873126,1.7749032236079785
0,-1.9882395134893982,1.077125639147659,1.4305792844734213,2.3280235001883347,1.7799029509984194
0,2.0915853121484926,3.320286235548187,2.2461944905592706,1.3493646003709499,1.7849026783888675
0,3.6814141669993514,5.5034476518214435,4.321811515433114,2.7507049697319133,1.7899024057793085
0,-6.888752926661741,-6.3533901073968275,-2.8225696455581697,-7.677955383266116,1.7949021331697566
0,7.101084053391566,7.319772962350803,8.553051002727695,6.53338354983936,1.7999018605602046
0,1.770925129351156,4.392936865394616,4.698673455180264,2.034721777544517,1.8049015879506456
0,10.150770323189809,7.6061016057654705,8.704297706251678,8.126059308178222,1.8099013153410937
0,4.0006196564132805,1.5992671869991517,6.449923749780099,7.19739614964058,1.8149010427315346
0,-2.889526850009847,-1.8675663878254705,-1.6944484210275212,-5.2712676906972655,1.8199007701219827
0,-7.909669175396345,-8.554399115802344,-7.538818813353242,-7.379932205764127,1.8249004975124237
0,2.4701927010606557,4.398769006139069,1.4368125656475461,4.691402611630021,1.8299002249028717
0,-0.18994119955576572,0.7519379813058248,2.55244570904629,-2.4872632310697,1.8348999522933198
0,-7.860070855990367,-11.51489218688419,-11.761919389934684,-12.885929726238775,1.8398996796837608
0,-0.34019624679924143,-2.941721494797306,-0.986282737862932,-2.5545968659016065,1.8448994070742089
0,7.6396826496999,3.2814500616273565,3.3193556590565216,2.3867353584676194,1.8498991344646498
0,4.989565855177923,1.1346224867471442,3.0749957948260147,3.82806695573558,1.854898861855098
0,7.989453390912592,0.11779578491295586,-0.15936233665165,0.9793979347233204,1.8598985892455389
0,6.959345277578445,3.010969960350991,6.366281258304311,3.230728304025935,1.864898316635987
0,-4.000758464754729,1.20414501715493,1.1119265731235894,3.352058071995741,1.869898044026435
0,5.249142183568981,4.5073209592419285,5.057573600930631,7.553387246692533,1.874897771416876
0,0.8190472420006938,-0.19950220969748308,5.19322233450041,6.804715835743475,1.879897498807324
0,1.8289567298238762,-0.8963244861747076,5.49887276619738,6.566043846192874,1.884897226197765
0,-9.6011293337976,-8.263145866738851,-8.515475112015716,-6.642628715487277,1.889896953588213
0,8.418789070364024,7.550033652226413,5.370178691640436,9.538698156827083,1.894896680978654
0,4.398711961606037,1.3432140744702217,5.815834168924469,4.700024469040442,1.8998964083691021
0,5.16863935900203,9.44639540358246,7.811491311383587,5.931350226680022,1.9048961357595502
0,1.6485712811826498,1.69957764272992,0.6671501100793092,5.552675434731421,1.9098958631499912
0,0.47850774638812577,-1.897239205374125,0.9028105555917574,-0.9259999023385901,1.9148955905404392
0,6.58844877259434,9.435944861672027,3.268472638209159,7.035324219540489,1.9198953179308802
0,-7.521605622426897,-4.510870153961853,-5.53586365192294,-6.953352195827252,1.9248950453213283
0,-1.2516554209750939,-2.437684250290091,-0.8601983246643692,-4.472029144709469,1.9298947727117692
0,-1.7517006051973367,-2.224497425307599,-2.974531389718792,0.9792933768174925,1.9348945001022173
0,4.588258842962726,3.7786903231633286,1.4111371434203253,1.3606153729350126,1.9398942274926654
0,4.298222941564035,1.8918789973649364,4.476807265361181,2.631936847890605,1.9448939548831063
0,0.9081917084376616,3.165068599405119,4.322478966602781,-4.216742194152584,1.9498936822735544
0,-6.001834838828572,-6.551740868792971,-7.131847762597504,-9.435421749007054,1.9548934096639954
0,4.398143317306412,5.141450594637308,6.643827067875429,1.7058981878162975,1.9598931370544435
0,1.2281261944402677,8.394642991537076,7.649503448056301,4.2672176211699755,1.9648928644448844
0,2.5581138101051337,5.337836323462972,2.145181367685166,5.138536555964655,1.9698925918353325
0,-1.051893818338316,-5.608969408516173,-7.0391391839051,-6.8301450031125555,1.9748923192257735
0,0.24810332634474852,-1.3157742036176288,-1.483458217506254,1.5011729484804146,1.9798920466162215
0,0.8181052613465276,2.167421938983968,-3.8877757436919556,-2.5075095846370377,1.9848917740066696
0,-6.4918879961198686,-2.5893809797708904,-7.82209177268102,-3.3961925976835405,1.9898915013971106
0,-1.8118764287019387,-0.5461829588882839,-5.376406314248029,-1.084876085691973,1.9948912287875586
0,5.678139981178167,3.29701600266873,2.7092806223362897,1.0264399565010585,1.9998909561779996
0,5.248161251147222,9.320215905869892,4.2749690281197505,7.147755534128031,2.0048906835684477
0,-0.04181260141923851,0.38341675136423653,0.5606588941222505,0.4390706522542738,2.0098904109588887
0,3.538218440515018,2.1366185393610624,2.33635021114639,2.9703853156367845,2.0148901383493367
0,-1.9417456062491327,-1.7001787302330653,-0.3679570302009615,-0.5383004712327467,2.019889865739785
0,6.7382952749351634,7.713024942338722,7.467737160525546,5.863013295952066,2.0248895931302258
0,-1.6016588994544148,-4.08377044332191,-2.8865672264399054,-2.9156733786829827,2.029889320520674
0,-0.2816081131197522,-0.47056488776433913,-0.39087020106848736,-1.0843604911533127,2.034889047911115
0,1.7384476501396082,-0.4173583915522622,1.2148282265965538,-1.413048037472441,2.039888775301563
0,3.9085084064661544,-1.8441509551582826,1.380528046513111,-2.2017360135312813,2.044888502692004
0,11.548574171790342,-0.09094257895800106,6.4762292485487345,3.2795755849087826,2.049888230082452
0,6.678644961536938,-0.4977332632413597,3.4619318223145568,2.4808867621127626,2.0548879574729
0,6.918720790398558,2.565476991748965,2.557635757044255,3.462197522206755,2.059887684863341
0,-1.901198327638054,-5.181311814229024,-3.566658958361642,-4.926492130894636,2.064887412253789
0,1.0488876209680245,-5.978099681335753,-3.5909523351110515,-0.045182193363489415,2.06988713964423
0,2.808978649575226,-3.9548866094321875,-2.165244384264325,-1.7238726612796305,2.074886867034678
0,1.7190747714291448,-3.0616725979354396,1.3304648833652541,-0.15256353057944735,2.079886594425119
0,5.609175999582819,4.3115423541073294,4.736175457091438,4.348745202871936,2.084886321815567
0,8.619282346762478,4.164758247763089,6.891887326096663,6.540053543111511,2.089886049206015
0,6.0993938251834905,2.977975083920477,4.777600479174232,2.5413614938568654,2.094885776596456
0,5.989510446414478,6.18119286311942,5.663314904591439,8.172669058370202,2.099885503986904
0,-0.6503677785849553,0.16441158551190085,-2.6609694098773407,1.1739762394287623,2.104885231377345
0,1.3397591607329236,-0.39236874907538866,-1.1552524767510484,-3.5847169605970097,2.1098849587677933
0,3.6198912747018466,4.860851858989557,4.980465691379363,2.506589460477982,2.114884686158234
0,3.540028573476231,4.174073409167656,4.816185081844862,1.3578955048217602,2.1198844135486823
0,0.590171066959799,4.96729590061888,5.041905681690842,-0.9607988254357809,2.1248841409391304
0,7.770318764769187,0.6205193321100737,6.887627477507803,0.5905064717659421,2.1298838683295713
0,5.580471676167727,4.093743702055301,5.663350455352247,-0.6481886015360744,2.1348835957200194
0,0.7006298099589393,1.8169690085888537,1.7790746007282352,-4.556884043267865,2.1398833231104604
0,4.850793174503185,4.920195249575933,3.7347998986684825,3.3244201487507503,2.1448830505009084
0,5.690961777799124,4.3534224225655835,1.1205263338630624,4.395723976770674,2.1498827778913494
0,-3.518864372500005,-2.6433494752320064,-3.4537461092184167,-4.902972557041209,2.1548825052817975
0,7.291314730970232,3.1898795531484145,-0.2080174461636879,4.598330549360042,2.1598822326722456
0,4.25149909533121,3.5231095045335596,1.1577123075136528,3.2296332979393387,2.1648819600626865
0,2.241688727371641,-0.3036596244124323,1.8434431363454913,-1.499064309483108,2.1698816874531346
0,6.811883633472911,3.949572162767593,5.659175024768165,3.142237728729968,2.1748814148435756
0,-0.07791618037891751,2.492804862325324,-0.33509204301203654,2.743539414070934,2.1798811422340236
0,-1.6077107085152404,-1.4139615296979375,-1.1393580830323755,0.4848407478641982,2.1848808696244646
0,1.7625000545840979,3.029272982569672,-3.013623111420817,3.5061417312336904,2.1898805970149127
0,6.302716114377165,4.302508394866985,4.442112855756339,12.187442365039958,2.1948803244053536
0,7.622937476097437,6.205744702698789,6.237849802426511,7.858742649642266,2.1998800517958017
0,0.2931641445275457,-0.6710180987993486,0.37358771228099324,3.840042584651676,2.2048797791862498
0,5.10339612396931,4.362219985147888,2.7293265686676795,5.8813421689447996,2.2098795065766907
0,2.5136334183502544,2.5854589490411044,3.605066354653463,6.462641400809673,2.214879233967139
0,5.583876031262527,0.5886987871335607,3.2608070530508058,0.7439402780163549,2.21987896135758
0,7.644123965898095,3.911939493443766,3.916548646368506,1.1952387979067804,2.224878688748028
0,8.864377224912486,11.055181061716649,9.272291116739998,6.546536957533576,2.229878416138469
0,-1.5953641896754038,1.1184234852481014,-4.341965554145068,-0.9221652463056427,2.234878143528917
0,1.6548997236381209,3.171666756784844,3.423778615033919,2.0891321829238763,2.239877870919365
0,-14.80483103379766,-12.235089131263067,-17.140476394472508,-18.0795707583171,2.244877598309806
0,-0.8945564603428919,0.9481558135962237,-3.3447306010517837,-0.8482740732160367,2.249877325700254
0,4.935723446144267,3.9414015841702894,1.501015977550098,0.0830222356749486,2.254877053090695
0,2.7160086880517404,1.4946481734057568,1.8667633240580004,0.7443181662558098,2.259876780481143
0,4.22629926760758,6.14789557408278,7.08251142123917,-2.4543862834491517,2.264876507871584
0,4.73659518669401,8.881143778621368,3.5582602515823503,1.6469088846101652,2.269876235262032
0,4.2868964468010615,3.974392778916121,2.484009797161172,2.618203668498834,2.27487596265248
0,5.27720304898997,1.9076425662699796,3.209760039655438,2.119498066200297,2.279875690042921
0,2.9475149938777188,6.40089313150159,2.0055109604340497,5.780792075490345,2.284875417433369
0,0.13783228168278383,2.964144465035145,1.421262540609022,-3.957914306122867,2.28987514482381
0,6.548154912317982,5.207396556886455,4.227014761065483,3.3533789186657543,2.2948748722142582
0,2.7484828854112737,3.710649396646213,4.752767602436381,5.024671747040183,2.299874599604699
0,5.068816200232017,8.593902973461013,6.158521045000207,6.785964175959177,2.3048743269951473
0,2.8491548556481594,-2.5228427239968743,1.7042750685899049,-0.4227437980220572,2.3098740543855953
0,2.199498850153115,-1.2295877074222243,3.3200296526102666,-1.9814521787167783,2.3148737817760363
0,9.189848181886353,5.043668011349675,6.525784776104326,2.7498390299130007,2.3198735091664844
0,4.960202848552745,7.136924420371313,3.8415404177325474,2.2511298238658433,2.3248732365569253
0,0.7105628473254872,-3.719818492594876,0.6972965557279958,-5.037579800933524,2.3298729639473734
0,5.57092817490835,0.9134392599224639,4.9930531679569015,2.29371015141139,2.3348726913378144
0,3.70129882764388,-2.7733023346792702,-0.6011897679911979,-4.515000323118947,2.3398724187282625
0,0.0016748015337724187,-0.7500432889168127,-1.1454322747278933,0.396288771588787,2.3448721461187105
0,3.362056092283848,7.043216384770215,4.750325625030303,11.017577431710636,2.3498718735091515
0,0.7824426953893515,-1.603523326130222,0.8160839084723293,3.7088656532135102,2.3548716008995996
0,-1.807165393808162,-3.0102624342948783,0.13184255262446465,-0.3298465684085914,2.3598713282900405
0,0.4832318199636887,-0.9970009524295678,-2.632398465612703,1.1814407619328444,2.3648710556804886
0,-3.616365667986093,-1.9737388930975717,-6.576639169288058,-5.5572723608139105,2.3698707830709296
0,-2.205957862225447,0.18952373130411254,-3.540879581180792,-6.185985941585285,2.3748705104613776
0,-2.345544767122849,-4.437213091484358,-5.355119723647721,-1.6946999849804887,2.3798702378518257
0,4.124873613150876,1.1360506264255315,1.2806403813824658,3.446585504775589,2.3848699652422667
0,1.1652972744787662,-1.2606851269282235,-1.3235992877201572,7.597870523574377,2.3898696926327148
0,2.6657262126190973,2.072579636575866,0.5921612475482936,5.329155067042712,2.3948694200231557
0,-0.013839576863517777,2.095844905041437,0.34792196572492695,0.7404391303220035,2.399869147413604
0,1.916599901433572,-3.0608893335121543,-0.8163171546538373,-0.42827729186231445,2.4048688748040448
0,7.177044642751034,1.0123769088834211,7.389443864904243,8.383005794971563,2.409868602194493
0,5.407494642035993,4.625643620191876,7.205205002685313,1.4942883850571116,2.414868329584941
0,1.6579498937848305,3.3789107882684704,0.9209662365423025,2.655570472275124,2.419868056975382
0,-3.981589607905901,0.7521784007066176,0.5567275438641514,-1.3531479498062216,2.42486778436583
0,3.2788761309012933,6.7554464447980465,6.262488901734006,5.028133112199246,2.429867511756271
0,2.3393471041218987,9.688714907473083,2.998250286977627,0.7594136515262324,2.434867239146719
0,11.159823305513594,15.601983775045468,10.184011676037844,13.710693661140516,2.43986696653716
0,-1.2496952715711176,3.955253032901904,-2.820226955138774,-0.4880268664647893,2.444866693927608
0,2.0807913657535737,2.1085226654729716,1.575534368970295,0.7032520606608614,2.449866421318049
0,11.481283210012199,12.151792656480467,10.471295623622206,11.674530434059303,2.454866148708497
0,5.391780253303754,6.06506298904505,6.407056783729221,0.7758082448858605,2.459865876098945
0,7.082282487090018,1.148333645613354,1.6328178236339481,2.3770854838222704,2.464865603489386
0,-0.8072100978237968,-3.7783953919032536,-4.791421282830224,-4.541637858797322,2.469865330879834
0,1.4933024889182236,2.034875858222628,-1.9156605619809945,1.1196382072885438,2.474865058270275
0,4.283820237433565,6.92814737769974,5.440099959973724,6.400913672378182,2.479864785660723
0,5.734343137622449,3.7014191480562846,4.305860256844042,2.992188526651161,2.484864513051164
0,3.5648711790359897,4.994691150420287,3.1116203021933733,4.173462759955162,2.4898642404416123
0,1.1054043508087503,-2.462036634503168,-3.352619930748337,-3.3552636382152086,2.4948639678320603
0,8.895942641698436,5.111235773705081,6.103139531041717,2.1460093214390885,2.4998636952225013
0,9.56648604002553,6.714508355244584,5.778898660422988,10.907281628101053,2.5048634226129494
0,8.927034533449863,9.607781089935752,8.564657429901832,1.338553270657788,2.5098631500033903
0,6.877588108798909,2.6310539569942235,7.260415811392505,2.299824237519693,2.5148628773938384
0,4.85814675209019,5.304326934993753,2.176173776128498,-0.03890548328652377,2.5198626047842794
0,8.298710448645263,8.267600001957533,2.3419312947670665,6.522364096044503,2.5248623321747274
0,8.719279183131405,11.730873135319744,8.717688337546914,5.6636329630618585,2.5298620595651755
0,2.7198529395235163,1.0341463117753773,0.2334448743102746,3.5749011049036814,2.5348617869556165
0,0.2904317011784172,-0.13258049266707816,0.36920087450275196,-2.173831491731269,2.5398615143460646
0,-1.1989845489090487,0.07069269762987407,-1.2050436926668109,0.6074351595967719,2.5448612417365055
0,-2.8383958278275436,-0.24603414178827987,-6.019288857995813,-2.8612989547116623,2.5498609691269536
0,-6.037802152539615,-5.432761035342587,-6.303534652063085,-5.0200338481471425,2.5548606965173946
0,5.982796460233858,5.400511992653352,0.9022188949475264,3.221230466005548,2.5598604239078426
0,4.483399993896036,0.03378491795824923,-0.7120282467812882,5.0024939746020864,2.5648601512982907
0,-4.43599156828639,-5.562942283699588,0.08372389310718509,-2.8262433355846865,2.5698598786887317
0,-3.075378243192716,-5.779669636520918,-4.160524714964621,-2.6749814779271586,2.5748596060791797
0,-0.3447600476086732,-7.48639716435064,-8.59477410041185,-2.423720465756143,2.5798593334696207
0,-1.2641369981109483,-0.8931248904995062,6.420975707674853,5.08753968776167,2.584859060860069
0,6.2764908888309,7.690147162144717,8.946724680408735,4.498798969479287,2.5898587882505097
0,5.357123596635054,2.8734189707396123,5.542472788651549,5.500057365996092,2.594858515640958
0,3.807761108369747,2.606690512143416,0.5282200026959891,4.221314863478291,2.599858243031406
0,-0.7315965933258308,2.279961762850115,-1.5560337076280484,-1.2874285523442544,2.604857970421847
0,-1.8509495260913402,-1.1467673009068147,-1.180288372654342,0.7138271039697247,2.609857697812295
0,-1.9102977076081298,-1.893496703018723,-1.4645440226687643,-2.9849181822267483,2.614857425202736
0,6.2203588445130205,2.989773532621491,2.7111993121397626,-2.0736644255160575,2.619857152593184
0,6.4410201125902145,4.083043382106432,5.106941601576896,7.7075883596226245,2.624856879983625
0,-1.288313921376952,-3.173687178607528,0.0926828152671948,-2.8711598413159893,2.629856607374073
0,-1.287643275724795,-0.9004181736916312,-2.6715770773944283,-4.499909042952712,2.634856334764521
0,-8.856967968852013,-6.147149627259499,-8.445838107040855,-7.2586592598248645,2.639856062154962
0,-8.266288018852057,-8.363881563138813,-11.300100303966245,-9.807410506045796,2.64485578954541
0,-10.74560344318918,-15.660614004592436,-10.124363697754927,-13.06616279501845,2.649855516935851
0,-4.244914258514211,-1.937346974029376,-1.5086283171007766,-5.17491613923354,2.654855244326299
0,-13.764220480643399,-16.634080492897024,-12.042894189891184,-15.563670550200651,2.65985497171674
0,-7.693522124543738,-12.83081458165649,-8.647161343297158,-4.4724260384562715,2.664854699107188
0,-2.322819204309274,-0.11754925970557639,-3.961429803716743,-2.111182613641228,2.669854426497629
0,-1.7921117333242589,1.8457154544350507,-4.365699596806591,-3.039940284752066,2.6748541538880772
0,2.188600275413084,-2.711020457365605,-0.5799707476849116,-0.728699060426455,2.6798538812785253
0,-4.260683190953738,-8.767757013105669,-5.254243281115228,-1.317458949086531,2.6848536086689663
0,-0.1699621451987543,-7.944494230466514,-1.3985172215729522,0.8537800409859855,2.6898533360594143
0,-3.509236599957112,-5.111232126529902,0.3172074067312495,3.125017901553892,2.6948530634498553
0,-2.978506567663767,-5.137970717701647,-5.517069420204864,-6.113745375653421,2.6998527908403034
0,1.322227939469087,-1.8347100198176727,0.35865227380310283,4.337490201088797,2.7048525182307444
0,-5.217033090575852,-3.3914500482881054,-3.1056275348479683,-4.03127537643358,2.7098522456211924
0,2.1937103303433005,-4.578190818189308,-1.109908869559466,-4.0100421163407765,2.7148519730116405
0,1.9544581904796354,-0.18493234428522776,-2.5441917535519893,-0.41881002657406985,2.7198517004020815
0,-6.29478952188409,-8.251674641024035,-11.2484762098017,-9.337579114789282,2.7248514277925295
0,-11.85403281833284,-14.078417722428368,-13.352762260790659,-15.646349388182164,2.7298511551829705
0,-2.8832717099762077,0.38483839815343934,-2.2970499281821697,-4.3051208531655245,2.7348508825734186
0,-7.612506207232981,-8.931906291865607,-10.191339232744399,-7.1438935152022065,2.7398506099638595
0,-4.891736319874277,-7.608651804429641,-11.095630194452193,-5.872667378950409,2.7448503373543076
0,-9.710962057072765,-7.765398150847625,-14.019922832415341,-9.331442448407465,2.7498500647447557
0,-5.100183427351613,-1.8921453417348073,-5.524217164701115,-6.130218726891239,2.7548497921351967
0,-8.33940043853905,-10.138893387075287,-9.988513208337062,-13.408996216961464,2.7598495195256447
0,-10.638613097742851,-11.65564229623077,-8.342810979445929,-13.917774920279689,2.7648492469160857
0,-1.1378214113168748,1.4076079221760494,-1.4571104933536818,-6.256554837434357,2.7698489743065338
0,-1.567025384954924,-1.3491427398194054,-3.6314117647470763,-5.30533596795716,2.7748487016969747
0,-4.346225023934797,-1.7158942898442862,-2.795714807890203,-5.524118310567873,2.779848429087423
0,-16.045420333180942,-15.202646735305427,-15.910019636663279,-14.512901863332393,2.784848156477871
0,-3.644611317001239,-8.729400083099284,-6.524326264319924,-7.6916866235472385,2.789847883868312
0,-3.143797978894012,-4.076154339279666,-7.518634703237757,-8.810472587571347,2.79484761125876
0,1.6570196782591917,2.107090490885671,-4.7129449649398,2.6707402491029892,2.799847338649201
0,-1.9921583481501173,-3.279665597448409,-3.7372570602811717,0.5319518915126658,2.804847066039649
0,-0.3913320606415145,-0.15642260897073323,2.5884290003532424,-0.916837655148988,2.80984679343009
0,6.389498538288051,4.7668194516979066,7.584113206766403,6.354371614263915,2.814846520820538
0,-2.4696665539466647,-2.3899394200919892,1.0197955485955317,0.0555797047468603,2.819846248210986
0,0.3911726599154194,-0.5666992290786457,-0.1945239848631115,0.4967866210777129,2.824845975601427
0,-2.517983822921989,-2.623459979998402,1.7411545954431513,-1.2320076321214248,2.829845702991875
0,2.9428639947953217,6.039778322489484,8.556831278408609,5.879196949707512,2.834845430382316
0,-1.4262838896441048,1.3030156736949003,2.1625060526409317,3.0604003709933343,2.839845157772764
0,-0.06542747896508028,1.2962520687347843,1.8481789063300875,0.48160263589991537,2.844844885163205
0,2.8154332240880016,2.8894875024982514,4.283849827296995,0.6428037483276666,2.849844612553653
0,4.336298216694583,6.632721969647774,6.159518803048479,4.524003712005952,2.8548443399441013
0,11.497167495766282,13.935955464454459,12.595185820650018,13.515202530418025,2.859844067334542
0,6.288041057669766,5.729187980494568,6.670850866479197,0.38640020653159124,2.8648437947249903
0,6.688918898035109,9.992419510455903,7.036513926072143,4.547596742669601,2.8698435221154313
0,3.2098010117740343,3.125650046174808,2.492174984190547,4.288792140647417,2.8748432495058793
0,5.280687393220214,2.848879578804803,3.16783402501998,4.839986401888599,2.8798429768963203
0,0.6215780362567418,-3.727891900939631,0.8234910323608344,-2.298820472556892,2.8848427042867684
0,1.2324729344322025,-2.3646644024799075,3.5491459897525988,-2.3276284818778477,2.8898424316772164
0,4.733372081065514,5.788562064832712,5.3647988804932805,6.983562374691076,2.8948421590676574
0,9.404275469210825,7.881787491617824,6.490449687541726,7.454752097811262,2.8998418864581055
0,1.555183091476848,-3.6449881318059045,-3.9639016065645523,3.705940687755747,2.9048416138485464
0,-9.3339050599746,-10.441764815381934,-13.088255019501155,-6.452871855681873,2.9098413412389945
0,3.2170110069109814,1.601457431096805,3.207389431309605,4.308314467063861,2.9148410686294355
0,0.7879312843509612,0.4546785982177174,-3.286968271077606,-0.7605003444422219,2.9198407960198836
0,2.9288557646259594,-0.18210132322368844,-3.451328143281334,-1.5893162906295946,2.9248405234103245
0,-5.4002155600721595,-10.068882342358247,-10.565690201650119,-5.118133371895981,2.9298402508007726
0,7.810717302386679,2.5943355318984667,9.109945537855936,6.613048411495965,2.9348399781912207
0,6.471654344024229,-1.5624477090533502,6.045579059508052,2.384229059337997,2.9398397055816616
0,2.2925955565186733,-1.2492320736163087,2.5612103473602037,-3.154591428724018,2.9448394329721097
0,2.453540931083997,0.6139824298889046,3.946839385001596,1.7465869468049229,2.9498391603625507
0,3.5844904585638355,-0.2628042068038796,2.812466155611952,0.7777641853893609,2.9548388877529987
0,3.96544412950512,4.00040800803866,2.6180906420432124,3.3689402864530833,2.9598386151434397
0,-0.7535980658414771,-3.586380933923392,-5.596287173096809,-0.8998847507085587,2.964838342533888
0,-0.5026361374511885,1.166828958906759,0.8693326927425458,-1.8187109269198474,2.969838069924336
0,5.048329904591654,1.4300376781239592,-0.015049777785610452,-3.7175382429919885,2.974837797314777
0,3.9893000500676776,2.833245215291414,3.2405653980410682,-6.206366699540087,2.979837524705225
0,-3.789725711483798,-2.6335484381395236,-1.8338217971093767,-3.15519629682331,2.984837252095666
0,-3.338747390676435,3.5096567091798705,-2.8382113806302733,-1.0540270346893372,2.989836979486114
0,3.052235001949043,1.9928606485191975,-0.7526033698530659,2.9571410873110544,2.994836706876555
0,-1.9567785440202345,-1.703936628971389,-1.9169977819506197,-2.021691930279724,2.999836434267003
0,-5.745788038921851,-5.730735132207581,-4.501394633913918,-8.630526086880483,3.004836161657451
0,3.615206507042357,2.0724651300141783,3.9742060574570997,4.610638618280228,3.009835889047892
0,7.046205083778195,6.175664149048098,6.839804275439764,3.7218021861854274,3.01483561643834
0,4.707207681011198,4.0888619161473505,2.3254000031068056,1.472964617772692,3.019835343828781
0,5.768214288006646,2.4320584222095074,2.7709932231382295,0.8141259137430067,3.024835071219229
0,-0.48077510647321753,-3.9247463422155295,-1.123416082122288,-0.8947139253896282,3.02983479860967
0,-5.609760513988551,-7.001552386665654,-8.327827930452528,-7.843554899129793,3.034834526000118
0,4.081258053860644,1.341640279542795,5.777757660496778,7.567602993166798,3.0398342533905662
0,1.9522805855445942,-3.0651683525839886,-2.606659326735273,5.228759752231378,3.044833980781007
0,-0.0666929305231243,-4.101978291794829,-5.241078909515574,0.6799153785841805,3.0498337081714553
0,6.364337493897523,3.881210453359673,2.394498894907235,6.691069872360101,3.0548334355618962
0,-0.5946281531750752,-4.535602125521693,-1.9399259305422407,1.1522232333261726,3.0598331629523443
0,2.106410116036831,-0.9524160367471097,2.0056465971516904,4.1633754609032145,3.0648328903427853
0,10.057452289065106,13.330768711413434,9.401216460943072,9.624526554142715,3.0698326177332333
0,5.908498353059862,4.023952110462385,0.8067836435115034,3.275676511621026,3.0748323451236814
0,-0.22045170538642878,-2.762865848615104,-0.5176518728603288,-0.3031746686232653,3.0798320725141224
0,9.20060209979436,2.9303148247497237,4.137909893827016,3.3479730110557546,3.0848317999045705
0,1.7116597542387815,-1.1365058790170117,2.6234689253982904,0.5491195480921911,3.0898315272950114
0,8.792721243121743,1.43667203046547,4.939025203440826,3.270264939751844,3.0948312546854595
0,8.623786551066052,2.6298485435138947,4.524578709200676,5.841409183085496,3.0998309820759005
0,10.00485566200477,8.663023650285622,9.910129423483891,9.442552274791037,3.1048307094663485
0,3.475928559066564,1.4361973405940964,7.345677326508924,8.873694210985988,3.1098304368567966
0,10.0170052246057,7.519369603782848,10.871222397746934,9.56483498700667,3.1148301642472376
0,4.058085640284297,6.0825404286957525,8.536764615815123,3.265974597346697,3.1198298916376856
0,4.329169787128036,1.3657098036579298,-2.2276960414999403,0.07711303579671222,3.1248296190281266
0,3.210257645624438,3.648877716524938,1.0478404030148902,0.2482502957378512,3.1298293464185747
0,-14.438650804047462,-12.957955845101427,-15.746626073549614,-15.100613629503432,3.1348290738090157
0,-8.157555581554549,-5.244790893475453,-9.591095493696784,-9.599478746205492,3.1398288011994637
0,-6.636456705901875,-9.451627440289974,-4.225567879107452,-2.5683450598521667,3.1448285285899047
0,-1.0653541952962284,-0.34846549652064773,-1.5400432506227189,-0.41721257514508664,3.1498282559803528
0,0.025751932610127426,-1.7053050725723664,-5.79452162852712,-0.5060812963534891,3.154827983370801
0,-5.073138339554356,-2.2021461785202927,-10.729003032681208,-5.784951227562542,3.159827710761242
0,-9.862025028912235,-5.86898882422187,-5.7934874823740925,-11.423822372602892,3.16482743815169
0,1.7690918478342788,-0.5758330192640334,5.932025003752488,-1.0826947347939984,3.169827165542131
0,1.5402122744142162,-2.692678772924941,1.027534407414246,5.678431683097404,3.174826892932579
0,-1.8886637652628617,-11.349526094170653,-8.686959289655501,-3.690443121457945,3.17982662032302
0,-10.367536287217515,-14.57637499145404,-16.491456105558225,-11.109319150943502,3.184826347713468
0,1.7335946927919537,-3.753225472366448,-8.895956057683437,0.40180359242856734,3.189826075103916
0,-0.24527084061775395,-2.7600775435658713,-5.430459162363266,-0.27707489310092726,3.194825802494357
0,-0.7441329026189407,-0.18693121108067146,-6.054965434981265,-3.645954608984002,3.199825529884805
0,-2.9229915083181512,-2.35378648063944,-4.379474890231471,-3.4548355564945923,3.204825257275246
0,-3.921846672704379,0.7993566421785887,-4.4339875422667046,-2.503717736670161,3.209824984665694
0,-6.4606984105052305,-4.277501848091889,-2.1085034047784714,2.007398849717546,3.214824712056135
0,-1.6995467360615821,0.17563804321620125,-1.493022491092361,-1.9814857979424354,3.219824439446583
0,-1.8983916633122466,-0.7312236890788434,1.5224551857047914,3.819628319772782,3.224824166837031
0,3.192766794074058,0.46191294994920007,3.047929612603385,3.010741202213385,3.229823894227472
0,-5.986071377462388,-7.384952044691248,-4.376599223460169,-3.5981471514253887,3.2348236216179203
0,-7.784906191348439,-7.541818677766194,-5.661131335547731,-0.5670367420480238,3.239823349008361
0,3.046262339312552,-0.018686953594849745,-0.035666736506705876,3.7940724294664947,3.2448230763988093
0,-8.35256579819519,-5.045556876012781,-8.490205438837137,-5.0948196377323764,3.2498228037892503
0,2.738609383713685,3.7475715514738335,5.185252545301957,0.20628705552510435,3.2548225311796983
0,0.8197878728316199,-0.8493016744966068,1.5807072039610979,0.007392508500610601,3.2598222585701464
0,4.280969656989586,0.4738234427181859,3.4661585251488005,9.00849672049414,3.2648219859605874
0,1.1521547238615577,3.826946899696147,-4.338393503316759,2.9995996905938793,3.2698217133510354
0,1.3233430608922436,3.540068692881015,0.10705110629092747,-3.449298582494528,3.2748214407414764
0,2.6745346553268243,8.983188818429477,3.8224923417369276,7.88180189964148,3.2798211681319245
0,8.98572949418787,11.79630727198224,14.7779301906839,13.58290113513806,3.2848208955223654
0,-3.9530724358336027,-0.7605759515402783,-0.9966353596751469,1.4839991215694464,3.2898206229128135
0,-2.851871148334392,1.502539142120497,-2.8912043227388744,-3.6649041441713446,3.2948203503032616
0,-1.8406666569212105,3.0856525468536096,1.5342232878083761,-0.8138086655297261,3.2998200776937026
0,7.760541024942287,12.658764256287705,5.869647458249079,6.327285554044943,3.3048198050841506
0,8.711751883711242,9.651874263539696,6.955068174700854,5.158378511027837,3.3098195324745916
0,3.1529659053883137,3.144982560925613,0.4104854228752801,5.139470201548352,3.3148192598650397
0,-9.155816924541101,-5.431910859961612,-13.704100811848956,-9.979439378666155,3.3198189872554806
0,6.365403379218284,12.31119399210123,7.311309455975952,6.561649765962802,3.3248187146459287
0,3.4466268019901216,1.654297108090552,0.5467162120646433,2.4627376310470277,3.329818442036377
0,4.417853328958673,1.5273984785966395,-1.0778805578107882,1.2138242121028506,3.3348181694268177
0,-3.8009170550015448,1.2204980938379382,-8.61248086791419,-7.0450904955288465,3.339817896817266
0,-4.449684365180266,-0.7864040561630041,-4.7670847322890655,-4.124006496455005,3.344817624207707
0,7.721551383204239,6.056692018506695,5.208307835442948,-3.1029237949503568,3.349817351598155
0,3.6427901749517977,0.7197863075978236,-3.856303178052705,4.868157605071071,3.354817078988596
0,1.9440319946111668,-0.2671211993642879,1.6990822139512733,0.11923769983281167,3.359816806379044
0,3.3752768263690274,3.3959694869625285,4.324463998157509,5.10031648544719,3.364816533769492
0,3.816524654099957,0.05905835579274593,3.1998421611439865,-1.1586060421947968,3.369816261159933
0,4.6477754613645565,3.1021453961985523,4.725216689206134,3.892470112583761,3.374815988550381
0,6.789029231335522,4.905230597063544,5.290587568259553,5.163544945250687,3.379815715940822
0,0.750285946732199,0.2683139470147513,0.945954783808389,-0.32538154899472566,3.38481544333127
0,0.041545589871017974,-3.908604565558569,-0.4486816789913137,1.185690624771114,3.389815170721711
0,1.352808142838374,0.9144750476742716,2.0066781648230294,-2.243238538681138,3.394814898112159
0,-9.035926412318613,-4.9424472248418265,-6.1179656998364775,-12.082169044519413,3.3998146255026
0,-9.394658093330614,-6.989371394438889,-7.982613287928265,-12.781100897484446,3.404814352893048
0,-14.433386917314563,-10.566297472032364,-10.747264613973611,-15.920034101419986,3.409814080283496
0,0.617887099515064,2.9467745320718035,-1.2419196917961237,2.3210313409782635,3.414813807673937
0,-0.7608360582553525,-1.1401553919109066,-1.786578534554091,1.6120954279148332,3.4198135350643852
0,0.22044359436369731,-3.0570872535263853,0.5087588449903047,-4.056841842039697,3.424813262454826
0,-0.49827395753995773,0.5559789377847602,-0.5959075657729446,-0.585780470230783,3.4298129898452743
0,-9.266988728803273,-8.420956827258921,-10.120577779345238,-8.214720457844878,3.4348127172357152
0,0.04429926597986911,0.18210544232625483,0.3247481920367671,4.166338194216697,3.4398124446261633
0,-0.0344099874361955,-6.214834262130019,-5.149929663459048,-0.38260451470758056,3.4448121720166114
0,1.6268834969209314,0.9582240510425369,2.145388642685793,0.5384514147784031,3.4498118994070524
0,-7.271820294915017,-7.748719626188113,-8.869296900766685,-7.170494017936431,3.4548116267975004
0,0.8094786232028591,1.5843346984402444,3.1260136951876096,2.7105591866595025,3.4598113541879414
0,2.510780237612863,-1.4326129825424565,3.551320419758061,2.8216110282455134,3.4648110815783895
0,-0.6779154652664312,-1.4595626764374812,-1.9933767378315115,0.6526615065008267,3.4698108089688304
0,0.8633915009281456,-8.326514390398994,-6.498077788421058,-6.686289378996244,3.4748105363592785
0,1.41470112248839,1.9365318686884023,0.38721725727266837,3.3147583713664055,3.4798102637497266
0,-7.353986614313737,-3.310423905738472,-4.447491611185169,-8.604195242616312,3.4848099911401675
0,-5.832671723060292,-4.73738171999241,-5.092204403933841,-4.013150220877756,3.4898097185306156
0,-6.661354216921682,-8.97434158009177,-7.3169211307514885,-4.14210656295414,3.4948094459210566
0,0.14996589147625927,0.13869650840467818,-1.6916418009358019,-2.7610642679281185,3.4998091733115047
0,-2.828711410048246,-0.9682674595959689,-2.546366423309418,0.26997666548488974,3.5048089007019456
0,-4.087386133391249,-4.005233488896378,-5.111095006330869,0.14101623878814673,3.5098086280923937
0,-1.9560582901969543,-3.74220158409218,0.6241724418407413,-1.7579455464252707,3.5148083554828418
0,-0.5347278918414777,0.16082825048009322,2.619435913274174,4.143091311460241,3.5198080828732827
0,-0.9033949494942521,5.80385601068488,2.4246954000767995,4.954126813988634,3.524807810263731
0,-1.2820594742026739,2.2268816923412915,-2.130049105769849,3.8151609624504137,3.5298075376541718
0,-7.320721476880662,-2.8600947089614848,-9.3347976123317,-3.1438062422087025,3.53480726504462
0,-7.319380968146962,-5.207073197756567,-10.319550127381712,-5.622774799217655,3.539806992435061
0,-6.428037958098942,-9.67405377837651,-9.554306658005288,-8.781744707622986,3.544806719825509
0,-9.116692456168536,-7.261036454627726,-6.799067210396507,-5.2007159659670785,3.549806447215957
0,-6.06534447107095,-3.278021229622266,-5.603831789892621,-3.5496885721672804,3.554806174606398
0,-4.253994010813762,-10.00500810579893,-5.798600401115257,-3.6786625235939328,3.559805901996846
0,8.737358917128514,2.3680029149882094,4.396626951856846,6.33236218274334,3.564805629387287
0,-4.701285694544116,-6.528988168643383,-3.5681497347507323,-7.306614450022254,3.569805356777735
0,-2.3399278531816643,-5.525981357706486,-2.232930464597183,-6.715592418658917,3.574805084168176
0,2.351432433893647,0.6470233471585222,-2.807715241211676,0.17542828036297342,3.579804811558624
0,10.472795159384948,10.190025945579851,6.827495932045139,6.386447650914254,3.584804538949072
0,1.404160315731843,-0.37697356290943196,-6.697296948134247,2.3774656968974774,3.589804266339513
0,-4.0444721050613985,-1.4339751791126765,-7.19209388501785,-2.5315175780238444,3.594803993729961
0,-3.303102111192547,-4.950978904006498,-5.806894881567746,-2.9405021703500878,3.599803721120402
0,-1.3917297107205922,0.14201526155170047,-7.381699940175408,-2.089488076501871,3.60480344851085
0,-7.8803549114120415,-8.75499268302757,-9.946509062563958,-15.918475292597101,3.609803175901291
0,7.001022279271659,1.3579972619952752,0.2786777502388549,-0.9274638141972099,3.6148029032917393
0,2.1624018540273138,-1.889014903315287,-1.9861395022109867,4.303546363783129,3.6198026306821802
0,-3.0862161945374047,-7.076029178642957,-6.980960819989625,-0.18544475324039783,3.6248023580726283
0,-4.654831873912894,-4.613045563381798,-6.795786202835522,-1.444437159876276,3.6298020854630764
0,-2.053445191446372,0.5899359434790621,-3.2906156499999337,-3.6034308507683463,3.6348018128535173
0,-1.3920561541944556,-0.04708465671121673,-1.985449160211567,2.6275741795424303,3.6398015402439654
0,0.01933523102735646,2.205892637518099,-0.6702867318184924,-0.0914220633804611,3.6448012676344064
0,1.410728957523416,0.5488678275961223,-0.5651283629549877,1.29958042602137,3.6498009950248544
0,-1.5378749813809884,2.7018409148390985,-0.8899740516432793,0.07058165323557675,3.6548007224152954
0,1.6335234076232368,1.3448119004158412,3.28517620414513,1.201581623679454,3.6598004498057435
0,-0.42507588217022074,1.7977807853259313,0.1803224064079878,2.012580342695136,3.6648001771961916
0,7.19632714246805,5.000747570376545,6.315464557005322,3.6435778155000356,3.6697999045866325
0,0.8277324745722161,3.813712256114938,1.3106026575541985,1.9545740471077402,3.6747996319770806
0,5.749140106858876,2.1066748427480264,8.945736709330244,0.8555690422896065,3.6797993593675216
0,0.8105500316968721,-1.7603646698298663,3.770866713165481,-2.173437194362924,3.6847990867579696
0,1.731962241150749,1.4525937181093003,0.59599266939935,-0.9624446583008154,3.6897988141484106
0,0.5933767270643963,0.35555000624585054,-0.938885422001091,-4.901453344874968,3.6947985415388587
0,4.654793481121183,5.60850419419426,6.066232438749107,0.28953675076409613,3.6997982689293067
0,-1.0637875051713575,0.07145628139433427,0.1413462512830962,-0.49947436632228054,3.7047979963197477
0,-6.012366240438031,-5.355593732905561,-2.9335439849538725,-2.208486690932674,3.709797723710196
0,-0.2609427332338957,0.34735415052978946,3.501561729386383,0.762499782224644,3.7147974511006367
0,5.550483008075738,8.920299931032662,7.126663393590166,5.863485058478097,3.719797178491085
0,5.47191097511955,4.933243607805325,5.631761006678616,5.014469143011824,3.724796905881526
0,9.76334115917379,-0.44381482036904774,5.876854567172215,6.545452040628651,3.729796633271974
0,-7.865226449008713,-5.9808753550596725,-4.268055926926287,-6.483566244319029,3.734796360662422
0,3.7662081409698573,0.8220620021467323,7.8170295220470205,9.057414292226863,3.739796088052863
0,1.8076449194207276,-2.265002750143623,2.6321109115281347,3.088393654132137,3.744795815443311
0,4.15908387658034,2.4279303868342295,7.037188238628756,4.379371844947664,3.749795542833752
0,2.190525002460689,-2.9591385880967476,-1.1277384999644777,4.180348867798625,3.7547952702242
0,-0.2780317131966804,0.33379032391790886,-0.2826693079044614,-2.348675274567815,3.759794997614641
0,-2.296586280821989,-5.07328287818181,-7.9376041889351034,-5.007700579595109,3.764794725005089
0,-4.625138710829752,0.8296418047076421,-8.992543146557317,-6.776727044605823,3.769794452395537
0,-1.953689013432645,1.1225643718579703,-10.587486183684863,-2.875754666525565,3.774794179785978
0,5.087762801399882,6.755484822563692,-0.5924333024465629,0.12521655817329275,3.779793907176426
0,2.499216723757254,6.5584031558844895,2.432615495682432,5.416186633282743,3.784793634566867
0,-1.499327256433113,4.481319370413942,-4.612339790469966,-1.3228444374223647,3.789793361957315
0,0.6021308505859724,1.9042334642139294,-1.7572991619627931,-4.001876650293748,3.794793089347756
0,1.263591034512056,-2.862854565047059,-7.6022626196531755,-7.550910001624349,3.7997928167382042
0,6.275053284973141,6.48005528011103,3.912769835924805,5.460055512589209,3.8047925441286523
0,2.8265175913755356,-1.367037002950291,5.037798204459639,2.321019896584458,3.8097922715190933
0,2.887983942775339,0.8958685829798108,2.252822485556363,2.411983154536461,3.8147919989095413
0,9.169452327838918,6.2787720349615785,10.777842678466499,5.642945290355468,3.8197917262999823
0,-3.4090772651824945,-0.7383266501319649,3.662858781927991,-6.516093692323867,3.8247914536904304
0,-1.6976048483669124,-6.435427475613488,1.457870794101504,0.5048662100096077,3.8297911810808714
0,1.7438695661221737,-1.5725304447607953,1.5228787126929393,6.415825000901765,3.8347909084713194
0,0.9253459661622239,-3.029635560580054,0.4178825351604871,1.1267826838410577,3.8397906358617675
0,1.9268243395951457,-2.7567428257682955,-2.2271177411476994,5.7277392620468754,3.8447903632522085
0,-0.7016953258460856,-2.5738522427515345,-2.5921221188746806,-1.5213052615922331,3.8497900906426565
0,8.709786957432172,4.329036186264549,8.542869399409511,3.3996491155529327,3.8547898180330975
0,-1.9487288232036475,-3.3480775408311367,-5.612143188892672,-0.909397604056346,3.8597895454235456
0,-3.327242680632213,-6.235193426108914,-1.5071598864682778,-8.83844541800503,3.8647892728139865
0,-1.155754627780598,3.8876885285216654,-2.3021806959409155,0.9325056762912451,3.8697890002044346
0,2.105735322555298,1.9105683213276645,3.11279438024265,3.8234556816951617,3.8747887275948756
0,-0.6227728423328596,6.0534459505229625,2.0277653397024546,2.5344046011477146,3.8797884549853237
0,10.258720864770712,19.376321413929617,13.922732179875938,13.245352437338838,3.8847881823757717
0,4.860216430781103,4.949194708576283,7.917694897677414,4.686299192416026,3.8897879097662127
0,3.821713842099383,1.842065830493132,4.222653489225769,5.29724486781146,3.8947876371566608
0,5.69321308457505,5.644934774941543,3.2676079498765507,6.9581894642769555,3.8997873645471017
0,12.884714143520442,15.24780153664687,10.06255827441265,11.469132981936792,3.90478709193755
0,6.486217003563821,5.010666109651402,4.947504457071366,7.980075420175561,3.9097868193279908
0,0.5677216485394659,-4.366471512803625,-5.747553508468313,-5.168983222405538,3.914786546718439
0,-1.3407719383092842,-2.963611337941357,-3.312615628812933,-2.698042947676252,3.919786274108887
0,2.1007362260235958,-6.1807533729304724,-3.2876819104401616,0.8828962424786131,3.924786001499328
0,-4.817753875482103,-4.917897624575076,-7.422752359471573,-1.436165653662422,3.929785728889776
0,0.353757740221178,4.124955900739854,3.972173018363619,0.7747713622738828,3.934785456280217
0,-3.1747289436754835,1.0578071968706697,-0.7429057823846622,-0.36429271130794993,3.939785183670665
0,1.7867860561773177,-3.1293437423262684,0.8020112329024247,3.2066421239867733,3.944784911061106
0,-3.671697276755873,-1.7964969230166161,-5.743075941165282,-2.5524241335062032,3.949784638451554
0,1.789821041078254,4.176347648715728,3.031832690108093,1.6485085144876805,3.954784365842002
0,2.1313409932861784,-0.9708100331735434,-3.143262878441506,-3.120559933760512,3.959784093232443
0,-9.927137436503871,-3.9479699747707757,-6.478362651837918,-8.049629479872657,3.964783820622891
0,-9.125614264465412,-4.965132182091323,-4.963466634841052,-7.508700125139261,3.969783548013332
0,3.6159104937280766,5.547703339079126,7.011425168162117,5.2822281296598685,3.97478327540378
0,-1.612563177113135,0.8405365830980092,-0.9536872470221537,1.1731552840983392,3.979783002794221
0,5.278964707979023,3.8733675442210185,4.251196115313979,3.264081337740345,3.984782730184669
0,3.680494133848177,1.4361962164652506,0.8160752506641342,2.405006289930095,3.9897824575751173
0,-3.0779749149087734,-0.8209774063779297,-2.119049845659765,-2.7440698602099105,3.9947821849655583
0,2.5235575461117836,1.5718466693413284,2.105820821565447,5.606852886300797,3.9997819123560063
0,1.2150915012351071,-3.285331562773945,-1.1493127524497089,-4.8722254716420546,4.004781639746447
0,-5.0533730652519955,-10.06251210902559,-3.014450572478645,-2.261304935163355,4.009781367136895
0,-4.991836168996337,-3.309694975363563,-4.439592643190737,-2.3703855052599763,4.014781094527336
0,-3.9502978253595336,1.9331198327690344,-1.4547389690131147,-3.759467182681364,4.019780821917784
0,-6.158758049271453,-2.7240676897154668,-9.739889554035592,-12.198549967839588,4.0247805493082325
0,1.1627831447776942,0.5487424522295316,-6.725044401890253,-5.097633860609845,4.0297802766986734
0,-2.775674257362447,-4.208449746264558,-10.200203515565075,-0.8667188601864223,4.0347800040891215
0,-1.504130269633694,3.754355710047853,-4.985366897277578,1.6941950347532804,4.0397797314795625
0,-2.6825849058144593,-2.842841183504851,-2.090534548515487,-0.3348921742770674,4.044779458870011
0,1.2289618204901713,3.409959568416245,-0.20570647024291286,0.6060195142307584,4.0497791862604515
0,3.9705098957726745,5.112757961073865,6.169117336803352,0.036930101746291744,4.0547789136509
0,3.332059306437979,3.5755539895063255,8.643936871772436,6.727839589672928,4.059778641041348
0,2.0536100386386975,-0.6216523515839152,1.338752133387194,1.418747979227496,4.064778368431789
0,3.955162078227651,3.2211389322253505,3.2635631198533015,1.8496552713306547,4.069778095822237
0,0.7767154107761356,-1.0860721648110843,0.238369828998524,-0.6994385333535983,4.074777823212678
0,3.2182700216022333,-0.5232856485330115,4.733172258411583,1.3114665657047546,4.079777550603126
0,-1.1401741041846651,-3.3805015247819425,-0.35202959452828014,-4.827629430995031,4.084777277993567
0,-2.5186169815925807,-3.3377197992707424,-0.9872357326257684,-3.22672652285854,4.089777005384015
0,-9.387058625552411,-11.174940477420169,-11.22244615869712,-12.395824708988709,4.094776732774456
0,2.0445009493211668,-3.8621635641478513,-2.227660875255857,-4.2449239879333,4.099776460164904
0,-1.0139382712189984,-4.629389063739154,-1.2328798843176625,-4.524024357548405,4.104776187555352
0,-8.292376301175619,-8.886616979879058,-6.588103187467383,-8.75312581504999,4.109775914945793
0,-6.900813154262958,-7.97384731565638,-7.033330785919013,-3.6422283570746985,4.114775642336241
0,-0.9592488437063986,-3.761080073482038,-4.67856268040254,0.07866802028481407,4.119775369726682
0,-0.7776833822428335,-7.4783152550939,-2.8737988710916755,-0.8604366786869515,4.12477509711713
0,-2.776116782319943,-5.9855528616256395,-6.3990393576688955,0.4304575504518431,4.129774824507571
0,3.2654509437562305,4.257207106322222,2.9557158605829024,-0.4586492878128914,4.134774551898019
0,4.387019783699533,6.469964648429763,4.910466784611143,8.432242810969331,4.139774279288467
0,7.108589725026883,13.462719764173327,6.67521341526841,9.753133850995757,4.144774006678908
0,-0.5598392451376222,0.08547245239728818,-1.170044246960567,-3.825976164050019,4.149773734069356
0,4.72173285992887,6.708222711227887,7.754693798008849,7.214912769005949,4.154773461459797
0,0.47330602665184907,2.530970538242188,-0.8205724500723015,1.0658006530063089,4.159773188850245
0,0.30488024124129715,3.2837159306066,1.004157008265501,5.186687490506679,4.164772916240686
0,-2.183544510215788,-3.4835411148276174,-0.6611178276804143,-2.7724267162385114,4.169772643631134
0,-0.491968241627635,1.1591993986461937,-2.146396958647457,-0.37154196516406324,4.174772371021582
