labels,F4,F3,Fz,Cz,timestamps
0,-1806.32,-945.93,-3141.63,36.79,-2.0001758648617134
0,-1817.47,-953.06,-3150.82,23.29,-1.9951754251995588
0,-1811.63,-961.38,-3148.88,21.28,-1.9901749855374042
0,-1812.28,-957.45,-3139.93,28.58,-1.9851745458752497
0,-1808.21,-944.91,-3137.88,32.45,-1.980174106213095
0,-1806.4,-939.89,-3131.9,31.64,-1.9751736665509405
0,-1806.44,-951.08,-3137.27,31.33,-1.970173226888786
0,-1797.46,-946.96,-3139.45,30.91,-1.965172787226635
0,-1814.57,-962.96,-3146.79,24.69,-1.9601723475644803
0,-1812.53,-953.78,-3143.6,28.75,-1.9551719079023258
0,-1803.69,-938.3,-3134.25,36.1,-1.9501714682401712
0,-1799.36,-938.53,-3131.77,34.47,-1.9451710285780166
0,-1804.19,-947.6,-3134.22,37.12,-1.940170588915862
0,-1807.91,-949.61,-3133.57,39.64,-1.9351701492537075
0,-1809.44,-950.62,-3136.49,41.21,-1.9301697095915529
0,-1812.0,-943.09,-3133.19,33.74,-1.9251692699293983
0,-1808.8,-944.06,-3141.27,33.46,-1.9201688302672437
0,-1808.44,-940.59,-3133.4,37.6,-1.9151683906050891
0,-1805.02,-946.51,-3135.86,35.04,-1.9101679509429346
0,-1801.07,-950.98,-3137.15,32.63,-1.9051675112807835
0,-1811.72,-954.42,-3141.1,25.24,-1.900167071618629
0,-1810.04,-939.77,-3138.0,28.02,-1.8951666319564744
0,-1799.89,-938.23,-3126.4,33.73,-1.8901661922943198
0,-1804.12,-946.14,-3130.64,33.14,-1.8851657526321652
0,-1803.38,-955.26,-3140.5,33.2,-1.8801653129700107
0,-1807.91,-946.84,-3139.79,34.11,-1.875164873307856
0,-1811.05,-949.38,-3140.35,28.33,-1.8701644336457015
0,-1807.93,-943.72,-3136.89,34.03,-1.865163993983547
0,-1810.3,-945.44,-3138.85,34.46,-1.8601635543213924
0,-1796.39,-926.26,-3126.72,42.97,-1.8551631146592378
0,-1801.93,-948.73,-3136.25,36.13,-1.8501626749970832
0,-1814.82,-953.31,-3142.45,30.03,-1.8451622353349322
0,-1815.4,-952.6,-3139.86,28.36,-1.8401617956727776
0,-1811.69,-950.1,-3140.45,32.02,-1.835161356010623
0,-1807.01,-944.44,-3135.74,34.39,-1.8301609163484684
0,-1811.31,-944.66,-3136.87,33.04,-1.8251604766863139
0,-1808.39,-948.56,-3139.18,35.05,-1.8201600370241593
0,-1797.07,-946.36,-3135.11,41.4,-1.8151595973620047
0,-1796.87,-941.55,-3122.87,46.95,-1.8101591576998501
0,-1790.93,-941.65,-3126.05,36.26,-1.8051587180376956
0,-1790.64,-933.84,-3123.61,38.05,-1.800158278375541
0,-1800.33,-931.92,-3124.01,40.59,-1.7951578387133864
0,-1807.57,-941.67,-3130.34,32.98,-1.7901573990512318
0,-1798.59,-946.65,-3131.45,35.09,-1.7851569593890808
0,-1804.17,-947.92,-3135.68,34.91,-1.7801565197269262
0,-1809.72,-936.24,-3137.28,29.39,-1.7751560800647717
0,-1813.32,-949.37,-3142.56,28.16,-1.770155640402617
0,-1804.29,-943.26,-3137.26,35.35,-1.7651552007404625
0,-1810.72,-956.22,-3142.14,25.31,-1.760154761078308
0,-1811.62,-952.22,-3147.28,29.81,-1.7551543214161534
0,-1811.92,-960.94,-3145.32,19.22,-1.7501538817539988
0,-1822.43,-963.66,-3148.85,17.26,-1.7451534420918442
0,-1810.04,-949.78,-3144.92,31.66,-1.7401530024296896
0,-1819.34,-951.14,-3149.85,25.61,-1.735152562767535
0,-1813.36,-949.53,-3149.38,26.22,-1.7301521231053805
0,-1817.01,-952.86,-3142.38,34.39,-1.7251516834432294
0,-1816.29,-950.77,-3140.63,30.9,-1.7201512437810749
0,-1816.88,-949.62,-3139.98,36.59,-1.7151508041189203
0,-1813.69,-945.02,-3132.39,44.12,-1.7101503644567657
0,-1809.39,-948.96,-3141.59,38.27,-1.7051499247946111
0,-1809.31,-948.67,-3138.48,37.92,-1.7001494851324566
0,-1806.68,-952.5,-3139.72,32.3,-1.695149045470302
0,-1803.79,-945.5,-3134.37,40.56,-1.6901486058081474
0,-1808.2,-942.77,-3135.41,34.84,-1.6851481661459928
0,-1807.7,-946.64,-3134.47,37.14,-1.6801477264838383
0,-1805.62,-939.84,-3130.64,43.85,-1.6751472868216837
0,-1797.82,-940.12,-3126.24,49.08,-1.670146847159529
0,-1800.83,-937.88,-3131.37,42.25,-1.665146407497378
0,-1804.55,-942.93,-3131.18,39.68,-1.6601459678352235
0,-1806.21,-954.19,-3139.08,36.12,-1.655145528173069
0,-1802.68,-949.46,-3136.44,37.19,-1.6501450885109143
0,-1803.89,-948.35,-3137.03,38.04,-1.6451446488487598
0,-1801.2,-949.34,-3133.98,38.63,-1.6401442091866052
0,-1804.44,-945.08,-3130.78,40.03,-1.6351437695244506
0,-1806.94,-939.15,-3134.1,38.55,-1.630143329862296
0,-1807.51,-935.04,-3132.32,34.86,-1.6251428902001415
0,-1808.77,-939.09,-3129.39,39.51,-1.620142450537987
0,-1804.47,-950.5,-3133.42,40.01,-1.6151420108758323
0,-1808.21,-958.3,-3139.46,33.13,-1.6101415712136777
0,-1807.75,-952.48,-3133.6,43.87,-1.6051411315515267
0,-1802.58,-948.67,-3131.77,42.79,-1.6001406918893721
0,-1800.95,-954.88,-3131.45,40.22,-1.5951402522272176
0,-1799.98,-950.88,-3132.32,40.35,-1.590139812565063
0,-1801.25,-944.77,-3136.41,37.83,-1.5851393729029084
0,-1808.07,-936.28,-3134.22,30.72,-1.5801389332407538
0,-1802.4,-936.51,-3130.4,38.63,-1.5751384935785993
0,-1806.67,-945.19,-3138.63,33.7,-1.5701380539164447
0,-1805.3,-950.14,-3138.0,32.02,-1.56513761425429
0,-1806.92,-948.07,-3139.02,33.15,-1.5601371745921355
0,-1811.75,-945.36,-3137.36,25.74,-1.555136734929981
0,-1811.53,-953.74,-3141.21,24.0,-1.5501362952678264
0,-1806.79,-947.09,-3134.52,36.17,-1.5451358556056753
0,-1802.94,-945.59,-3137.15,32.84,-1.5401354159435208
0,-1800.63,-943.97,-3131.5,33.98,-1.5351349762813662
0,-1812.68,-944.38,-3136.51,32.53,-1.5301345366192116
0,-1814.99,-949.28,-3144.58,32.62,-1.525134096957057
0,-1818.65,-953.15,-3146.67,28.41,-1.5201336572949025
0,-1814.21,-945.04,-3145.11,24.7,-1.5151332176327479
0,-1810.55,-953.04,-3140.87,25.51,-1.5101327779705933
0,-1811.28,-951.58,-3140.24,27.73,-1.5051323383084387
0,-1811.66,-954.02,-3143.33,25.7,-1.5001318986462842
0,-1801.67,-946.67,-3137.64,36.46,-1.4951314589841296
0,-1811.3,-949.59,-3142.01,29.61,-1.490131019321975
0,-1817.66,-944.9,-3145.1,32.05,-1.485130579659824
0,-1814.11,-955.88,-3139.75,34.56,-1.4801301399976694
0,-1819.63,-965.21,-3149.15,26.66,-1.4751297003355148
0,-1814.69,-943.99,-3143.2,28.61,-1.4701292606733602
0,-1808.33,-946.22,-3136.19,33.33,-1.4651288210112057
0,-1812.39,-950.01,-3136.82,34.96,-1.460128381349051
0,-1805.93,-953.89,-3145.45,31.24,-1.4551279416868965
0,-1813.31,-955.59,-3144.47,29.45,-1.450127502024742
0,-1812.98,-952.8,-3142.07,28.62,-1.4451270623625874
0,-1811.92,-945.3,-3137.81,34.07,-1.4401266227004328
0,-1812.16,-945.54,-3140.89,35.79,-1.4351261830382782
0,-1807.9,-958.58,-3148.34,28.74,-1.4301257433761236
0,-1813.7,-958.33,-3148.17,29.97,-1.4251253037139726
0,-1806.51,-951.69,-3140.7,29.81,-1.420124864051818
0,-1808.72,-950.76,-3140.47,24.69,-1.4151244243896635
0,-1810.7,-952.45,-3143.53,29.52,-1.4101239847275089
0,-1812.7,-947.52,-3144.03,27.94,-1.4051235450653543
0,-1807.53,-941.05,-3131.64,33.77,-1.4001231054031997
0,-1803.17,-942.34,-3137.04,32.6,-1.3951226657410452
0,-1802.21,-951.99,-3137.35,31.37,-1.3901222260788906
0,-1814.97,-954.13,-3141.58,28.13,-1.385121786416736
0,-1796.64,-951.42,-3132.3,44.67,-1.3801213467545814
0,-1806.05,-947.32,-3134.86,38.15,-1.3751209070924268
0,-1804.01,-952.89,-3136.74,36.96,-1.3701204674302723
0,-1801.84,-946.16,-3136.79,39.4,-1.3651200277681212
0,-1800.18,-945.88,-3133.75,42.34,-1.3601195881059667
0,-1801.48,-946.77,-3136.02,40.41,-1.355119148443812
0,-1805.64,-941.37,-3132.6,37.77,-1.3501187087816575
0,-1803.75,-945.21,-3133.96,36.62,-1.345118269119503
0,-1802.52,-941.75,-3130.82,35.19,-1.3401178294573484
0,-1803.63,-943.6,-3133.04,34.61,-1.3351173897951938
0,-1801.14,-942.87,-3128.97,37.9,-1.3301169501330392
0,-1811.51,-954.72,-3144.25,28.97,-1.3251165104708846
0,-1809.25,-942.02,-3134.19,29.21,-1.32011607080873
0,-1802.04,-951.59,-3137.07,30.75,-1.3151156311465755
0,-1805.85,-949.86,-3135.95,36.32,-1.310115191484421
0,-1808.11,-947.81,-3135.2,32.75,-1.3051147518222699
0,-1801.23,-941.11,-3126.43,32.56,-1.3001143121601153
0,-1804.76,-949.87,-3136.59,33.92,-1.2951138724979607
0,-1804.74,-956.81,-3136.89,36.22,-1.2901134328358062
0,-1804.74,-942.01,-3134.76,38.26,-1.2851129931736516
0,-1808.59,-941.25,-3136.13,36.72,-1.280112553511497
0,-1805.12,-942.48,-3136.42,36.94,-1.2751121138493424
0,-1813.17,-952.82,-3140.12,32.04,-1.2701116741871878
0,-1807.42,-943.67,-3136.86,38.14,-1.2651112345250333
0,-1806.65,-946.29,-3138.0,34.29,-1.2601107948628787
0,-1807.62,-950.55,-3135.46,32.82,-1.2551103552007241
0,-1804.64,-942.69,-3129.23,40.55,-1.2501099155385695
0,-1802.73,-944.55,-3129.11,36.05,-1.2451094758764185
0,-1812.55,-952.46,-3146.16,29.51,-1.240109036214264
0,-1803.4,-945.18,-3133.92,36.88,-1.2351085965521094
0,-1797.52,-946.23,-3133.94,36.7,-1.2301081568899548
0,-1806.83,-938.71,-3126.54,36.77,-1.2251077172278002
0,-1808.41,-953.48,-3136.65,35.07,-1.2201072775656456
0,-1801.26,-934.59,-3127.45,40.42,-1.215106837903491
0,-1796.27,-934.37,-3128.03,38.56,-1.2101063982413365
0,-1797.41,-942.57,-3130.73,36.3,-1.205105958579182
0,-1797.11,-939.91,-3125.56,38.89,-1.2001055189170273
0,-1792.4,-944.28,-3125.63,40.35,-1.1951050792548727
0,-1797.31,-927.44,-3122.14,46.64,-1.1901046395927182
0,-1794.73,-942.86,-3119.78,39.39,-1.1851041999305671
0,-1818.56,-946.2,-3139.67,28.95,-1.1801037602684126
0,-1810.67,-948.5,-3138.03,27.48,-1.175103320606258
0,-1805.12,-936.23,-3133.99,34.26,-1.1701028809441034
0,-1807.69,-940.86,-3132.63,39.48,-1.1651024412819488
0,-1806.04,-947.92,-3136.21,38.24,-1.1601020016197943
0,-1804.22,-948.49,-3134.12,42.27,-1.1551015619576397
0,-1809.31,-953.09,-3142.92,38.66,-1.1501011222954851
0,-1808.27,-940.47,-3134.48,36.52,-1.1451006826333305
0,-1812.59,-953.08,-3141.06,32.65,-1.140100242971176
0,-1805.49,-955.27,-3138.0,33.0,-1.1350998033090214
0,-1816.51,-954.22,-3138.62,28.13,-1.1300993636468668
0,-1807.27,-950.04,-3137.86,37.64,-1.1250989239847122
0,-1808.71,-934.88,-3133.85,45.38,-1.1200984843225612
0,-1805.47,-940.62,-3138.68,37.98,-1.1150980446604066
0,-1808.42,-951.0,-3134.71,37.82,-1.110097604998252
0,-1807.85,-953.14,-3137.1,35.55,-1.1050971653360975
0,-1804.88,-951.41,-3139.24,37.6,-1.100096725673943
0,-1811.38,-950.46,-3139.49,36.66,-1.0950962860117883
0,-1806.52,-948.15,-3135.17,36.02,-1.0900958463496337
0,-1815.07,-946.02,-3142.77,28.76,-1.0850954066874792
0,-1808.56,-939.15,-3136.87,35.37,-1.0800949670253246
0,-1809.96,-950.25,-3141.4,33.03,-1.07509452736317
0,-1818.91,-953.71,-3148.85,31.14,-1.0700940877010154
0,-1808.52,-946.99,-3136.67,38.26,-1.0650936480388609
0,-1814.4,-948.63,-3143.83,34.18,-1.0600932083767098
0,-1810.52,-942.88,-3136.21,31.63,-1.0550927687145553
0,-1800.66,-944.73,-3134.81,36.97,-1.0500923290524007
0,-1805.02,-946.02,-3133.05,42.74,-1.045091889390246
0,-1799.25,-942.7,-3133.82,35.07,-1.0400914497280915
0,-1798.77,-933.5,-3125.23,39.0,-1.035091010065937
0,-1796.33,-931.18,-3121.23,43.37,-1.0300905704037824
0,-1799.54,-936.72,-3124.76,36.88,-1.0250901307416278
0,-1810.66,-955.04,-3144.32,29.25,-1.0200896910794732
0,-1811.25,-961.41,-3139.29,29.5,-1.0150892514173186
0,-1801.53,-949.58,-3138.57,37.02,-1.010088811755164
0,-1802.1,-945.82,-3136.73,35.64,-1.0050883720930095
0,-1804.69,-949.11,-3132.85,39.26,-1.0000879324308585
0,-1805.38,-950.44,-3134.04,39.38,-0.9950874927687039
0,-1803.17,-939.92,-3134.01,39.7,-0.9900870531065493
0,-1804.79,-945.9,-3133.24,36.48,-0.9850866134443947
0,-1809.36,-952.39,-3140.48,35.43,-0.9800861737822402
0,-1808.46,-957.28,-3144.52,27.16,-0.9750857341200856
0,-1815.09,-954.16,-3145.6,26.98,-0.970085294457931
0,-1811.33,-945.55,-3142.83,28.73,-0.9650848547957764
0,-1807.36,-942.94,-3134.51,30.25,-0.9600844151336219
0,-1805.93,-956.54,-3146.46,27.34,-0.9550839754714673
0,-1810.53,-955.29,-3142.43,27.38,-0.9500835358093127
0,-1806.31,-947.26,-3135.65,36.88,-0.9450830961471581
0,-1807.66,-943.94,-3137.62,36.5,-0.9400826564850071
0,-1804.94,-944.38,-3134.35,40.44,-0.9350822168228525
0,-1802.04,-950.4,-3137.15,42.64,-0.930081777160698
0,-1800.17,-946.27,-3131.58,34.6,-0.9250813374985434
0,-1808.02,-946.67,-3137.42,30.99,-0.9200808978363888
0,-1808.08,-944.32,-3133.76,37.93,-0.9150804581742342
0,-1804.47,-936.15,-3133.75,40.13,-0.9100800185120796
0,-1803.42,-945.44,-3138.85,31.79,-0.9050795788499251
0,-1801.55,-943.85,-3128.64,38.71,-0.9000791391877705
0,-1814.68,-951.63,-3139.22,27.34,-0.8950786995256159
0,-1817.91,-951.3,-3137.61,20.57,-0.8900782598634613
0,-1812.98,-941.49,-3138.94,24.72,-0.8850778202013068
0,-1806.97,-940.38,-3135.55,29.49,-0.8800773805391557
0,-1801.3,-946.53,-3133.8,35.27,-0.8750769408770012
0,-1796.03,-935.35,-3128.81,44.61,-0.8700765012148466
0,-1797.48,-934.75,-3132.3,38.37,-0.865076061552692
0,-1805.26,-931.51,-3119.15,39.88,-0.8600756218905374
0,-1805.29,-953.0,-3132.97,34.35,-0.8550751822283829
0,-1801.32,-945.25,-3138.26,37.13,-0.8500747425662283
0,-1804.48,-941.79,-3134.97,32.73,-0.8450743029040737
0,-1809.48,-940.84,-3137.43,32.67,-0.8400738632419191
0,-1809.34,-942.78,-3135.18,42.33,-0.8350734235797646
0,-1815.88,-960.85,-3146.53,26.23,-0.83007298391761
0,-1819.19,-962.38,-3149.53,26.71,-0.8250725442554554
0,-1815.37,-956.28,-3147.81,30.73,-0.8200721045933044
0,-1813.64,-957.91,-3146.39,28.44,-0.8150716649311498
0,-1807.54,-959.19,-3141.48,27.97,-0.8100712252689952
0,-1806.38,-952.87,-3141.04,27.46,-0.8050707856068406
0,-1804.96,-939.94,-3138.31,30.64,-0.8000703459446861
0,-1806.46,-940.19,-3134.71,28.05,-0.7950699062825315
0,-1813.71,-942.95,-3137.5,26.7,-0.7900694666203769
0,-1810.43,-937.32,-3134.76,32.37,-0.7850690269582223
0,-1804.53,-945.48,-3135.56,29.36,-0.7800685872960678
0,-1811.99,-956.73,-3139.48,32.02,-0.7750681476339132
0,-1817.77,-962.52,-3148.27,25.89,-0.7700677079717586
0,-1813.31,-958.87,-3151.57,24.98,-0.765067268309604
0,-1814.07,-951.97,-3143.96,28.37,-0.760066828647453
0,-1809.22,-954.92,-3145.5,29.62,-0.7550663889852984
0,-1806.9,-939.24,-3142.63,26.42,-0.7500659493231439
0,-1814.49,-953.14,-3136.47,30.84,-0.7450655096609893
0,-1812.5,-955.88,-3146.69,27.56,-0.7400650699988347
0,-1807.58,-944.7,-3138.34,41.14,-0.7350646303366801
0,-1805.83,-951.98,-3141.64,36.27,-0.7300641906745255
0,-1805.15,-944.64,-3133.19,38.54,-0.725063751012371
0,-1797.28,-941.69,-3132.74,41.35,-0.7200633113502164
0,-1808.01,-949.92,-3135.38,38.28,-0.7150628716880618
0,-1808.42,-956.7,-3146.84,28.23,-0.7100624320259072
0,-1809.76,-945.67,-3140.4,30.42,-0.7050619923637527
0,-1817.12,-951.8,-3143.13,29.52,-0.7000615527016016
0,-1813.97,-944.6,-3139.45,30.42,-0.6950611130394471
0,-1816.24,-948.41,-3139.33,31.66,-0.6900606733772925
0,-1805.9,-943.33,-3138.43,30.68,-0.6850602337151379
0,-1806.44,-947.67,-3133.86,35.06,-0.6800597940529833
0,-1802.48,-940.34,-3127.81,42.33,-0.6750593543908288
0,-1799.59,-941.79,-3130.29,41.97,-0.6700589147286742
0,-1800.63,-944.11,-3131.51,42.49,-0.6650584750665196
0,-1799.19,-938.61,-3129.75,43.5,-0.660058035404365
0,-1807.69,-937.92,-3129.86,40.94,-0.6550575957422105
0,-1800.05,-930.82,-3125.03,40.48,-0.6500571560800559
0,-1795.81,-942.92,-3130.51,38.06,-0.6450567164179013
0,-1795.64,-935.6,-3124.82,44.48,-0.6400562767557503
0,-1799.97,-948.71,-3125.75,43.89,-0.6350558370935957
0,-1796.63,-947.81,-3128.52,41.52,-0.6300553974314411
0,-1807.16,-939.1,-3127.92,36.24,-0.6250549577692865
0,-1807.53,-952.17,-3137.55,27.9,-0.620054518107132
0,-1805.12,-949.68,-3140.53,32.3,-0.6150540784449774
0,-1801.31,-944.95,-3132.69,33.01,-0.6100536387828228
0,-1797.7,-941.49,-3132.47,34.11,-0.6050531991206682
0,-1804.25,-943.47,-3130.23,36.51,-0.6000527594585137
0,-1799.28,-941.18,-3128.96,41.31,-0.5950523197963591
0,-1802.61,-944.95,-3135.14,38.2,-0.5900518801342045
0,-1797.99,-948.24,-3130.93,37.14,-0.5850514404720499
0,-1799.5,-936.79,-3132.05,30.28,-0.5800510008098989
0,-1805.96,-942.91,-3128.68,31.13,-0.5750505611477443
0,-1815.35,-955.63,-3143.76,24.92,-0.5700501214855898
0,-1808.67,-950.79,-3139.92,29.14,-0.5650496818234352
0,-1802.91,-944.72,-3138.34,35.35,-0.5600492421612806
0,-1801.71,-950.23,-3138.76,35.32,-0.555048802499126
0,-1802.38,-943.83,-3135.25,37.48,-0.5500483628369714
0,-1814.8,-956.76,-3147.47,30.41,-0.5450479231748169
0,-1823.81,-965.95,-3154.1,27.41,-0.5400474835126623
0,-1819.38,-960.78,-3153.38,26.77,-0.5350470438505077
0,-1818.04,-954.66,-3147.85,28.95,-0.5300466041883531
0,-1809.26,-947.39,-3139.1,36.31,-0.5250461645261986
0,-1813.1,-951.53,-3139.75,31.09,-0.5200457248640475
0,-1807.93,-944.55,-3138.86,32.33,-0.515045285201893
0,-1814.23,-940.51,-3139.06,35.51,-0.5100448455397384
0,-1814.91,-953.02,-3145.81,30.03,-0.5050444058775838
0,-1809.88,-958.23,-3142.67,30.91,-0.5000439662154292
0,-1812.52,-950.1,-3137.56,32.21,-0.49504352655327466
0,-1814.91,-958.25,-3145.84,28.32,-0.4900430868911201
0,-1814.78,-950.9,-3145.41,31.56,-0.4850426472289655
0,-1820.63,-958.01,-3146.2,30.98,-0.48004220756681093
0,-1812.0,-948.91,-3142.18,29.34,-0.47504176790465635
0,-1805.72,-946.02,-3131.54,34.66,-0.4700413282425018
0,-1800.36,-943.02,-3133.22,41.11,-0.4650408885803472
0,-1807.01,-949.41,-3141.35,31.76,-0.4600404489181962
0,-1816.62,-948.52,-3142.02,26.1,-0.4550400092560416
0,-1813.24,-949.3,-3146.07,24.66,-0.450039569593887
0,-1806.47,-942.99,-3137.84,32.11,-0.44503912993173245
0,-1801.51,-949.96,-3132.47,31.79,-0.44003869026957787
0,-1808.63,-940.59,-3133.1,30.8,-0.4350382506074233
0,-1809.25,-940.19,-3126.43,36.2,-0.4300378109452687
0,-1809.05,-940.95,-3139.51,41.13,-0.42503737128311414
0,-1809.55,-948.11,-3138.33,35.8,-0.42003693162095956
0,-1805.26,-951.13,-3141.54,30.13,-0.415036491958805
0,-1813.45,-952.09,-3143.17,31.98,-0.4100360522966504
0,-1807.09,-953.86,-3135.24,29.44,-0.40503561263449583
0,-1806.52,-949.61,-3138.31,33.0,-0.4000351729723448
0,-1802.92,-949.1,-3140.94,28.79,-0.39503473331019023
0,-1811.87,-954.11,-3139.24,29.56,-0.39003429364803566
0,-1806.83,-938.51,-3131.96,37.26,-0.3850338539858811
0,-1815.18,-940.6,-3135.69,32.51,-0.3800334143237265
0,-1807.62,-944.91,-3130.37,38.0,-0.3750329746615719
0,-1802.38,-950.95,-3134.63,36.1,-0.37003253499941735
0,-1805.62,-936.24,-3133.13,32.08,-0.3650320953372628
0,-1817.12,-945.0,-3139.68,32.91,-0.3600316556751082
0,-1808.11,-950.27,-3140.66,30.92,-0.3550312160129536
0,-1807.24,-951.65,-3142.31,24.82,-0.35003077635079904
0,-1809.61,-952.49,-3140.64,25.74,-0.34503033668864447
0,-1807.32,-951.73,-3138.96,27.85,-0.3400298970264899
0,-1819.21,-952.42,-3145.79,27.65,-0.33502945736433887
0,-1807.51,-940.61,-3134.78,34.22,-0.3300290177021843
0,-1807.3,-949.92,-3142.21,33.96,-0.3250285780400297
0,-1813.45,-957.12,-3148.96,28.05,-0.32002813837787514
0,-1817.98,-952.95,-3146.4,28.5,-0.31502769871572056
0,-1807.15,-953.34,-3138.8,33.86,-0.310027259053566
0,-1809.5,-942.69,-3132.36,38.76,-0.3050268193914114
0,-1808.17,-933.11,-3132.84,41.41,-0.30002637972925683
0,-1808.88,-940.57,-3132.41,41.27,-0.29502594006710225
0,-1791.37,-947.89,-3131.34,45.66,-0.2900255004049477
0,-1795.81,-949.32,-3134.7,47.25,-0.2850250607427931
0,-1802.5,-949.32,-3126.58,39.88,-0.2800246210806385
0,-1799.05,-938.91,-3129.74,40.61,-0.2750241814184875
0,-1800.46,-935.54,-3127.16,42.85,-0.2700237417563329
0,-1803.63,-942.59,-3129.02,38.91,-0.26502330209417835
0,-1799.24,-950.43,-3128.11,38.49,-0.26002286243202377
0,-1810.65,-952.71,-3140.15,38.84,-0.2550224227698692
0,-1819.05,-954.06,-3145.58,27.99,-0.2500219831077146
0,-1813.67,-946.56,-3136.52,32.14,-0.24502154344556004
0,-1809.59,-947.35,-3137.39,30.51,-0.24002110378340547
0,-1814.64,-962.84,-3146.97,21.78,-0.2350206641212509
0,-1810.66,-955.41,-3144.44,27.21,-0.2300202244590963
0,-1802.86,-940.65,-3131.98,39.64,-0.22501978479694174
0,-1797.38,-933.88,-3121.94,39.9,-0.22001934513478716
0,-1798.04,-932.31,-3125.25,42.31,-0.21501890547263613
0,-1800.67,-935.69,-3127.38,39.64,-0.21001846581048156
0,-1795.72,-939.16,-3124.86,43.89,-0.20501802614832698
0,-1798.84,-932.6,-3130.3,45.05,-0.2000175864861724
0,-1799.89,-944.23,-3133.04,44.71,-0.19501714682401783
0,-1810.79,-947.81,-3135.45,39.52,-0.19001670716186325
0,-1808.8,-951.86,-3137.79,40.02,-0.18501626749970868
0,-1801.49,-944.8,-3135.93,40.89,-0.1800158278375541
0,-1811.24,-944.95,-3142.71,36.03,-0.17501538817539952
0,-1809.38,-940.86,-3131.01,39.36,-0.17001494851324495
0,-1808.76,-948.81,-3139.93,33.7,-0.16501450885109037
0,-1811.13,-948.51,-3139.38,35.04,-0.1600140691889358
0,-1812.8,-944.02,-3143.05,35.32,-0.15501362952678477
0,-1812.06,-952.29,-3143.8,32.77,-0.1500131898646302
0,-1813.66,-958.9,-3148.72,28.4,-0.14501275020247562
0,-1807.12,-951.34,-3146.4,27.49,-0.14001231054032104
0,-1814.75,-951.65,-3144.98,22.48,-0.13501187087816646
0,-1809.73,-954.71,-3137.76,28.88,-0.13001143121601189
0,-1816.14,-956.3,-3145.05,25.5,-0.1250109915538573
0,-1812.78,-948.0,-3140.87,30.18,-0.12001055189170273
0,-1807.29,-950.16,-3136.22,30.47,-0.11501011222954816
0,-1802.47,-944.21,-3128.2,37.34,-0.11000967256739358
0,-1807.92,-947.77,-3137.46,32.89,-0.105009232905239
0,-1806.69,-945.04,-3135.27,33.01,-0.10000879324308443
0,-1804.86,-942.72,-3136.68,28.63,-0.0950083535809334
0,-1806.41,-959.65,-3136.77,33.72,-0.09000791391877883
0,-1802.24,-948.58,-3137.9,34.37,-0.08500747425662425
0,-1802.77,-932.4,-3129.49,40.5,-0.08000703459446967
0,-1808.45,-940.68,-3135.65,42.26,-0.0750065949323151
0,-1804.99,-940.56,-3134.54,38.64,-0.07000615527016052
0,-1805.65,-950.24,-3136.32,32.67,-0.06500571560800594
0,-1807.66,-955.49,-3140.21,29.34,-0.060005275945851366
0,-1809.0,-948.94,-3139.56,34.82,-0.05500483628369679
0,-1806.95,-943.6,-3140.59,33.59,-0.05000439662154221
0,-1805.86,-946.48,-3133.98,36.97,-0.045003956959387637
0,-1816.12,-946.67,-3140.21,28.71,-0.04000351729723306
0,-1811.64,-953.96,-3144.83,16.8,-0.035003077635082036
0,-1814.93,-956.4,-3152.22,16.14,-0.03000263797292746
0,-1813.33,-952.37,-3140.81,28.75,-0.025002198310772883
0,-1804.32,-952.28,-3146.03,26.36,-0.020001758648618306
0,-1807.3,-957.67,-3144.64,28.71,-0.01500131898646373
0,-1812.75,-950.5,-3145.33,29.32,-0.010000879324309153
0,-1814.08,-950.52,-3146.1,26.68,-0.005000439662154577
0,-1813.76,-954.55,-3147.87,26.8,0.0
0,-1816.8,-955.14,-3144.96,30.87,0.005000439662154577
0,-1799.79,-940.37,-3132.59,37.77,0.010000879324309153
0,-1802.22,-949.76,-3137.61,32.5,0.01500131898646373
0,-1810.98,-948.96,-3141.62,25.8,0.020001758648618306
0,-1810.97,-945.7,-3138.23,27.28,0.02500219831076933
0,-1810.26,-951.84,-3142.43,30.04,0.030002637972923907
0,-1818.01,-951.87,-3144.76,28.77,0.03500307763507848
0,-1803.85,-939.99,-3129.5,39.84,0.04000351729723306
0,-1809.38,-949.05,-3136.59,30.44,0.045003956959387637
0,-1814.72,-952.88,-3135.43,33.96,0.05000439662154221
0,-1811.2,-942.74,-3137.3,32.96,0.05500483628369679
0,-1803.21,-935.56,-3135.6,34.07,0.060005275945851366
0,-1805.22,-947.64,-3130.16,30.82,0.06500571560800594
0,-1801.96,-946.27,-3133.99,37.77,0.07000615527016052
0,-1798.94,-945.92,-3134.5,32.96,0.0750065949323151
0,-1795.98,-941.35,-3123.39,42.98,0.08000703459446967
0,-1799.84,-940.57,-3125.61,44.09,0.0850074742566207
0,-1807.33,-946.87,-3137.77,42.71,0.09000791391877527
0,-1808.47,-948.16,-3139.75,42.99,0.09500835358092985
0,-1807.26,-938.4,-3134.59,36.35,0.10000879324308443
0,-1803.5,-938.91,-3133.12,32.98,0.105009232905239
0,-1807.65,-942.22,-3143.18,31.41,0.11000967256739358
0,-1808.25,-951.69,-3143.4,35.29,0.11501011222954816
0,-1804.7,-944.1,-3135.98,37.31,0.12001055189170273
0,-1809.32,-952.49,-3137.72,34.38,0.1250109915538573
0,-1810.52,-954.58,-3134.31,32.79,0.13001143121601189
0,-1815.53,-946.82,-3136.11,30.0,0.13501187087816646
0,-1817.94,-947.77,-3142.14,27.37,0.14001231054032104
0,-1814.87,-943.06,-3139.7,25.88,0.14501275020247206
0,-1814.68,-948.3,-3143.79,24.92,0.15001318986462664
0,-1812.28,-953.13,-3145.76,26.5,0.15501362952678122
0,-1812.46,-951.53,-3138.23,27.41,0.1600140691889358
0,-1807.24,-958.93,-3142.77,26.14,0.16501450885109037
0,-1807.67,-953.82,-3146.98,27.6,0.17001494851324495
0,-1807.14,-947.01,-3140.85,32.21,0.17501538817539952
0,-1804.75,-948.8,-3136.33,35.28,0.1800158278375541
0,-1810.45,-959.17,-3140.81,33.54,0.18501626749970868
0,-1809.54,-964.26,-3145.09,30.86,0.19001670716186325
0,-1815.15,-952.97,-3143.92,29.13,0.19501714682401783
0,-1807.4,-946.42,-3138.48,31.67,0.2000175864861724
0,-1813.49,-952.33,-3142.58,33.88,0.20501802614832343
0,-1806.73,-959.12,-3143.28,36.54,0.210018465810478
0,-1812.45,-953.41,-3141.58,39.74,0.21501890547263258
0,-1807.94,-949.43,-3134.8,42.39,0.22001934513478716
0,-1797.34,-946.69,-3134.59,42.46,0.22501978479694174
0,-1800.93,-947.24,-3132.29,36.12,0.2300202244590963
0,-1795.18,-945.1,-3130.77,37.05,0.2350206641212509
0,-1801.09,-947.7,-3131.22,36.22,0.24002110378340547
0,-1803.32,-944.9,-3134.63,29.84,0.24502154344556004
0,-1800.2,-939.28,-3132.27,29.25,0.2500219831077146
0,-1805.99,-944.2,-3133.95,29.2,0.2550224227698692
0,-1805.76,-943.75,-3136.72,34.32,0.26002286243202377
0,-1813.7,-947.82,-3140.51,27.14,0.2650233020941748
0,-1806.03,-938.51,-3132.78,34.22,0.27002374175632937
0,-1806.52,-949.95,-3134.93,35.72,0.27502418141848395
0,-1817.22,-954.3,-3145.62,31.55,0.2800246210806385
0,-1808.14,-954.01,-3144.04,37.11,0.2850250607427931
0,-1808.1,-949.37,-3137.8,36.73,0.2900255004049477
0,-1807.13,-945.9,-3137.36,37.16,0.29502594006710225
0,-1808.97,-946.94,-3138.26,36.21,0.30002637972925683
0,-1810.66,-943.93,-3134.86,38.17,0.3050268193914114
0,-1808.57,-945.12,-3138.13,33.92,0.310027259053566
0,-1808.23,-949.04,-3142.39,32.35,0.31502769871572056
0,-1805.74,-946.16,-3138.2,36.06,0.32002813837787514
0,-1812.24,-949.08,-3144.84,28.62,0.32502857804002616
0,-1813.11,-949.98,-3140.75,28.87,0.33002901770218074
0,-1808.72,-942.76,-3133.92,32.08,0.3350294573643353
0,-1799.24,-940.21,-3129.65,32.53,0.3400298970264899
0,-1803.6,-942.04,-3134.82,29.9,0.34503033668864447
0,-1809.53,-941.4,-3138.09,26.83,0.35003077635079904
0,-1805.76,-953.56,-3142.39,28.04,0.3550312160129536
0,-1811.4,-951.04,-3136.52,29.51,0.3600316556751082
0,-1811.36,-949.79,-3139.52,34.22,0.3650320953372628
0,-1809.89,-951.69,-3139.3,33.31,0.37003253499941735
0,-1798.52,-939.26,-3137.61,40.61,0.3750329746615719
0,-1804.97,-936.93,-3135.05,38.81,0.3800334143237265
0,-1807.04,-953.3,-3138.27,41.56,0.3850338539858775
0,-1802.99,-951.05,-3136.61,34.4,0.3900342936480321
0,-1799.89,-949.87,-3133.45,37.91,0.3950347333101867
0,-1800.89,-938.67,-3128.26,44.33,0.40003517297234126
0,-1811.03,-937.49,-3129.93,45.68,0.40503561263449583
0,-1806.08,-937.51,-3131.05,46.85,0.4100360522966504
0,-1803.26,-938.77,-3125.07,50.33,0.415036491958805
0,-1810.75,-952.64,-3137.88,23.31,0.42003693162095956
0,-1804.08,-941.71,-3133.72,28.42,0.42503737128311414
0,-1797.96,-944.22,-3136.78,33.07,0.4300378109452687
0,-1800.08,-946.9,-3135.32,31.46,0.4350382506074233
0,-1799.08,-945.24,-3134.91,29.37,0.44003869026957787
0,-1799.38,-942.48,-3127.73,31.53,0.44503912993173245
0,-1797.33,-942.25,-3128.16,35.2,0.45003956959388347
0,-1804.31,-945.16,-3131.23,33.25,0.45504000925603805
0,-1801.98,-942.02,-3132.2,33.29,0.4600404489181926
0,-1802.08,-944.24,-3134.09,35.04,0.4650408885803472
0,-1807.66,-956.62,-3140.21,31.84,0.4700413282425018
0,-1805.95,-962.7,-3142.21,33.1,0.47504176790465635
0,-1805.2,-961.13,-3143.89,36.94,0.48004220756681093
0,-1810.72,-954.16,-3143.53,33.12,0.4850426472289655
0,-1821.49,-957.22,-3150.33,26.39,0.4900430868911201
0,-1823.71,-960.17,-3157.22,22.1,0.49504352655327466
0,-1816.96,-958.12,-3149.18,27.95,0.5000439662154292
0,-1818.95,-962.56,-3149.9,27.01,0.5050444058775838
0,-1813.27,-963.61,-3148.97,26.17,0.5100448455397384
0,-1817.8,-959.06,-3147.42,22.31,0.515045285201893
0,-1818.88,-960.96,-3155.66,26.05,0.5200457248640475
0,-1821.01,-954.75,-3147.85,17.44,0.5250461645262021
0,-1810.39,-952.31,-3138.25,25.48,0.5300466041883567
0,-1796.11,-941.7,-3132.51,41.89,0.5350470438505113
0,-1803.21,-941.25,-3131.21,39.07,0.5400474835126587
0,-1809.87,-945.81,-3136.04,36.57,0.5450479231748133
0,-1800.93,-941.67,-3127.68,43.94,0.5500483628369679
0,-1803.33,-943.44,-3127.25,39.27,0.5550488024991225
0,-1803.72,-935.35,-3123.38,43.83,0.560049242161277
0,-1800.86,-929.43,-3124.58,44.17,0.5650496818234316
0,-1797.32,-933.47,-3123.54,41.47,0.5700501214855862
0,-1797.73,-933.67,-3122.81,42.33,0.5750505611477408
0,-1798.4,-929.53,-3123.4,47.92,0.5800510008098954
0,-1799.74,-931.8,-3129.93,44.25,0.5850514404720499
0,-1795.15,-939.19,-3125.71,51.69,0.5900518801342045
0,-1799.31,-942.34,-3127.66,44.43,0.5950523197963591
0,-1803.18,-948.12,-3139.99,40.41,0.6000527594585137
0,-1799.7,-941.42,-3130.5,41.4,0.6050531991206682
0,-1796.59,-930.52,-3127.86,44.44,0.6100536387828228
0,-1792.46,-934.28,-3124.43,43.63,0.6150540784449774
0,-1796.86,-930.52,-3122.87,44.88,0.620054518107132
0,-1799.96,-945.79,-3132.3,41.03,0.6250549577692865
0,-1799.98,-939.63,-3137.47,39.4,0.6300553974314411
0,-1804.55,-943.14,-3140.64,30.78,0.6350558370935957
0,-1804.51,-956.93,-3141.89,30.99,0.6400562767557503
0,-1813.0,-959.26,-3147.36,25.24,0.6450567164179049
0,-1806.13,-939.48,-3133.94,38.88,0.6500571560800594
0,-1802.76,-941.17,-3131.85,41.58,0.655057595742214
0,-1804.08,-945.18,-3131.04,38.33,0.6600580354043615
0,-1803.57,-950.13,-3129.69,32.62,0.665058475066516
0,-1809.52,-949.72,-3133.69,23.65,0.6700589147286706
0,-1813.91,-960.98,-3145.35,23.71,0.6750593543908252
0,-1812.82,-963.43,-3147.31,30.11,0.6800597940529798
0,-1810.55,-952.34,-3144.28,30.72,0.6850602337151344
0,-1817.72,-960.56,-3152.73,25.14,0.6900606733772889
0,-1818.13,-962.21,-3153.6,26.78,0.6950611130394435
0,-1817.98,-946.66,-3142.85,22.72,0.7000615527015981
0,-1823.03,-956.03,-3147.98,15.91,0.7050619923637527
0,-1820.6,-960.11,-3147.23,21.81,0.7100624320259072
0,-1815.95,-958.63,-3146.83,26.96,0.7150628716880618
0,-1812.66,-953.22,-3145.75,25.82,0.7200633113502164
0,-1814.58,-948.02,-3147.12,26.23,0.725063751012371
0,-1799.19,-948.92,-3142.48,22.86,0.7300641906745255
0,-1806.96,-952.16,-3138.89,29.04,0.7350646303366801
0,-1809.58,-949.81,-3142.02,31.65,0.7400650699988347
0,-1814.95,-957.58,-3145.48,21.04,0.7450655096609893
0,-1812.62,-955.74,-3140.46,24.19,0.7500659493231439
0,-1814.25,-951.06,-3141.14,24.59,0.7550663889852984
0,-1817.66,-946.0,-3142.06,24.94,0.760066828647453
0,-1808.22,-951.56,-3134.66,29.49,0.7650672683096076
0,-1813.59,-952.71,-3141.42,24.12,0.7700677079717622
0,-1811.01,-951.39,-3143.85,31.49,0.7750681476339167
0,-1810.79,-949.21,-3138.08,31.56,0.7800685872960642
0,-1805.41,-947.27,-3136.81,30.84,0.7850690269582188
0,-1807.48,-945.94,-3143.05,26.56,0.7900694666203734
0,-1802.11,-949.74,-3133.5,28.51,0.7950699062825279
0,-1799.79,-938.92,-3135.26,30.64,0.8000703459446825
0,-1810.23,-947.85,-3132.93,28.43,0.8050707856068371
0,-1801.03,-939.01,-3131.17,33.57,0.8100712252689917
0,-1802.44,-943.92,-3135.42,27.93,0.8150716649311462
0,-1812.72,-944.15,-3139.17,25.38,0.8200721045933008
0,-1802.79,-943.67,-3137.26,31.72,0.8250725442554554
0,-1814.22,-955.74,-3144.1,25.42,0.83007298391761
0,-1811.18,-948.95,-3133.27,32.45,0.8350734235797646
0,-1806.02,-945.37,-3132.55,38.07,0.8400738632419191
0,-1807.87,-951.13,-3140.45,34.23,0.8450743029040737
0,-1808.96,-945.02,-3135.0,37.47,0.8500747425662283
0,-1815.58,-946.56,-3138.31,37.36,0.8550751822283829
0,-1805.55,-942.21,-3128.21,35.48,0.8600756218905374
0,-1805.96,-946.26,-3132.98,37.0,0.865076061552692
0,-1800.0,-934.21,-3132.54,41.52,0.8700765012148466
0,-1814.87,-942.58,-3135.71,33.74,0.8750769408770012
0,-1809.27,-952.6,-3139.49,36.99,0.8800773805391557
0,-1796.95,-943.81,-3131.67,49.61,0.8850778202013103
0,-1803.42,-946.29,-3127.77,55.7,0.8900782598634649
0,-1812.59,-953.53,-3135.92,37.21,0.8950786995256195
0,-1804.69,-945.23,-3142.14,35.62,0.9000791391877669
0,-1806.54,-939.71,-3135.85,39.92,0.9050795788499215
0,-1809.02,-943.2,-3136.59,37.25,0.9100800185120761
0,-1799.23,-933.85,-3131.14,43.02,0.9150804581742307
0,-1807.04,-942.49,-3129.07,35.74,0.9200808978363852
0,-1806.63,-932.46,-3125.21,42.37,0.9250813374985398
0,-1798.91,-933.35,-3128.23,39.61,0.9300817771606944
0,-1801.47,-929.51,-3127.56,40.68,0.935082216822849
0,-1795.91,-930.5,-3124.4,39.3,0.9400826564850036
0,-1801.05,-943.55,-3128.15,38.03,0.9450830961471581
0,-1808.65,-935.16,-3131.3,35.06,0.9500835358093127
0,-1804.26,-939.51,-3129.81,38.26,0.9550839754714673
0,-1804.24,-943.87,-3132.03,39.68,0.9600844151336219
0,-1801.84,-937.09,-3129.18,43.6,0.9650848547957764
0,-1804.99,-938.28,-3130.73,43.17,0.970085294457931
0,-1802.32,-938.05,-3124.78,41.99,0.9750857341200856
0,-1809.8,-947.51,-3139.61,34.74,0.9800861737822402
0,-1814.45,-943.11,-3137.54,36.17,0.9850866134443947
0,-1816.85,-950.09,-3145.01,32.41,0.9900870531065493
0,-1812.45,-946.9,-3138.15,37.84,0.9950874927687039
0,-1810.03,-947.49,-3141.39,34.13,1.0000879324308585
0,-1807.3,-950.79,-3141.95,29.52,1.005088372093013
0,-1812.78,-942.8,-3138.66,37.72,1.0100888117551676
0,-1810.14,-946.63,-3140.61,37.53,1.0150892514173222
0,-1809.04,-954.85,-3139.58,34.45,1.0200896910794697
0,-1813.51,-954.09,-3140.57,28.98,1.0250901307416243
0,-1817.19,-952.76,-3143.26,25.21,1.0300905704037788
0,-1812.98,-952.31,-3142.69,27.26,1.0350910100659334
0,-1809.15,-946.73,-3137.34,31.74,1.040091449728088
0,-1806.99,-939.67,-3133.5,35.09,1.0450918893902426
0,-1804.82,-949.94,-3133.34,30.31,1.0500923290523971
0,-1800.35,-955.24,-3131.65,34.83,1.0550927687145517
0,-1801.6,-947.9,-3127.44,40.19,1.0600932083767063
0,-1800.68,-939.67,-3131.72,40.62,1.0650936480388609
0,-1801.94,-941.97,-3122.25,55.29,1.0700940877010154
0,-1802.78,-952.57,-3130.84,45.47,1.07509452736317
0,-1797.18,-939.82,-3126.87,38.09,1.0800949670253246
0,-1799.38,-940.28,-3131.25,35.57,1.0850954066874792
0,-1803.24,-947.37,-3136.5,38.36,1.0900958463496337
0,-1806.22,-954.37,-3140.32,33.0,1.0950962860117883
0,-1801.51,-950.09,-3138.23,29.52,1.100096725673943
0,-1802.77,-948.77,-3136.07,33.63,1.1050971653360975
0,-1798.59,-947.16,-3136.27,34.15,1.110097604998252
0,-1806.68,-948.99,-3137.89,31.23,1.1150980446604066
0,-1811.81,-955.79,-3146.52,24.36,1.1200984843225612
0,-1814.11,-955.81,-3149.93,23.73,1.1250989239847158
0,-1809.62,-944.21,-3139.23,27.72,1.1300993636468704
0,-1807.46,-947.92,-3140.32,27.13,1.135099803309025
0,-1816.84,-954.3,-3146.8,20.08,1.1401002429711724
0,-1806.05,-945.7,-3141.68,34.3,1.145100682633327
0,-1805.24,-953.48,-3139.01,30.98,1.1501011222954816
0,-1804.96,-952.52,-3139.55,33.07,1.1551015619576361
0,-1810.3,-948.44,-3140.99,31.39,1.1601020016197907
0,-1799.12,-955.45,-3139.05,36.66,1.1651024412819453
0,-1802.84,-950.03,-3142.16,37.86,1.1701028809440999
0,-1809.51,-943.01,-3135.12,42.54,1.1751033206062544
0,-1805.42,-939.02,-3137.84,42.17,1.180103760268409
0,-1801.45,-939.25,-3129.57,47.5,1.1851041999305636
0,-1798.58,-942.33,-3133.16,38.65,1.1901046395927182
0,-1797.79,-939.94,-3132.81,36.02,1.1951050792548727
0,-1801.49,-942.84,-3130.96,37.06,1.2001055189170273
0,-1811.65,-953.98,-3136.96,34.65,1.205105958579182
0,-1812.79,-954.79,-3142.13,31.65,1.2101063982413365
0,-1810.42,-952.2,-3136.29,33.74,1.215106837903491
0,-1808.88,-949.98,-3136.09,30.93,1.2201072775656456
0,-1800.14,-939.41,-3127.74,33.43,1.2251077172278002
0,-1803.11,-935.85,-3127.6,32.34,1.2301081568899548
0,-1803.43,-940.27,-3135.52,30.9,1.2351085965521094
0,-1805.39,-942.15,-3134.83,27.34,1.240109036214264
0,-1809.56,-949.06,-3135.9,29.29,1.2451094758764185
0,-1804.11,-946.11,-3132.76,34.58,1.250109915538573
0,-1802.4,-936.79,-3129.57,36.34,1.2551103552007277
0,-1798.72,-934.45,-3121.68,45.38,1.2601107948628822
0,-1806.25,-944.68,-3126.69,43.99,1.2651112345250297
0,-1805.59,-945.42,-3136.64,41.77,1.2701116741871843
0,-1811.64,-951.8,-3139.22,32.02,1.2751121138493389
0,-1809.18,-946.78,-3139.81,30.19,1.2801125535114934
0,-1812.5,-944.82,-3135.65,29.89,1.285112993173648
0,-1805.42,-936.97,-3131.74,40.51,1.2901134328358026
0,-1808.45,-949.37,-3139.71,29.95,1.2951138724979572
0,-1814.12,-948.94,-3141.94,31.31,1.3001143121601118
0,-1809.23,-950.53,-3140.86,35.33,1.3051147518222663
0,-1813.49,-951.64,-3140.18,28.15,1.310115191484421
0,-1804.81,-944.92,-3138.99,32.73,1.3151156311465755
0,-1800.47,-943.15,-3134.95,34.41,1.32011607080873
0,-1804.49,-937.89,-3133.87,34.05,1.3251165104708846
0,-1803.71,-934.15,-3128.74,34.15,1.3301169501330392
0,-1813.37,-933.61,-3134.49,26.28,1.3351173897951938
0,-1800.52,-948.44,-3136.01,35.13,1.3401178294573484
0,-1807.13,-948.27,-3137.07,34.55,1.345118269119503
0,-1802.21,-946.62,-3134.09,36.71,1.3501187087816575
0,-1804.84,-946.19,-3137.24,36.1,1.355119148443812
0,-1807.58,-943.52,-3137.17,32.01,1.3601195881059667
0,-1801.7,-939.89,-3131.98,37.11,1.3651200277681212
0,-1805.45,-946.48,-3131.62,35.58,1.3701204674302758
0,-1808.13,-939.77,-3132.24,40.31,1.3751209070924304
0,-1797.54,-939.69,-3129.5,36.04,1.380121346754585
0,-1804.78,-941.87,-3136.18,34.2,1.3851217864167324
0,-1814.61,-949.77,-3141.07,31.57,1.390122226078887
0,-1808.18,-948.08,-3137.09,29.61,1.3951226657410416
0,-1807.07,-957.02,-3138.73,34.72,1.4001231054031962
0,-1811.49,-949.64,-3140.53,38.49,1.4051235450653508
0,-1803.16,-957.34,-3141.16,35.3,1.4101239847275053
0,-1805.75,-951.25,-3132.41,36.82,1.41512442438966
0,-1804.19,-945.08,-3130.72,44.7,1.4201248640518145
0,-1803.45,-943.32,-3131.5,36.45,1.425125303713969
0,-1815.77,-954.56,-3141.52,33.69,1.4301257433761236
0,-1807.0,-944.48,-3137.03,37.05,1.4351261830382782
0,-1809.41,-951.6,-3140.54,33.37,1.4401266227004328
0,-1807.33,-952.89,-3140.13,26.49,1.4451270623625874
0,-1811.05,-951.44,-3137.62,35.88,1.450127502024742
0,-1813.23,-949.69,-3137.58,36.28,1.4551279416868965
0,-1804.34,-949.09,-3135.74,36.86,1.460128381349051
0,-1807.65,-944.96,-3134.63,32.35,1.4651288210112057
0,-1800.74,-943.07,-3132.04,33.98,1.4701292606733602
0,-1791.42,-942.66,-3128.92,40.83,1.4751297003355148
0,-1801.3,-945.8,-3127.57,42.28,1.4801301399976694
0,-1801.65,-936.57,-3124.88,38.94,1.485130579659824
0,-1798.12,-933.59,-3126.26,42.7,1.4901310193219786
0,-1795.58,-936.46,-3131.71,36.77,1.4951314589841331
0,-1795.53,-942.94,-3128.05,37.69,1.5001318986462877
0,-1805.46,-945.37,-3134.85,36.02,1.5051323383084352
0,-1804.24,-945.69,-3132.51,41.99,1.5101327779705898
0,-1806.63,-942.23,-3136.02,34.63,1.5151332176327443
0,-1814.51,-945.45,-3143.81,22.99,1.520133657294899
0,-1808.94,-951.32,-3142.34,28.17,1.5251340969570535
0,-1802.86,-951.62,-3140.77,26.36,1.530134536619208
0,-1807.32,-950.67,-3142.22,29.4,1.5351349762813626
0,-1818.54,-959.49,-3150.36,25.32,1.5401354159435172
0,-1827.32,-959.22,-3152.03,25.48,1.5451358556056718
0,-1818.86,-952.8,-3147.25,26.44,1.5501362952678264
0,-1812.95,-951.09,-3142.05,30.55,1.555136734929981
0,-1813.34,-963.55,-3151.45,24.94,1.5601371745921355
0,-1812.11,-959.03,-3146.36,29.65,1.56513761425429
0,-1821.16,-952.26,-3142.54,27.58,1.5701380539164447
0,-1810.93,-956.83,-3142.92,28.08,1.5751384935785993
0,-1818.75,-953.55,-3139.86,28.29,1.5801389332407538
0,-1811.45,-951.35,-3142.62,25.34,1.5851393729029084
0,-1819.94,-951.09,-3144.21,29.86,1.590139812565063
0,-1810.53,-947.08,-3136.97,33.52,1.5951402522272176
0,-1808.21,-944.49,-3135.71,36.37,1.6001406918893721
0,-1806.47,-943.66,-3133.04,34.92,1.6051411315515267
0,-1802.09,-944.95,-3133.94,38.32,1.6101415712136813
0,-1803.05,-937.13,-3127.19,36.84,1.6151420108758359
0,-1796.86,-948.58,-3134.02,40.81,1.6201424505379904
0,-1801.07,-945.39,-3128.62,41.28,1.625142890200138
0,-1798.86,-939.03,-3130.58,36.84,1.6301433298622925
0,-1794.5,-941.22,-3130.82,41.7,1.635143769524447
0,-1808.13,-940.27,-3135.28,29.84,1.6401442091866016
0,-1812.33,-945.02,-3129.78,28.98,1.6451446488487562
0,-1804.15,-943.95,-3142.79,28.59,1.6501450885109108
0,-1806.89,-944.26,-3134.65,36.29,1.6551455281730654
0,-1814.49,-953.08,-3143.34,33.56,1.66014596783522
0,-1800.82,-942.41,-3138.06,38.73,1.6651464074973745
0,-1807.45,-940.72,-3135.67,34.94,1.670146847159529
0,-1814.74,-958.38,-3139.97,35.52,1.6751472868216837
0,-1810.15,-942.73,-3137.59,37.89,1.6801477264838383
0,-1802.83,-938.8,-3133.28,35.72,1.6851481661459928
0,-1806.76,-942.28,-3134.88,41.96,1.6901486058081474
0,-1806.9,-952.11,-3140.29,32.67,1.695149045470302
0,-1805.13,-947.12,-3141.81,30.19,1.7001494851324566
0,-1813.54,-953.97,-3143.73,27.47,1.7051499247946111
0,-1813.33,-953.42,-3146.4,25.75,1.7101503644567657
0,-1813.89,-943.39,-3142.56,27.28,1.7151508041189203
0,-1803.81,-935.6,-3133.69,34.77,1.7201512437810749
0,-1810.85,-942.86,-3133.09,32.5,1.7251516834432294
0,-1806.33,-934.95,-3134.96,38.79,1.730152123105384
0,-1804.06,-933.25,-3126.73,41.72,1.7351525627675386
0,-1803.69,-951.28,-3132.88,39.46,1.7401530024296932
0,-1802.73,-952.0,-3139.78,32.31,1.7451534420918406
0,-1803.61,-945.56,-3134.53,36.54,1.7501538817539952
0,-1805.88,-941.2,-3134.6,40.98,1.7551543214161498
0,-1803.57,-934.43,-3127.7,38.7,1.7601547610783044
0,-1806.29,-930.17,-3126.37,44.93,1.765155200740459
0,-1802.1,-938.86,-3131.56,35.67,1.7701556404026135
0,-1801.36,-941.58,-3130.69,35.95,1.775156080064768
0,-1808.9,-950.57,-3133.94,34.79,1.7801565197269227
0,-1802.76,-947.28,-3140.46,36.62,1.7851569593890773
0,-1811.16,-943.58,-3138.28,35.15,1.7901573990512318
0,-1819.21,-952.08,-3139.37,35.3,1.7951578387133864
0,-1816.5,-946.14,-3139.9,32.39,1.800158278375541
0,-1817.86,-960.67,-3148.53,30.37,1.8051587180376956
0,-1812.53,-951.19,-3134.44,37.83,1.8101591576998501
0,-1806.88,-948.11,-3136.44,37.0,1.8151595973620047
0,-1810.98,-948.9,-3136.0,33.67,1.8201600370241593
0,-1809.31,-949.58,-3139.9,29.22,1.8251604766863139
0,-1810.67,-947.44,-3141.32,27.36,1.8301609163484684
0,-1813.33,-954.88,-3144.21,28.94,1.835161356010623
0,-1794.3,-944.15,-3133.67,43.41,1.8401617956727776
0,-1805.94,-950.5,-3134.68,36.71,1.8451622353349322
0,-1809.33,-953.29,-3138.16,33.7,1.8501626749970868
0,-1812.71,-947.01,-3136.93,41.29,1.8551631146592413
0,-1805.85,-948.61,-3135.95,44.58,1.860163554321396
0,-1801.61,-943.75,-3131.65,43.35,1.8651639939835434
0,-1805.29,-943.53,-3132.92,40.32,1.870164433645698
0,-1814.17,-954.27,-3142.42,28.38,1.8751648733078525
0,-1815.71,-956.86,-3144.2,27.33,1.880165312970007
0,-1815.18,-958.84,-3148.15,26.87,1.8851657526321617
0,-1811.64,-956.21,-3145.7,34.87,1.8901661922943163
0,-1806.78,-944.88,-3138.2,32.49,1.8951666319564708
0,-1804.57,-944.22,-3134.63,37.4,1.9001670716186254
0,-1805.74,-939.94,-3128.25,38.1,1.90516751128078
0,-1807.5,-944.61,-3134.95,41.7,1.9101679509429346
0,-1799.46,-925.2,-3124.99,43.41,1.9151683906050891
0,-1791.46,-925.85,-3118.31,44.62,1.9201688302672437
0,-1790.54,-940.21,-3125.33,42.45,1.9251692699293983
0,-1801.61,-951.16,-3134.12,44.23,1.9301697095915529
0,-1808.48,-949.53,-3141.36,34.23,1.9351701492537075
0,-1804.85,-946.59,-3139.59,32.92,1.940170588915862
0,-1807.21,-951.8,-3139.6,26.97,1.9451710285780166
0,-1800.91,-949.13,-3136.0,28.74,1.9501714682401712
0,-1809.71,-943.63,-3136.64,32.15,1.9551719079023258
0,-1814.03,-954.67,-3146.1,23.73,1.9601723475644803
0,-1809.0,-942.97,-3138.37,29.5,1.965172787226635
0,-1813.83,-961.44,-3144.16,28.74,1.9701732268887895
0,-1818.42,-956.0,-3151.22,28.78,1.975173666550944
0,-1815.69,-949.16,-3143.1,24.67,1.9801741062130986
0,-1813.64,-949.55,-3139.08,25.11,1.985174545875246
0,-1810.72,-951.07,-3143.18,25.92,1.9901749855374007
0,-1808.58,-947.38,-3141.82,27.99,1.9951754251995553
0,-1808.73,-944.39,-3137.36,34.23,2.00017586486171
0,-1800.32,-943.96,-3133.05,34.31,2.0051763045238644
0,-1805.66,-952.64,-3139.67,30.71,2.010176744186019
0,-1801.69,-948.53,-3130.91,39.85,2.0151771838481736
0,-1806.48,-942.01,-3133.71,41.84,2.020177623510328
0,-1802.15,-941.41,-3127.71,43.44,2.0251780631724827
0,-1803.19,-939.95,-3130.37,36.2,2.0301785028346373
0,-1805.29,-941.07,-3141.78,30.13,2.035178942496792
0,-1816.92,-941.49,-3137.48,29.23,2.0401793821589465
0,-1814.3,-959.99,-3141.76,25.52,2.045179821821101
0,-1816.41,-958.13,-3148.02,27.22,2.0501802614832556
0,-1807.87,-948.58,-3148.87,27.13,2.05518070114541
0,-1810.21,-959.7,-3146.65,26.36,2.0601811408075648
0,-1810.52,-949.67,-3141.38,30.75,2.0651815804697193
0,-1815.55,-950.88,-3142.66,30.35,2.070182020131874
0,-1817.93,-949.71,-3140.26,30.71,2.0751824597940285
0,-1809.08,-955.39,-3140.52,30.0,2.080182899456183
0,-1808.12,-942.17,-3138.49,34.57,2.0851833391183376
0,-1812.87,-944.83,-3136.45,39.41,2.090183778780492
0,-1811.18,-945.23,-3139.2,37.26,2.095184218442647
0,-1810.95,-946.39,-3143.92,30.07,2.1001846581048014
0,-1819.89,-952.73,-3150.96,28.89,2.105185097766956
0,-1814.15,-957.01,-3145.33,28.56,2.1101855374291034
0,-1810.02,-951.45,-3142.69,30.89,2.115185977091258
0,-1813.22,-945.17,-3133.82,33.32,2.1201864167534126
0,-1808.35,-947.44,-3140.11,34.09,2.125186856415567
0,-1809.95,-955.37,-3140.54,28.11,2.1301872960777217
0,-1808.37,-947.92,-3137.13,28.78,2.1351877357398763
0,-1808.89,-945.75,-3137.62,33.95,2.140188175402031
0,-1806.01,-933.24,-3135.41,39.26,2.1451886150641855
0,-1810.99,-939.86,-3138.1,35.87,2.15018905472634
0,-1812.55,-943.11,-3134.28,35.36,2.1551894943884946
0,-1806.69,-941.79,-3137.13,33.54,2.160189934050649
0,-1802.86,-946.79,-3135.24,33.59,2.1651903737128038
0,-1805.97,-948.94,-3130.86,38.42,2.1701908133749583
0,-1796.4,-951.09,-3132.9,39.69,2.175191253037113
0,-1806.35,-944.96,-3133.83,41.23,2.1801916926992675
0,-1804.1,-946.61,-3132.72,38.98,2.185192132361422
0,-1813.29,-945.52,-3139.48,43.46,2.1901925720235766
0,-1809.32,-946.54,-3136.37,36.57,2.195193011685731
0,-1803.79,-932.62,-3129.43,40.6,2.200193451347886
0,-1800.52,-931.55,-3123.65,44.83,2.2051938910100404
0,-1800.0,-927.59,-3123.49,45.88,2.210194330672195
0,-1797.82,-924.24,-3121.21,46.13,2.2151947703343495
0,-1797.15,-943.31,-3125.19,49.24,2.220195209996504
0,-1814.32,-961.2,-3142.49,28.13,2.2251956496586587
0,-1809.55,-957.41,-3144.8,24.12,2.230196089320806
0,-1801.11,-945.03,-3131.86,39.29,2.2351965289829607
0,-1802.92,-944.29,-3136.88,40.65,2.2401969686451153
0,-1798.03,-940.46,-3130.62,37.39,2.24519740830727
0,-1803.58,-950.62,-3135.24,32.35,2.2501978479694245
0,-1811.28,-952.4,-3134.9,28.98,2.255198287631579
0,-1810.14,-953.44,-3137.63,29.75,2.2601987272937336
0,-1801.01,-948.64,-3134.37,27.28,2.265199166955888
0,-1805.68,-945.76,-3137.66,29.43,2.2701996066180428
0,-1806.26,-941.93,-3140.54,30.64,2.2752000462801973
0,-1808.22,-944.99,-3141.36,30.0,2.280200485942352
0,-1801.5,-946.98,-3135.19,35.12,2.2852009256045065
0,-1802.84,-939.75,-3137.56,32.72,2.290201365266661
0,-1806.85,-955.32,-3140.2,28.8,2.2952018049288156
0,-1804.64,-950.36,-3132.63,33.27,2.3002022445909702
0,-1813.15,-962.27,-3146.16,30.43,2.305202684253125
0,-1810.61,-953.87,-3142.26,29.19,2.3102031239152794
0,-1803.45,-946.76,-3136.62,30.06,2.315203563577434
0,-1805.55,-949.8,-3137.93,33.85,2.3202040032395885
0,-1809.29,-953.78,-3139.43,37.51,2.325204442901743
0,-1811.11,-955.32,-3139.04,29.98,2.3302048825638977
0,-1807.28,-951.72,-3141.77,35.89,2.3352053222260523
0,-1804.74,-950.41,-3134.58,37.38,2.340205761888207
0,-1803.43,-944.82,-3136.87,40.49,2.3452062015503614
0,-1806.83,-945.56,-3138.02,39.76,2.350206641212509
0,-1807.37,-945.31,-3138.13,39.63,2.3552070808746635
0,-1815.32,-956.62,-3144.6,34.1,2.360207520536818
0,-1814.47,-952.37,-3145.3,34.16,2.3652079601989726
0,-1812.35,-950.16,-3136.8,36.63,2.370208399861127
0,-1809.86,-948.89,-3139.75,29.33,2.3752088395232818
0,-1822.51,-948.73,-3144.26,31.61,2.3802092791854363
0,-1814.61,-950.04,-3142.71,32.99,2.385209718847591
0,-1810.0,-951.1,-3140.81,35.51,2.3902101585097455
0,-1806.45,-947.67,-3137.69,39.96,2.3952105981719
0,-1804.6,-945.02,-3132.97,39.96,2.4002110378340547
0,-1805.52,-947.69,-3133.34,41.24,2.4052114774962092
0,-1810.81,-951.33,-3140.94,37.14,2.410211917158364
0,-1802.87,-946.56,-3140.62,39.03,2.4152123568205184
0,-1800.07,-942.09,-3129.85,41.89,2.420212796482673
0,-1795.69,-930.86,-3125.58,44.68,2.4252132361448275
0,-1807.46,-930.48,-3132.54,44.59,2.430213675806982
0,-1803.18,-945.03,-3131.65,35.33,2.4352141154691367
0,-1801.28,-939.1,-3129.23,41.54,2.4402145551312913
0,-1803.05,-939.32,-3132.97,40.85,2.445214994793446
0,-1805.53,-948.3,-3138.58,39.4,2.4502154344556004
0,-1805.98,-936.34,-3129.07,40.5,2.455215874117755
0,-1806.83,-944.98,-3133.72,32.81,2.4602163137799096
0,-1804.63,-942.01,-3135.8,35.6,2.465216753442064
0,-1804.8,-946.16,-3132.05,39.03,2.4702171931042116
0,-1810.85,-944.34,-3135.02,30.4,2.475217632766366
0,-1806.54,-942.72,-3136.64,32.76,2.4802180724285208
0,-1800.36,-936.81,-3131.38,39.26,2.4852185120906753
0,-1806.47,-942.29,-3132.61,32.0,2.49021895175283
0,-1804.86,-938.91,-3129.32,40.62,2.4952193914149845
0,-1804.38,-947.21,-3129.89,42.32,2.500219831077139
0,-1796.47,-932.42,-3124.08,46.33,2.5052202707392937
0,-1800.1,-929.57,-3121.14,47.46,2.5102207104014482
0,-1793.34,-933.07,-3126.17,38.56,2.515221150063603
0,-1807.29,-952.7,-3139.85,37.22,2.5202215897257574
0,-1807.75,-955.05,-3141.02,30.97,2.525222029387912
0,-1802.61,-944.94,-3135.88,33.26,2.5302224690500665
0,-1811.56,-957.9,-3144.16,26.37,2.535222908712221
0,-1808.89,-948.46,-3142.97,32.57,2.5402233483743757
0,-1804.83,-944.86,-3137.5,30.74,2.5452237880365303
0,-1802.52,-952.27,-3136.32,29.44,2.550224227698685
0,-1810.06,-955.22,-3147.98,21.04,2.5552246673608394
0,-1810.96,-947.34,-3146.38,19.94,2.560225107022994
0,-1815.35,-950.45,-3147.07,21.53,2.5652255466851486
0,-1820.15,-956.35,-3146.11,20.86,2.570225986347303
0,-1820.01,-955.6,-3145.24,21.99,2.5752264260094577
0,-1812.53,-946.04,-3143.33,27.59,2.5802268656716123
0,-1813.33,-953.92,-3142.06,30.58,2.585227305333767
0,-1818.12,-951.0,-3145.09,30.39,2.5902277449959143
0,-1810.19,-944.42,-3139.79,33.96,2.595228184658069
0,-1807.68,-956.76,-3140.55,32.88,2.6002286243202235
0,-1808.57,-948.0,-3133.68,39.44,2.605229063982378
0,-1813.99,-948.36,-3136.88,34.05,2.6102295036445327
0,-1798.59,-934.31,-3127.82,41.48,2.6152299433066872
0,-1800.84,-941.02,-3135.96,37.22,2.620230382968842
0,-1803.79,-940.82,-3134.64,37.09,2.6252308226309964
0,-1803.49,-944.78,-3134.7,35.04,2.630231262293151
0,-1804.01,-951.74,-3132.06,30.37,2.6352317019553055
0,-1801.54,-950.39,-3137.14,29.79,2.64023214161746
0,-1796.62,-949.63,-3135.69,30.84,2.6452325812796147
0,-1797.58,-933.23,-3129.54,37.82,2.6502330209417693
0,-1802.4,-947.95,-3133.11,32.44,2.655233460603924
0,-1799.08,-941.22,-3123.18,40.06,2.6602339002660784
0,-1799.74,-944.01,-3128.36,50.29,2.665234339928233
0,-1807.44,-943.04,-3135.88,32.69,2.6702347795903876
0,-1803.61,-942.35,-3132.68,32.38,2.675235219252542
0,-1807.63,-939.26,-3132.32,35.31,2.6802356589146967
0,-1811.53,-960.05,-3142.17,27.39,2.6852360985768513
0,-1811.64,-958.16,-3147.83,19.22,2.690236538239006
0,-1809.26,-946.93,-3141.55,26.84,2.6952369779011605
0,-1812.0,-948.48,-3140.52,29.78,2.700237417563315
0,-1810.1,-950.8,-3140.91,32.34,2.7052378572254696
0,-1802.1,-939.77,-3133.88,35.4,2.710238296887617
0,-1804.3,-944.91,-3133.9,38.5,2.7152387365497717
0,-1799.08,-945.69,-3129.22,38.39,2.7202391762119262
0,-1809.59,-949.82,-3137.26,33.76,2.725239615874081
0,-1802.17,-938.62,-3130.87,43.88,2.7302400555362354
0,-1799.85,-939.51,-3131.11,43.05,2.73524049519839
0,-1804.06,-945.72,-3133.05,36.56,2.7402409348605445
0,-1810.18,-950.11,-3142.27,32.16,2.745241374522699
0,-1804.37,-949.98,-3133.89,30.74,2.7502418141848537
0,-1803.18,-951.56,-3131.72,36.92,2.7552422538470083
0,-1800.11,-944.28,-3138.02,40.73,2.760242693509163
0,-1812.01,-949.34,-3147.17,34.08,2.7652431331713174
0,-1816.5,-953.2,-3144.2,32.24,2.770243572833472
0,-1811.35,-945.41,-3138.53,34.77,2.7752440124956266
0,-1810.92,-945.05,-3133.98,37.53,2.780244452157781
0,-1808.03,-940.21,-3137.78,36.72,2.7852448918199357
0,-1807.05,-946.33,-3131.93,39.56,2.7902453314820903
0,-1806.21,-943.86,-3133.76,38.11,2.795245771144245
0,-1805.09,-954.58,-3136.61,33.84,2.8002462108063995
0,-1809.93,-955.35,-3138.59,35.02,2.805246650468554
0,-1815.78,-947.49,-3139.44,35.27,2.8102470901307086
0,-1814.65,-953.98,-3145.14,31.46,2.815247529792863
0,-1811.9,-943.06,-3144.01,36.18,2.8202479694550178
0,-1812.06,-958.44,-3141.07,37.87,2.8252484091171723
0,-1815.99,-956.26,-3145.7,31.74,2.830248848779327
0,-1816.4,-955.28,-3146.45,31.48,2.8352492884414744
0,-1812.26,-944.25,-3141.6,28.49,2.840249728103629
0,-1808.09,-954.68,-3146.23,29.76,2.8452501677657835
0,-1806.38,-945.58,-3144.26,27.46,2.850250607427938
0,-1807.84,-946.52,-3137.74,41.12,2.8552510470900927
0,-1807.04,-944.84,-3138.53,43.71,2.8602514867522473
0,-1804.05,-944.82,-3132.39,43.11,2.865251926414402
0,-1813.54,-942.9,-3134.88,40.89,2.8702523660765564
0,-1811.89,-943.16,-3137.94,34.77,2.875252805738711
0,-1813.52,-946.06,-3137.53,30.19,2.8802532454008656
0,-1810.07,-950.36,-3143.39,27.34,2.88525368506302
0,-1809.2,-950.56,-3139.53,23.39,2.8902541247251747
0,-1817.43,-949.8,-3140.36,22.98,2.8952545643873293
0,-1821.53,-955.06,-3148.34,18.82,2.900255004049484
0,-1811.85,-950.24,-3149.94,22.36,2.9052554437116385
0,-1805.33,-942.75,-3140.97,31.63,2.910255883373793
0,-1802.39,-945.75,-3136.21,30.04,2.9152563230359476
0,-1802.13,-944.18,-3133.41,31.23,2.920256762698102
0,-1815.34,-950.44,-3141.07,27.8,2.9252572023602568
0,-1815.7,-950.42,-3140.4,28.99,2.9302576420224113
0,-1813.99,-953.13,-3139.64,32.78,2.935258081684566
0,-1812.57,-948.45,-3143.72,37.43,2.9402585213467205
0,-1805.37,-943.81,-3136.64,37.9,2.945258961008875
0,-1803.59,-938.63,-3131.64,46.9,2.9502594006710297
0,-1802.33,-934.26,-3130.35,41.96,2.955259840333177
0,-1809.55,-950.1,-3136.44,38.13,2.9602602799953317
0,-1810.41,-957.65,-3141.56,31.7,2.9652607196574863
0,-1801.54,-944.69,-3137.9,37.68,2.970261159319641
0,-1801.22,-942.48,-3133.1,36.9,2.9752615989817954
0,-1794.49,-931.09,-3125.78,41.02,2.98026203864395
0,-1797.82,-940.56,-3129.68,41.08,2.9852624783061046
0,-1802.35,-941.42,-3132.35,40.78,2.990262917968259
0,-1799.38,-938.66,-3127.3,48.09,2.9952633576304137
0,-1806.83,-940.81,-3133.54,37.99,3.0002637972925683
0,-1804.88,-934.74,-3131.52,36.74,3.005264236954723
0,-1806.5,-946.15,-3133.08,41.45,3.0102646766168775
0,-1796.49,-935.34,-3125.19,46.5,3.015265116279032
0,-1805.1,-933.38,-3129.14,41.21,3.0202655559411866
0,-1797.57,-936.65,-3124.06,47.95,3.025265995603341
0,-1800.27,-937.88,-3128.82,47.85,3.0302664352654958
0,-1801.67,-932.08,-3126.4,46.39,3.0352668749276503
0,-1801.43,-938.17,-3123.46,48.88,3.040267314589805
0,-1806.23,-933.74,-3127.39,47.52,3.0452677542519595
0,-1801.41,-936.49,-3130.23,44.48,3.050268193914114
0,-1810.22,-947.93,-3141.62,36.66,3.0552686335762687
0,-1813.8,-952.03,-3142.05,36.87,3.0602690732384232
0,-1816.58,-945.07,-3143.03,35.07,3.065269512900578
0,-1815.99,-949.28,-3142.57,34.57,3.0702699525627324
0,-1812.37,-950.49,-3140.36,35.89,3.07527039222488
0,-1813.37,-957.46,-3142.51,26.07,3.0802708318870344
0,-1814.97,-945.46,-3140.77,31.44,3.085271271549189
0,-1811.93,-941.82,-3133.35,42.41,3.0902717112113436
0,-1806.15,-943.01,-3132.4,38.98,3.095272150873498
0,-1806.45,-947.69,-3134.44,37.14,3.1002725905356527
0,-1796.54,-941.81,-3135.7,44.8,3.1052730301978073
0,-1801.06,-937.38,-3130.64,43.11,3.110273469859962
0,-1800.88,-937.08,-3127.06,46.79,3.1152739095221165
0,-1808.16,-943.42,-3136.48,42.17,3.120274349184271
0,-1806.93,-939.83,-3133.64,39.48,3.1252747888464256
0,-1811.8,-941.14,-3136.81,33.5,3.13027522850858
0,-1807.47,-943.57,-3134.99,32.24,3.1352756681707348
0,-1810.09,-955.32,-3144.18,23.45,3.1402761078328894
0,-1807.6,-952.0,-3136.93,31.63,3.145276547495044
0,-1807.98,-943.73,-3135.75,28.71,3.1502769871571985
0,-1801.42,-949.19,-3136.96,30.55,3.155277426819353
0,-1801.46,-947.19,-3138.99,30.76,3.1602778664815077
0,-1809.55,-943.35,-3129.98,41.29,3.1652783061436622
0,-1812.49,-941.27,-3133.72,34.52,3.170278745805817
0,-1809.17,-944.8,-3137.51,32.68,3.1752791854679714
0,-1812.79,-962.65,-3146.19,26.57,3.180279625130126
0,-1812.6,-950.63,-3143.52,28.48,3.1852800647922805
0,-1814.75,-959.04,-3146.56,20.52,3.190280504454435
0,-1810.64,-961.77,-3146.88,21.61,3.1952809441165826
0,-1811.68,-959.7,-3146.27,22.99,3.200281383778737
0,-1815.86,-961.4,-3149.95,22.26,3.2052818234408917
0,-1811.37,-961.27,-3148.36,20.35,3.2102822631030463
0,-1819.61,-954.01,-3149.2,21.72,3.215282702765201
0,-1824.06,-957.19,-3147.01,22.86,3.2202831424273555
0,-1811.07,-958.89,-3145.12,26.53,3.22528358208951
0,-1806.73,-951.41,-3139.1,36.08,3.2302840217516646
0,-1811.9,-950.2,-3138.3,35.48,3.235284461413819
0,-1806.44,-947.63,-3137.72,41.09,3.240284901075974
0,-1806.07,-936.16,-3136.09,37.44,3.2452853407381284
0,-1804.59,-944.14,-3137.68,38.26,3.250285780400283
0,-1801.15,-947.87,-3136.24,43.29,3.2552862200624375
0,-1803.33,-944.75,-3130.96,43.78,3.260286659724592
0,-1808.88,-941.21,-3139.45,32.49,3.2652870993867467
0,-1803.26,-940.29,-3134.16,43.34,3.2702875390489012
0,-1805.26,-940.74,-3131.62,41.31,3.275287978711056
0,-1805.15,-940.94,-3132.08,42.1,3.2802884183732104
0,-1808.09,-945.23,-3130.83,37.48,3.285288858035365
0,-1810.96,-944.7,-3133.75,40.05,3.2902892976975195
0,-1807.56,-951.1,-3140.02,33.16,3.295289737359674
0,-1803.49,-941.27,-3134.41,35.13,3.3002901770218287
0,-1802.96,-946.76,-3139.43,30.82,3.3052906166839833
0,-1811.14,-955.87,-3140.56,31.92,3.310291056346138
0,-1810.0,-952.95,-3138.65,34.22,3.3152914960082853
0,-1815.38,-950.05,-3139.25,30.75,3.32029193567044
0,-1817.48,-948.78,-3146.52,27.35,3.3252923753325945
0,-1817.18,-946.53,-3143.57,26.42,3.330292814994749
0,-1815.91,-954.17,-3141.5,29.42,3.3352932546569036
0,-1811.58,-952.59,-3143.46,32.62,3.340293694319058
0,-1807.8,-949.54,-3144.32,32.97,3.345294133981213
0,-1809.87,-953.55,-3144.83,27.87,3.3502945736433674
0,-1810.06,-950.9,-3142.96,31.09,3.355295013305522
0,-1807.44,-950.3,-3137.12,30.27,3.3602954529676765
0,-1811.83,-940.05,-3137.36,32.21,3.365295892629831
0,-1805.26,-946.61,-3138.05,38.25,3.3702963322919857
0,-1803.27,-941.39,-3134.07,39.64,3.3752967719541402
0,-1794.81,-939.84,-3131.53,39.73,3.380297211616295
0,-1798.88,-952.22,-3134.51,39.65,3.3852976512784494
0,-1802.09,-943.93,-3130.19,38.93,3.390298090940604
0,-1806.47,-943.11,-3131.29,41.18,3.3952985306027585
0,-1805.85,-945.84,-3131.66,37.74,3.400298970264913
0,-1804.06,-933.38,-3130.35,39.8,3.4052994099270677
0,-1806.45,-943.57,-3133.68,38.09,3.4102998495892223
0,-1806.7,-951.87,-3137.22,40.47,3.415300289251377
0,-1805.73,-947.87,-3137.01,38.51,3.4203007289135314
0,-1807.67,-940.58,-3132.55,36.78,3.425301168575686
0,-1805.69,-938.69,-3129.19,37.84,3.4303016082378406
0,-1793.02,-929.08,-3120.09,55.5,3.435302047899988
0,-1795.16,-942.92,-3130.1,37.15,3.4403024875621426
0,-1810.2,-956.63,-3143.44,24.66,3.445302927224297
0,-1799.15,-946.76,-3137.52,35.13,3.450303366886452
0,-1799.13,-944.46,-3136.98,35.78,3.4553038065486064
0,-1802.1,-942.46,-3135.23,33.6,3.460304246210761
0,-1809.68,-948.79,-3140.66,28.62,3.4653046858729155
0,-1807.9,-953.63,-3143.71,30.2,3.47030512553507
0,-1805.45,-953.77,-3141.37,25.44,3.4753055651972247
0,-1802.09,-952.17,-3139.71,30.61,3.4803060048593792
0,-1803.68,-948.15,-3138.11,29.66,3.485306444521534
0,-1808.11,-948.06,-3137.23,31.5,3.4903068841836884
0,-1805.12,-948.75,-3135.72,30.49,3.495307323845843
0,-1813.21,-953.92,-3144.67,26.77,3.5003077635079975
0,-1815.53,-957.49,-3148.92,24.48,3.505308203170152
0,-1806.27,-955.42,-3146.48,27.91,3.5103086428323067
0,-1815.58,-953.54,-3146.24,24.1,3.5153090824944613
0,-1806.99,-951.58,-3144.72,27.72,3.520309522156616
0,-1809.53,-955.77,-3143.47,24.84,3.5253099618187704
0,-1817.28,-959.51,-3145.48,27.85,3.530310401480925
0,-1812.73,-942.38,-3135.28,31.36,3.5353108411430796
0,-1806.98,-941.31,-3135.7,36.38,3.540311280805234
0,-1810.14,-955.69,-3145.03,33.13,3.5453117204673887
0,-1805.62,-950.0,-3139.97,36.24,3.5503121601295433
0,-1804.93,-950.74,-3140.88,32.96,3.555312599791691
0,-1811.06,-945.38,-3140.88,33.81,3.5603130394538454
0,-1809.32,-946.77,-3139.74,36.57,3.565313479116
0,-1801.94,-933.99,-3133.45,40.06,3.5703139187781545
0,-1804.85,-938.62,-3130.96,43.89,3.575314358440309
0,-1815.12,-943.75,-3136.08,34.09,3.5803147981024637
0,-1809.95,-949.1,-3137.51,32.66,3.5853152377646182
0,-1808.14,-948.85,-3140.75,29.65,3.590315677426773
0,-1799.33,-943.36,-3134.69,36.42,3.5953161170889274
0,-1802.67,-943.78,-3131.81,38.67,3.600316556751082
0,-1809.81,-947.93,-3137.3,40.07,3.6053169964132366
0,-1807.88,-941.79,-3130.58,45.43,3.610317436075391
0,-1805.32,-931.13,-3128.98,47.45,3.6153178757375457
0,-1806.75,-933.56,-3129.2,48.12,3.6203183153997003
0,-1808.54,-943.72,-3133.31,43.44,3.625318755061855
0,-1799.03,-940.66,-3133.11,42.79,3.6303191947240094
0,-1805.23,-952.1,-3139.7,35.63,3.635319634386164
0,-1802.24,-942.44,-3136.84,38.82,3.6403200740483186
0,-1806.78,-950.86,-3139.2,33.93,3.645320513710473
0,-1813.89,-952.5,-3142.97,28.09,3.6503209533726277
0,-1817.13,-950.73,-3143.35,29.4,3.6553213930347823
0,-1811.34,-951.59,-3144.36,33.28,3.660321832696937
0,-1810.22,-940.13,-3137.65,30.76,3.6653222723590915
0,-1815.94,-954.11,-3144.03,26.52,3.670322712021246
0,-1802.65,-945.87,-3134.54,36.32,3.6753231516834006
0,-1807.24,-950.32,-3140.46,34.24,3.680323591345548
0,-1807.79,-943.23,-3134.6,36.61,3.6853240310077027
0,-1805.81,-940.44,-3133.05,35.05,3.6903244706698572
0,-1809.8,-942.83,-3137.23,37.39,3.695324910332012
0,-1804.88,-948.74,-3133.54,44.22,3.7003253499941664
0,-1805.11,-940.75,-3135.01,41.52,3.705325789656321
0,-1806.14,-944.87,-3131.19,42.52,3.7103262293184756
0,-1801.99,-941.53,-3137.71,38.62,3.71532666898063
0,-1807.54,-942.16,-3135.41,36.13,3.7203271086427847
0,-1808.11,-947.18,-3129.53,35.62,3.7253275483049393
0,-1805.81,-939.08,-3132.46,39.47,3.730327987967094
0,-1805.36,-940.42,-3136.21,33.94,3.7353284276292484
0,-1807.17,-948.34,-3134.18,36.99,3.740328867291403
0,-1802.03,-940.74,-3132.73,32.34,3.7453293069535576
0,-1801.06,-944.67,-3135.98,38.1,3.750329746615712
0,-1804.25,-953.56,-3136.89,34.98,3.7553301862778667
0,-1805.29,-944.84,-3137.59,25.01,3.7603306259400213
0,-1801.55,-940.95,-3134.06,28.68,3.765331065602176
0,-1802.82,-940.81,-3140.46,28.94,3.7703315052643305
0,-1802.13,-942.38,-3139.32,28.2,3.775331944926485
0,-1808.91,-958.98,-3145.49,27.91,3.7803323845886396
0,-1816.38,-957.04,-3146.83,25.34,3.785332824250794
0,-1810.36,-959.17,-3142.39,30.06,3.790333263912949
0,-1809.62,-951.4,-3140.54,28.42,3.7953337035751034
0,-1808.6,-948.52,-3141.04,31.2,3.800334143237251
0,-1811.63,-944.73,-3141.46,30.87,3.8053345828994054
0,-1816.15,-948.64,-3134.66,39.26,3.81033502256156
0,-1813.32,-942.89,-3137.36,34.33,3.8153354622237146
0,-1797.58,-928.04,-3123.4,44.79,3.820335901885869
0,-1799.3,-939.23,-3126.83,48.31,3.8253363415480237
0,-1797.13,-947.57,-3129.28,45.55,3.8303367812101783
0,-1800.6,-939.48,-3135.2,39.84,3.835337220872333
0,-1810.77,-942.76,-3141.17,37.93,3.8403376605344874
0,-1810.26,-949.31,-3143.86,37.93,3.845338100196642
0,-1806.74,-946.77,-3140.71,36.55,3.8503385398587966
0,-1807.16,-950.84,-3132.79,36.25,3.855338979520951
0,-1801.63,-939.98,-3129.21,49.38,3.8603394191831057
0,-1806.2,-941.18,-3133.81,31.95,3.8653398588452603
0,-1802.14,-942.28,-3129.13,42.85,3.870340298507415
0,-1806.97,-948.93,-3136.76,39.34,3.8753407381695695
0,-1805.37,-949.14,-3133.22,37.5,3.880341177831724
0,-1808.93,-942.55,-3135.12,36.94,3.8853416174938786
0,-1809.6,-941.34,-3131.55,37.12,3.890342057156033
0,-1800.68,-940.02,-3128.91,41.21,3.895342496818188
0,-1803.28,-932.83,-3127.56,44.36,3.9003429364803424
0,-1806.97,-943.1,-3131.72,38.92,3.905343376142497
0,-1811.24,-950.86,-3138.2,32.56,3.9103438158046515
0,-1808.64,-939.95,-3136.47,34.9,3.915344255466806
0,-1808.3,-943.14,-3137.65,35.67,3.9203446951289536
0,-1805.15,-944.39,-3138.0,32.89,3.925345134791108
0,-1815.0,-943.78,-3139.8,36.52,3.9303455744532627
0,-1808.35,-951.07,-3141.59,31.73,3.9353460141154173
0,-1809.99,-952.29,-3143.57,32.97,3.940346453777572
0,-1809.21,-949.86,-3139.49,39.83,3.9453468934397264
0,-1802.21,-940.34,-3138.45,32.45,3.950347333101881
0,-1812.97,-941.86,-3136.93,37.22,3.9553477727640356
0,-1810.93,-953.41,-3137.64,29.94,3.96034821242619
0,-1811.54,-951.62,-3143.82,29.31,3.9653486520883447
0,-1807.26,-945.55,-3134.45,31.48,3.9703490917504993
0,-1810.41,-940.05,-3132.87,31.6,3.975349531412654
0,-1802.13,-928.94,-3129.43,31.49,3.9803499710748085
0,-1800.14,-924.63,-3125.45,37.65,3.985350410736963
0,-1796.07,-939.55,-3131.43,39.42,3.9903508503991176
0,-1808.23,-949.41,-3136.12,42.67,3.995351290061272
0,-1801.5,-945.34,-3131.65,40.2,4.000351729723427
0,-1809.69,-946.06,-3131.99,36.42,4.005352169385581
0,-1808.3,-940.34,-3132.3,38.79,4.010352609047736
0,-1800.55,-940.02,-3136.08,40.38,4.0153530487098905
0,-1798.66,-941.57,-3131.12,42.7,4.020353488372045
0,-1803.41,-940.81,-3134.49,46.13,4.0253539280342
0,-1807.4,-944.08,-3139.24,43.98,4.030354367696354
0,-1805.87,-940.4,-3135.38,40.41,4.035354807358509
0,-1811.67,-941.9,-3136.25,38.25,4.040355247020656
0,-1803.65,-931.36,-3132.07,41.31,4.045355686682811
0,-1804.05,-937.79,-3131.27,39.6,4.0503561263449654
0,-1800.52,-945.23,-3127.24,46.88,4.05535656600712
0,-1798.81,-942.46,-3127.59,38.8,4.060357005669275
0,-1808.4,-935.56,-3130.58,33.21,4.065357445331429
0,-1818.07,-949.17,-3143.85,26.91,4.070357884993584
0,-1819.92,-950.66,-3147.68,21.67,4.075358324655738
0,-1820.56,-952.26,-3150.54,20.49,4.080358764317893
0,-1814.1,-946.52,-3143.46,24.27,4.0853592039800475
0,-1809.85,-949.15,-3142.5,25.1,4.090359643642202
0,-1812.13,-953.25,-3138.41,30.37,4.095360083304357
0,-1809.23,-951.25,-3136.23,28.43,4.100360522966511
0,-1814.62,-948.45,-3140.01,31.96,4.105360962628666
0,-1807.05,-938.98,-3135.47,38.38,4.11036140229082
0,-1800.64,-945.76,-3137.71,38.18,4.115361841952975
0,-1804.23,-944.38,-3134.17,36.19,4.1203622816151295
0,-1801.27,-938.6,-3133.07,36.77,4.125362721277284
0,-1808.09,-948.18,-3139.22,39.08,4.130363160939439
0,-1809.89,-951.79,-3141.72,34.55,4.135363600601593
0,-1811.13,-955.67,-3146.33,24.48,4.140364040263748
0,-1812.63,-933.7,-3140.45,31.98,4.145364479925902
0,-1798.1,-939.27,-3126.75,42.65,4.150364919588057
0,-1803.63,-943.25,-3131.22,43.56,4.1553653592502116
0,-1800.19,-941.35,-3133.01,37.54,4.160365798912359
0,-1793.74,-934.2,-3127.38,38.87,4.165366238574514
0,-1796.43,-932.66,-3125.53,40.87,4.170366678236668
0,-1800.03,-931.72,-3123.65,49.01,4.175367117898823
0,-1795.04,-927.78,-3122.88,55.11,4.180367557560977
0,-1801.77,-950.84,-3129.45,34.3,4.185367997223132
0,-1796.02,-939.29,-3127.44,35.41,4.1903684368852865
0,-1797.51,-943.99,-3132.69,37.92,4.195368876547441
0,-1799.87,-945.63,-3130.8,40.21,4.200369316209596
0,-1809.23,-948.62,-3135.68,35.13,4.20536975587175
0,-1810.32,-946.82,-3136.58,38.51,4.210370195533905
0,-1813.57,-942.18,-3137.5,38.27,4.215370635196059
0,-1807.59,-948.41,-3136.15,41.64,4.220371074858214
0,-1814.92,-954.29,-3147.01,31.13,4.2253715145203685
0,-1812.78,-949.21,-3148.21,35.4,4.230371954182523
0,-1813.01,-955.92,-3147.08,30.58,4.235372393844678
0,-1816.54,-951.47,-3144.8,36.36,4.240372833506832
0,-1815.54,-940.76,-3138.75,36.51,4.245373273168987
0,-1805.33,-939.42,-3129.87,40.16,4.250373712831141
0,-1801.32,-939.32,-3134.96,36.33,4.255374152493296
0,-1803.74,-956.01,-3139.13,32.97,4.260374592155451
0,-1814.69,-958.11,-3145.57,27.82,4.265375031817605
0,-1805.93,-955.13,-3141.56,31.98,4.27037547147976
0,-1805.3,-946.64,-3136.33,32.61,4.275375911141914
0,-1802.38,-940.07,-3131.3,40.48,4.280376350804062
0,-1805.02,-948.42,-3131.01,33.32,4.285376790466216
0,-1801.99,-945.53,-3132.84,36.9,4.290377230128371
0,-1806.58,-943.46,-3134.81,36.48,4.2953776697905255
0,-1807.17,-941.9,-3134.86,37.0,4.30037810945268
0,-1806.52,-945.47,-3136.92,41.69,4.305378549114835
0,-1805.8,-942.79,-3130.18,44.96,4.310378988776989
0,-1804.07,-945.12,-3129.31,41.72,4.315379428439144
0,-1799.86,-937.55,-3124.39,43.27,4.320379868101298
0,-1797.52,-940.03,-3130.91,41.0,4.325380307763453
0,-1801.01,-936.18,-3131.38,40.1,4.3303807474256075
0,-1808.13,-946.26,-3133.33,35.36,4.335381187087762
0,-1805.92,-946.75,-3136.94,35.76,4.340381626749917
0,-1807.45,-943.7,-3130.88,37.14,4.345382066412071
0,-1802.67,-944.29,-3132.06,39.12,4.350382506074226
0,-1807.17,-949.82,-3137.46,31.19,4.35538294573638
0,-1812.38,-946.6,-3138.94,30.76,4.360383385398535
0,-1816.03,-943.03,-3139.08,28.96,4.36538382506069
0,-1810.55,-952.04,-3143.57,26.59,4.370384264722844
0,-1813.72,-950.87,-3147.82,24.03,4.375384704384999
0,-1807.82,-943.55,-3140.55,28.92,4.380385144047153
0,-1810.53,-950.69,-3142.73,25.79,4.385385583709308
0,-1815.29,-961.89,-3148.09,26.22,4.390386023371462
0,-1814.0,-963.94,-3153.55,26.81,4.395386463033617
0,-1815.57,-959.78,-3149.55,25.22,4.4003869026957645
0,-1807.56,-945.64,-3142.56,32.44,4.405387342357919
0,-1804.15,-952.96,-3139.48,30.47,4.410387782020074
0,-1810.95,-946.64,-3141.48,35.54,4.415388221682228
0,-1810.19,-950.74,-3139.41,33.87,4.420388661344383
0,-1812.16,-945.36,-3138.14,39.19,4.425389101006537
0,-1817.52,-947.12,-3141.4,31.91,4.430389540668692
0,-1814.67,-946.74,-3141.27,32.66,4.4353899803308465
0,-1815.29,-937.81,-3137.54,33.77,4.440390419993001
0,-1801.93,-929.43,-3126.46,38.42,4.445390859655156
0,-1806.73,-946.33,-3134.8,31.07,4.45039129931731
0,-1810.52,-955.42,-3146.04,31.73,4.455391738979465
0,-1809.59,-948.95,-3138.36,36.94,4.460392178641619
0,-1811.76,-951.3,-3137.92,36.65,4.465392618303774
0,-1815.06,-952.02,-3140.88,26.7,4.470393057965929
0,-1813.76,-952.38,-3143.48,22.89,4.475393497628083
0,-1814.57,-954.26,-3141.83,28.7,4.480393937290238
0,-1803.54,-945.59,-3135.41,38.02,4.485394376952392
0,-1800.71,-947.38,-3131.75,39.19,4.490394816614547
0,-1799.15,-944.62,-3131.04,33.2,4.4953952562767014
0,-1791.48,-925.83,-3122.29,43.85,4.500395695938856
0,-1796.37,-940.92,-3130.12,43.36,4.505396135601011
0,-1801.95,-942.07,-3131.77,40.31,4.510396575263165
0,-1803.55,-940.11,-3130.72,31.84,4.51539701492532
0,-1802.3,-942.77,-3129.62,41.63,4.520397454587474
0,-1800.35,-941.32,-3129.06,38.91,4.525397894249622
0,-1800.4,-945.16,-3129.67,37.77,4.530398333911776
0,-1793.26,-939.89,-3129.73,37.06,4.535398773573931
0,-1799.65,-940.41,-3130.22,43.35,4.5403992132360855
0,-1803.47,-935.96,-3125.68,48.92,4.54539965289824
0,-1802.04,-931.26,-3125.84,47.94,4.550400092560395
0,-1802.13,-937.43,-3129.85,41.22,4.555400532222549
0,-1803.98,-935.38,-3126.19,43.9,4.560400971884704
0,-1799.38,-930.02,-3125.92,50.34,4.565401411546858
0,-1799.77,-938.6,-3130.1,48.59,4.570401851209013
0,-1796.33,-937.24,-3125.63,48.55,4.575402290871168
0,-1808.93,-937.8,-3133.79,49.11,4.580402730533322
0,-1815.32,-943.23,-3137.64,37.69,4.585403170195477
0,-1803.25,-934.87,-3134.54,45.42,4.590403609857631
0,-1804.31,-942.13,-3131.36,49.41,4.595404049519786
0,-1807.79,-947.22,-3129.37,49.2,4.6004044891819404
0,-1804.58,-951.48,-3140.16,31.07,4.605404928844095
0,-1805.33,-951.56,-3143.68,31.04,4.61040536850625
0,-1803.28,-945.43,-3137.72,33.64,4.615405808168404
0,-1799.58,-942.35,-3134.47,30.01,4.620406247830559
0,-1803.1,-943.79,-3138.33,31.3,4.625406687492713
0,-1808.24,-946.61,-3140.51,26.08,4.630407127154868
0,-1805.47,-955.16,-3140.45,26.43,4.6354075668170225
0,-1810.06,-954.27,-3142.18,21.56,4.640408006479177
0,-1803.41,-944.69,-3140.84,25.15,4.6454084461413245
0,-1807.84,-945.64,-3140.74,30.67,4.650408885803479
0,-1804.22,-937.69,-3131.41,34.1,4.655409325465634
0,-1809.51,-955.62,-3137.97,25.1,4.660409765127788
0,-1803.02,-954.36,-3139.64,35.66,4.665410204789943
0,-1800.25,-948.79,-3139.17,37.37,4.670410644452097
0,-1803.43,-941.36,-3131.99,46.15,4.675411084114252
0,-1804.03,-946.16,-3130.91,38.41,4.680411523776407
0,-1797.03,-940.3,-3127.57,40.4,4.685411963438561
0,-1801.54,-934.6,-3128.35,42.18,4.690412403100716
0,-1804.19,-944.64,-3130.75,34.95,4.69541284276287
0,-1802.59,-943.08,-3133.25,36.37,4.700413282425025
0,-1814.3,-939.46,-3137.96,35.86,4.7054137220871795
0,-1809.29,-936.09,-3133.99,34.41,4.710414161749334
0,-1802.52,-933.66,-3125.98,39.35,4.715414601411489
0,-1802.71,-940.86,-3130.05,41.0,4.720415041073643
0,-1806.29,-934.08,-3129.28,43.66,4.725415480735798
0,-1810.26,-944.58,-3136.32,42.38,4.730415920397952
0,-1808.89,-948.33,-3140.66,36.63,4.735416360060107
0,-1804.86,-951.97,-3140.36,31.1,4.7404167997222615
0,-1808.45,-952.75,-3141.75,28.0,4.745417239384416
0,-1807.89,-955.54,-3146.92,24.52,4.750417679046571
0,-1806.98,-952.7,-3147.94,29.3,4.755418118708725
0,-1815.29,-958.81,-3146.39,28.67,4.76041855837088
0,-1815.6,-951.6,-3147.45,29.83,4.765418998033027
0,-1815.8,-955.79,-3147.71,30.42,4.770419437695182
0,-1808.07,-948.77,-3144.16,31.56,4.775419877357336
0,-1810.48,-952.73,-3145.68,33.44,4.780420317019491
0,-1812.23,-944.94,-3140.09,37.06,4.785420756681646
0,-1819.37,-949.47,-3141.94,33.49,4.7904211963438
0,-1811.45,-953.01,-3146.1,29.78,4.795421636005955
0,-1812.74,-948.26,-3140.09,27.99,4.800422075668109
0,-1811.11,-946.05,-3140.04,29.17,4.805422515330264
0,-1818.49,-951.61,-3143.16,23.74,4.8104229549924185
0,-1814.58,-945.72,-3143.8,24.93,4.815423394654573
0,-1805.98,-941.03,-3132.67,33.89,4.820423834316728
0,-1811.17,-940.89,-3141.07,28.8,4.825424273978882
0,-1807.42,-951.59,-3140.61,31.0,4.830424713641037
0,-1808.04,-952.71,-3139.73,32.14,4.835425153303191
0,-1811.84,-959.75,-3141.23,32.71,4.840425592965346
0,-1811.38,-956.8,-3137.18,41.89,4.8454260326275005
0,-1803.73,-946.42,-3134.44,36.99,4.850426472289655
0,-1804.62,-950.13,-3136.42,35.12,4.85542691195181
0,-1804.62,-953.21,-3141.19,32.77,4.860427351613964
0,-1809.85,-944.01,-3141.75,32.2,4.865427791276119
0,-1805.22,-945.78,-3141.53,35.14,4.870428230938273
0,-1803.62,-945.5,-3141.79,35.93,4.875428670600428
0,-1805.58,-945.66,-3139.35,34.68,4.8804291102625825
0,-1807.44,-943.73,-3141.22,35.34,4.88542954992473
0,-1814.33,-947.47,-3141.71,34.06,4.890429989586885
0,-1815.06,-956.11,-3147.18,27.87,4.895430429249039
0,-1809.23,-946.6,-3144.98,28.56,4.900430868911194
0,-1808.9,-944.16,-3138.13,38.51,4.905431308573348
0,-1811.88,-940.23,-3132.98,39.19,4.910431748235503
0,-1810.73,-943.92,-3138.55,36.52,4.9154321878976575
0,-1809.07,-943.48,-3133.24,39.82,4.920432627559812
0,-1813.56,-948.84,-3137.52,36.46,4.925433067221967
0,-1814.49,-945.61,-3137.21,35.89,4.930433506884121
0,-1809.34,-952.26,-3136.75,39.87,4.935433946546276
0,-1802.17,-940.25,-3130.67,44.48,4.94043438620843
0,-1805.18,-948.57,-3137.16,36.46,4.945434825870585
0,-1802.62,-952.05,-3135.6,32.93,4.9504352655327395
0,-1798.44,-950.08,-3134.4,37.1,4.955435705194894
0,-1800.41,-942.07,-3125.49,45.89,4.960436144857049
0,-1792.44,-936.76,-3125.72,48.46,4.965436584519203
0,-1798.12,-940.56,-3127.05,44.19,4.970437024181358
0,-1797.96,-943.21,-3131.73,38.53,4.975437463843512
0,-1798.39,-938.54,-3131.03,44.15,4.980437903505667
0,-1800.33,-940.59,-3132.41,40.39,4.9854383431678215
0,-1799.66,-936.96,-3130.7,34.26,4.990438782829976
0,-1808.97,-940.35,-3133.76,35.83,4.995439222492131
0,-1804.38,-940.52,-3133.57,43.38,5.000439662154285
0,-1807.71,-939.0,-3125.81,40.99,5.005440101816433
0,-1802.99,-929.43,-3120.78,40.67,5.010440541478587
0,-1801.72,-939.4,-3131.57,35.78,5.015440981140742
0,-1800.14,-942.93,-3132.66,38.72,5.0204414208028965
0,-1805.72,-940.98,-3132.87,38.58,5.025441860465051
0,-1807.58,-941.32,-3134.93,39.35,5.030442300127206
0,-1807.82,-940.46,-3132.84,38.05,5.03544273978936
0,-1810.71,-947.42,-3139.19,33.17,5.040443179451515
0,-1812.08,-947.22,-3136.96,32.87,5.045443619113669
0,-1802.12,-937.18,-3129.15,40.34,5.050444058775824
0,-1801.83,-934.12,-3125.46,45.2,5.0554444984379785
0,-1801.58,-946.02,-3134.78,37.43,5.060444938100133
0,-1805.79,-955.47,-3138.82,35.74,5.065445377762288
0,-1812.31,-951.31,-3145.08,25.64,5.070445817424442
0,-1812.94,-953.5,-3142.49,32.54,5.075446257086597
0,-1818.99,-957.54,-3146.95,23.88,5.080446696748751
0,-1807.3,-951.24,-3143.77,28.5,5.085447136410906
0,-1810.93,-949.46,-3141.74,25.67,5.0904475760730605
0,-1811.59,-945.94,-3137.75,24.62,5.095448015735215
0,-1798.9,-943.35,-3133.55,34.73,5.10044845539737
0,-1810.2,-951.02,-3144.65,30.64,5.105448895059524
0,-1804.54,-938.54,-3139.24,30.66,5.110449334721679
0,-1802.76,-938.15,-3137.96,35.46,5.115449774383833
0,-1808.96,-943.95,-3138.11,37.56,5.120450214045988
0,-1813.6,-947.43,-3139.97,37.43,5.1254506537081355
0,-1815.56,-944.22,-3139.91,39.19,5.13045109337029
0,-1811.45,-949.33,-3142.19,32.99,5.135451533032445
0,-1808.54,-934.48,-3132.3,35.6,5.140451972694599
0,-1802.0,-934.13,-3127.74,41.9,5.145452412356754
0,-1804.29,-936.5,-3130.41,41.89,5.150452852018908
0,-1801.7,-947.25,-3132.7,47.56,5.155453291681063
0,-1803.91,-947.33,-3133.23,41.71,5.1604537313432175
0,-1803.93,-939.83,-3136.63,38.14,5.165454171005372
0,-1804.64,-939.56,-3141.66,36.4,5.170454610667527
0,-1807.12,-946.15,-3134.76,40.31,5.175455050329681
0,-1805.22,-942.77,-3129.18,38.83,5.180455489991836
0,-1804.28,-946.7,-3129.33,37.82,5.18545592965399
0,-1798.09,-949.73,-3130.51,35.89,5.190456369316145
0,-1800.61,-946.03,-3131.15,36.2,5.1954568089782995
0,-1798.78,-932.01,-3124.99,38.27,5.200457248640454
0,-1798.68,-932.89,-3123.9,40.06,5.205457688302609
0,-1806.44,-945.98,-3132.61,37.62,5.210458127964763
0,-1797.76,-945.46,-3135.84,37.05,5.215458567626918
0,-1805.58,-937.86,-3138.31,33.87,5.220459007289072
0,-1811.5,-951.6,-3139.77,30.28,5.225459446951227
0,-1813.74,-951.28,-3145.62,25.86,5.230459886613382
0,-1810.88,-949.76,-3143.97,26.27,5.235460326275536
0,-1809.9,-953.03,-3139.58,29.63,5.240460765937691
0,-1810.2,-953.15,-3140.09,32.39,5.245461205599845
0,-1805.75,-948.12,-3140.81,32.37,5.250461645261993
0,-1803.33,-944.29,-3131.0,32.96,5.255462084924147
0,-1809.08,-943.23,-3133.5,32.08,5.260462524586302
0,-1816.01,-950.15,-3140.38,30.85,5.2654629642484565
0,-1815.6,-954.85,-3147.68,30.63,5.270463403910611
0,-1810.89,-945.51,-3145.33,27.39,5.275463843572766
0,-1807.58,-942.87,-3136.37,30.0,5.28046428323492
0,-1803.74,-942.27,-3131.44,38.2,5.285464722897075
0,-1802.13,-946.68,-3127.66,44.34,5.290465162559229
0,-1817.65,-954.36,-3141.88,29.75,5.295465602221384
0,-1813.83,-950.53,-3144.37,28.97,5.3004660418835385
0,-1811.12,-947.03,-3141.15,32.68,5.305466481545693
0,-1807.57,-946.96,-3139.8,30.66,5.310466921207848
0,-1814.48,-949.13,-3145.13,22.69,5.315467360870002
0,-1810.89,-949.99,-3141.0,22.72,5.320467800532157
0,-1813.5,-949.58,-3146.73,21.51,5.325468240194311
0,-1808.12,-946.77,-3141.14,22.65,5.330468679856466
0,-1803.9,-942.55,-3132.88,27.62,5.335469119518621
0,-1803.13,-940.41,-3132.72,30.53,5.340469559180775
0,-1804.3,-949.32,-3139.99,31.99,5.34546999884293
0,-1809.74,-944.38,-3137.92,33.21,5.350470438505084
0,-1808.96,-950.89,-3134.01,36.42,5.355470878167239
0,-1811.87,-954.42,-3142.73,29.65,5.3604713178293935
0,-1808.1,-955.51,-3144.63,34.75,5.365471757491548
0,-1807.04,-949.22,-3135.47,35.86,5.3704721971536955
0,-1809.37,-938.16,-3132.28,33.61,5.37547263681585
0,-1806.43,-940.61,-3135.7,35.08,5.380473076478005
0,-1800.27,-942.85,-3133.36,38.15,5.385473516140159
0,-1806.53,-952.77,-3136.69,32.83,5.390473955802314
0,-1800.57,-945.68,-3134.06,36.49,5.395474395464468
0,-1806.83,-949.49,-3137.23,38.72,5.400474835126623
0,-1801.43,-940.99,-3129.05,46.25,5.4054752747887775
0,-1804.93,-940.45,-3129.64,48.16,5.410475714450932
0,-1799.85,-943.16,-3128.0,43.87,5.415476154113087
0,-1805.0,-950.05,-3133.6,42.83,5.420476593775241
0,-1808.63,-948.44,-3139.64,39.86,5.425477033437396
0,-1800.74,-934.71,-3128.69,47.52,5.43047747309955
0,-1801.38,-935.55,-3129.91,41.07,5.435477912761705
0,-1807.35,-938.66,-3134.88,36.81,5.44047835242386
0,-1810.18,-941.81,-3135.22,33.8,5.445478792086014
0,-1815.56,-950.46,-3142.19,29.55,5.450479231748169
0,-1811.68,-946.92,-3142.04,29.73,5.455479671410323
0,-1812.39,-944.98,-3140.83,31.16,5.460480111072478
0,-1807.36,-944.99,-3143.86,32.02,5.4654805507346325
0,-1806.04,-947.24,-3138.72,31.26,5.470480990396787
0,-1803.51,-952.22,-3142.17,33.49,5.475481430058942
0,-1808.23,-945.73,-3136.24,33.62,5.480481869721096
0,-1803.54,-941.44,-3140.4,29.92,5.485482309383251
0,-1803.2,-942.2,-3135.14,37.14,5.490482749045398
0,-1806.26,-950.41,-3139.41,28.82,5.495483188707553
0,-1804.5,-946.53,-3133.28,33.71,5.500483628369707
0,-1804.73,-949.68,-3130.29,38.32,5.505484068031862
0,-1803.21,-941.64,-3131.02,42.87,5.5104845076940165
0,-1804.92,-946.14,-3137.74,36.66,5.515484947356171
0,-1808.1,-950.48,-3145.82,28.23,5.520485387018326
0,-1805.04,-947.55,-3136.02,27.83,5.52548582668048
0,-1802.85,-941.1,-3134.14,32.23,5.530486266342635
0,-1810.36,-949.57,-3139.13,26.84,5.535486706004789
0,-1809.3,-939.07,-3136.67,34.09,5.540487145666944
0,-1801.35,-944.22,-3131.36,33.3,5.545487585329099
0,-1810.54,-947.31,-3139.81,31.23,5.550488024991253
0,-1809.73,-946.01,-3142.94,27.78,5.555488464653408
0,-1806.19,-952.46,-3141.87,28.95,5.560488904315562
0,-1811.58,-951.83,-3141.74,27.18,5.565489343977717
0,-1817.69,-956.93,-3147.69,25.79,5.5704897836398715
0,-1817.47,-952.38,-3145.49,27.07,5.575490223302026
0,-1821.22,-950.91,-3148.41,26.28,5.580490662964181
0,-1808.01,-939.83,-3136.59,31.58,5.585491102626335
0,-1803.35,-944.28,-3133.89,36.03,5.59049154228849
0,-1805.86,-945.16,-3136.78,41.84,5.595491981950644
0,-1808.81,-944.58,-3135.5,43.26,5.600492421612799
0,-1808.53,-942.06,-3133.01,44.7,5.6054928612749535
0,-1806.71,-951.65,-3137.93,48.89,5.610493300937101
0,-1803.72,-947.54,-3137.71,40.82,5.6154937405992555
0,-1811.79,-947.52,-3139.26,25.4,5.62049418026141
0,-1807.67,-944.7,-3138.97,34.7,5.625494619923565
0,-1804.25,-944.35,-3136.05,39.99,5.630495059585719
0,-1807.66,-940.15,-3133.87,35.95,5.635495499247874
0,-1805.8,-939.02,-3126.11,39.42,5.640495938910028
0,-1802.7,-937.17,-3128.28,43.87,5.645496378572183
0,-1804.68,-938.12,-3132.2,41.57,5.650496818234338
0,-1805.67,-947.96,-3137.26,38.48,5.655497257896492
0,-1809.9,-948.97,-3136.2,36.45,5.660497697558647
0,-1807.22,-941.85,-3141.05,37.58,5.665498137220801
0,-1809.35,-944.2,-3144.24,32.4,5.670498576882956
0,-1808.7,-945.49,-3141.58,31.97,5.6754990165451105
0,-1811.12,-947.98,-3137.66,31.36,5.680499456207265
0,-1807.44,-941.22,-3137.41,33.48,5.68549989586942
0,-1802.78,-941.5,-3129.18,49.12,5.690500335531574
0,-1807.7,-940.65,-3133.27,41.74,5.695500775193729
0,-1806.77,-936.21,-3135.27,37.58,5.700501214855883
0,-1806.38,-946.06,-3139.75,40.78,5.705501654518038
0,-1809.72,-947.29,-3141.5,32.03,5.7105020941801925
0,-1801.33,-949.02,-3143.1,33.2,5.715502533842347
0,-1810.39,-948.75,-3142.39,33.16,5.720502973504502
0,-1819.32,-959.38,-3152.31,24.63,5.725503413166656
0,-1816.57,-961.67,-3140.11,32.02,5.730503852828804
0,-1816.11,-946.2,-3138.96,37.78,5.735504292490958
0,-1810.76,-946.0,-3137.52,35.21,5.740504732153113
0,-1808.51,-938.48,-3132.24,35.7,5.745505171815267
0,-1809.65,-938.53,-3136.84,35.45,5.750505611477422
0,-1796.83,-933.81,-3122.95,42.89,5.755506051139577
0,-1802.7,-938.92,-3128.64,40.56,5.760506490801731
0,-1806.35,-939.43,-3135.65,42.27,5.765506930463886
0,-1802.53,-934.73,-3132.49,39.22,5.77050737012604
0,-1800.95,-942.23,-3131.82,42.99,5.775507809788195
0,-1804.28,-946.5,-3132.01,31.08,5.7805082494503495
0,-1800.28,-937.59,-3133.84,38.94,5.785508689112504
0,-1808.43,-941.56,-3132.02,35.96,5.790509128774659
0,-1809.31,-939.58,-3133.54,32.88,5.795509568436813
0,-1811.25,-945.93,-3135.37,37.58,5.800510008098968
0,-1806.51,-945.96,-3138.95,31.78,5.805510447761122
0,-1796.49,-931.06,-3125.7,39.86,5.810510887423277
0,-1806.12,-946.39,-3140.58,29.71,5.8155113270854315
0,-1812.62,-948.99,-3142.88,25.79,5.820511766747586
0,-1805.72,-949.09,-3139.76,35.16,5.825512206409741
0,-1806.3,-952.67,-3136.91,37.94,5.830512646071895
0,-1818.69,-957.72,-3154.15,20.11,5.83551308573405
0,-1815.03,-964.0,-3151.77,17.29,5.840513525396204
0,-1807.92,-951.63,-3138.7,30.63,5.845513965058359
0,-1808.73,-943.69,-3137.74,32.51,5.850514404720506
0,-1812.25,-957.38,-3142.54,33.95,5.855514844382661
0,-1813.03,-948.92,-3139.11,39.38,5.860515284044816
0,-1803.81,-940.71,-3134.04,44.29,5.86551572370697
0,-1799.88,-941.7,-3127.79,50.69,5.870516163369125
0,-1794.83,-934.18,-3125.86,53.15,5.875516603031279
0,-1798.82,-930.18,-3123.35,53.54,5.880517042693434
0,-1799.07,-932.77,-3126.99,48.35,5.8855174823555885
0,-1797.62,-931.58,-3120.45,48.45,5.890517922017743
0,-1803.55,-936.59,-3123.94,45.58,5.895518361679898
0,-1812.3,-945.32,-3133.8,39.16,5.900518801342052
0,-1804.77,-946.03,-3138.89,41.95,5.905519241004207
0,-1819.53,-951.03,-3141.79,38.15,5.910519680666361
0,-1807.18,-951.25,-3140.52,38.3,5.915520120328516
0,-1808.61,-937.36,-3136.45,37.96,5.9205205599906705
0,-1811.12,-937.94,-3141.16,31.58,5.925520999652825
0,-1809.4,-946.54,-3138.53,31.4,5.93052143931498
0,-1800.42,-939.52,-3128.45,34.95,5.935521878977134
0,-1807.79,-939.39,-3130.64,34.18,5.940522318639289
0,-1813.81,-951.59,-3139.03,31.98,5.945522758301443
0,-1816.58,-950.94,-3145.17,27.63,5.950523197963598
0,-1804.94,-948.48,-3138.0,37.3,5.9555236376257525
0,-1807.31,-947.19,-3135.22,40.66,5.960524077287907
0,-1804.87,-943.12,-3135.24,25.88,5.965524516950062
0,-1807.61,-946.87,-3138.94,31.73,5.970524956612209
0,-1810.66,-949.44,-3140.23,32.77,5.975525396274364
0,-1809.06,-946.74,-3136.54,31.89,5.980525835936518
0,-1817.35,-961.59,-3149.26,27.39,5.985526275598673
0,-1818.12,-962.11,-3153.81,24.7,5.9905267152608275
0,-1815.85,-957.59,-3146.82,28.68,5.995527154922982
0,-1815.17,-957.96,-3147.62,28.86,6.000527594585137
0,-1813.59,-950.89,-3147.36,25.06,6.005528034247291
0,-1809.84,-956.57,-3141.48,29.52,6.010528473909446
0,-1808.05,-949.35,-3138.86,38.23,6.0155289135716
0,-1801.82,-943.13,-3134.92,41.69,6.020529353233755
0,-1815.44,-957.73,-3150.57,19.59,6.0255297928959095
0,-1812.78,-954.23,-3147.11,20.39,6.030530232558064
0,-1805.27,-946.43,-3137.92,33.96,6.035530672220219
0,-1799.07,-937.53,-3129.68,42.4,6.040531111882373
0,-1794.81,-931.55,-3123.3,40.81,6.045531551544528
0,-1796.04,-934.61,-3125.46,41.0,6.050531991206682
0,-1807.56,-942.6,-3134.56,33.84,6.055532430868837
0,-1808.14,-943.34,-3136.3,32.12,6.0605328705309915
0,-1805.69,-948.1,-3134.11,34.21,6.065533310193146
0,-1806.9,-945.39,-3138.68,30.94,6.070533749855301
0,-1809.63,-951.01,-3144.94,28.48,6.075534189517455
0,-1812.71,-949.25,-3146.72,31.51,6.08053462917961
0,-1820.92,-962.02,-3149.74,29.2,6.085535068841764
0,-1814.23,-947.66,-3141.68,30.34,6.090535508503919
0,-1815.27,-949.47,-3145.76,21.01,6.0955359481660665
0,-1815.02,-958.61,-3149.59,19.43,6.100536387828221
0,-1816.29,-962.79,-3143.69,24.32,6.105536827490376
0,-1818.84,-953.89,-3146.19,23.68,6.11053726715253
0,-1812.01,-945.76,-3144.94,24.37,6.115537706814685
0,-1812.54,-953.19,-3146.65,22.91,6.120538146476839
0,-1804.65,-944.81,-3136.21,34.13,6.125538586138994
0,-1808.44,-953.79,-3139.69,25.77,6.1305390258011485
0,-1814.85,-950.74,-3142.67,31.9,6.135539465463303
0,-1808.2,-945.42,-3141.73,33.53,6.140539905125458
0,-1808.82,-948.6,-3138.34,36.27,6.145540344787612
0,-1814.01,-957.77,-3144.17,32.0,6.150540784449767
0,-1806.53,-945.99,-3140.46,38.5,6.155541224111921
0,-1812.14,-943.76,-3139.07,38.47,6.160541663774076
0,-1807.6,-946.38,-3137.22,37.16,6.1655421034362305
0,-1803.82,-947.73,-3135.78,36.01,6.170542543098385
0,-1809.68,-946.72,-3142.51,37.3,6.17554298276054
0,-1813.56,-952.08,-3142.91,31.77,6.180543422422694
0,-1809.19,-948.1,-3140.07,31.59,6.185543862084849
0,-1810.06,-946.04,-3140.48,31.78,6.190544301747003
0,-1808.68,-945.43,-3136.28,32.97,6.195544741409158
0,-1803.69,-940.57,-3130.77,40.33,6.200545181071313
0,-1810.76,-944.47,-3137.11,36.82,6.205545620733467
0,-1809.01,-941.13,-3130.32,36.43,6.210546060395622
0,-1801.72,-937.43,-3128.42,41.48,6.215546500057769
0,-1803.04,-941.15,-3130.2,42.97,6.220546939719924
0,-1803.24,-940.35,-3127.06,40.94,6.225547379382078
0,-1798.34,-935.15,-3123.1,45.97,6.230547819044233
0,-1802.15,-933.74,-3123.15,47.14,6.2355482587063875
0,-1794.48,-933.99,-3122.88,46.14,6.240548698368542
0,-1796.52,-946.9,-3126.57,40.24,6.245549138030697
0,-1804.25,-945.78,-3134.18,36.01,6.250549577692851
0,-1800.62,-942.71,-3131.22,38.78,6.255550017355006
0,-1796.13,-937.74,-3125.55,43.15,6.26055045701716
0,-1799.77,-937.09,-3129.63,41.74,6.265550896679315
0,-1798.14,-941.48,-3126.33,41.04,6.2705513363414696
0,-1805.1,-944.75,-3134.33,29.52,6.275551776003624
0,-1802.72,-937.62,-3133.23,33.92,6.280552215665779
0,-1807.91,-940.08,-3138.67,31.8,6.285552655327933
0,-1811.07,-940.15,-3133.88,37.39,6.290553094990088
0,-1808.48,-947.64,-3134.47,37.25,6.295553534652242
0,-1801.1,-944.11,-3130.36,43.93,6.300553974314397
0,-1804.08,-939.63,-3131.33,40.97,6.305554413976552
0,-1805.36,-940.43,-3133.13,37.68,6.310554853638706
0,-1803.71,-941.01,-3134.7,35.4,6.315555293300861
0,-1797.51,-941.77,-3132.87,36.38,6.320555732963015
0,-1807.56,-939.78,-3136.15,38.24,6.32555617262517
0,-1810.46,-940.85,-3139.76,37.93,6.3305566122873245
0,-1805.26,-943.79,-3134.92,41.77,6.335557051949472
0,-1806.57,-948.69,-3133.66,46.51,6.3405574916116265
0,-1807.5,-944.79,-3136.76,34.8,6.345557931273781
0,-1802.39,-941.66,-3134.94,37.82,6.350558370935936
0,-1801.33,-944.37,-3133.28,36.92,6.35555881059809
0,-1809.68,-951.43,-3135.35,34.38,6.360559250260245
0,-1812.49,-943.68,-3142.08,33.38,6.365559689922399
0,-1817.37,-955.83,-3151.23,23.25,6.370560129584554
0,-1812.6,-950.95,-3144.69,24.4,6.3755605692467086
0,-1808.83,-947.23,-3139.0,32.74,6.380561008908863
0,-1810.68,-958.1,-3144.5,23.69,6.385561448571018
0,-1822.18,-953.76,-3149.6,27.06,6.390561888233172
0,-1815.53,-947.39,-3145.41,31.53,6.395562327895327
0,-1811.44,-951.68,-3140.12,34.01,6.400562767557481
0,-1812.33,-954.39,-3144.41,32.34,6.405563207219636
0,-1808.18,-935.35,-3135.16,41.13,6.410563646881791
0,-1801.92,-934.05,-3131.48,42.78,6.415564086543945
0,-1807.16,-933.28,-3130.03,44.28,6.4205645262061
0,-1801.81,-940.64,-3129.5,45.22,6.425564965868254
0,-1797.0,-943.98,-3126.92,50.48,6.430565405530409
0,-1798.62,-940.25,-3131.71,49.13,6.4355658451925635
0,-1804.17,-943.5,-3133.23,42.84,6.440566284854718
0,-1805.34,-942.1,-3132.3,41.3,6.445566724516873
0,-1803.46,-941.4,-3136.83,42.99,6.450567164179027
0,-1807.68,-937.37,-3132.98,46.38,6.455567603841175
0,-1805.72,-937.85,-3131.78,48.99,6.460568043503329
0,-1802.79,-942.18,-3128.33,43.89,6.465568483165484
0,-1806.13,-942.19,-3132.77,32.76,6.470568922827638
0,-1800.17,-944.44,-3133.26,36.13,6.475569362489793
0,-1809.36,-943.5,-3137.43,37.68,6.480569802151948
0,-1798.94,-937.1,-3130.55,37.76,6.485570241814102
0,-1803.3,-935.05,-3126.49,34.98,6.490570681476257
0,-1791.82,-931.99,-3120.55,42.3,6.495571121138411
0,-1795.33,-934.51,-3121.13,44.24,6.500571560800566
0,-1798.89,-934.43,-3130.42,34.37,6.50557200046272
0,-1815.63,-945.84,-3140.08,31.99,6.510572440124875
0,-1815.82,-952.0,-3141.55,29.41,6.51557287978703
0,-1815.55,-954.96,-3144.08,28.16,6.520573319449184
0,-1812.02,-949.69,-3134.93,33.05,6.525573759111339
0,-1799.91,-948.02,-3138.56,35.28,6.530574198773493
0,-1801.51,-943.85,-3132.5,39.47,6.535574638435648
0,-1809.17,-941.26,-3138.07,36.65,6.5405750780978025
0,-1804.12,-945.39,-3134.28,36.8,6.545575517759957
0,-1810.15,-948.15,-3138.38,32.33,6.550575957422112
0,-1807.55,-945.45,-3137.72,33.34,6.555576397084266
0,-1803.39,-933.9,-3138.44,37.36,6.560576836746421
0,-1810.47,-946.57,-3136.45,34.7,6.565577276408575
0,-1807.72,-945.84,-3136.76,41.33,6.57057771607073
0,-1805.25,-950.09,-3140.07,37.2,6.575578155732877
0,-1801.38,-935.15,-3126.28,41.05,6.580578595395032
0,-1804.75,-942.97,-3130.33,37.71,6.585579035057187
0,-1807.24,-945.72,-3141.33,32.96,6.590579474719341
0,-1810.58,-948.42,-3145.45,30.4,6.595579914381496
0,-1813.58,-965.79,-3150.68,20.78,6.60058035404365
0,-1809.23,-954.16,-3142.78,27.61,6.605580793705805
0,-1808.98,-933.06,-3133.7,26.99,6.610581233367959
0,-1803.6,-935.09,-3132.34,36.6,6.615581673030114
0,-1806.49,-942.4,-3130.5,33.73,6.620582112692269
0,-1798.65,-938.28,-3123.46,44.68,6.625582552354423
0,-1801.25,-955.13,-3136.63,41.62,6.630582992016578
0,-1806.1,-952.82,-3149.17,17.0,6.635583431678732
0,-1811.18,-948.71,-3144.72,27.72,6.640583871340887
0,-1813.12,-953.01,-3143.29,26.78,6.6455843110030415
0,-1809.57,-948.47,-3138.8,30.94,6.650584750665196
0,-1803.09,-949.21,-3139.54,27.66,6.655585190327351
0,-1803.7,-939.41,-3134.75,31.34,6.660585629989505
0,-1807.18,-947.97,-3134.26,30.21,6.66558606965166
0,-1810.04,-945.8,-3141.88,29.75,6.670586509313814
0,-1805.51,-949.52,-3142.28,27.72,6.675586948975969
0,-1809.96,-949.2,-3144.93,21.24,6.6805873886381235
0,-1813.33,-950.38,-3144.12,21.02,6.685587828300278
0,-1804.92,-940.45,-3138.92,28.79,6.690588267962433
0,-1800.39,-938.8,-3132.53,36.06,6.69558870762458
0,-1810.18,-946.77,-3137.3,34.96,6.700589147286735
0,-1808.55,-953.88,-3138.23,34.87,6.705589586948889
0,-1807.38,-950.92,-3140.41,36.41,6.710590026611044
0,-1808.26,-947.52,-3144.76,30.1,6.7155904662731984
0,-1801.43,-947.5,-3140.39,35.54,6.720590905935353
0,-1809.42,-944.13,-3136.26,35.69,6.725591345597508
0,-1812.37,-948.44,-3141.23,32.55,6.730591785259662
0,-1809.82,-944.31,-3139.34,33.48,6.735592224921817
0,-1814.85,-948.3,-3138.1,36.55,6.740592664583971
0,-1809.92,-947.21,-3131.58,40.02,6.745593104246126
0,-1814.75,-949.54,-3148.15,31.5,6.7505935439082805
0,-1809.09,-952.63,-3142.94,34.64,6.755593983570435
0,-1809.42,-950.6,-3140.09,40.38,6.76059442323259
0,-1802.8,-947.89,-3135.03,45.62,6.765594862894744
0,-1808.88,-950.09,-3142.21,37.61,6.770595302556899
0,-1814.18,-947.52,-3140.38,36.77,6.775595742219053
0,-1819.58,-950.59,-3143.42,35.64,6.780596181881208
0,-1812.98,-942.97,-3135.83,40.99,6.7855966215433625
0,-1815.17,-948.51,-3134.68,37.43,6.790597061205517
0,-1812.15,-940.09,-3138.17,38.38,6.795597500867672
0,-1808.77,-943.48,-3133.74,37.59,6.800597940529826
0,-1799.59,-938.63,-3122.21,44.9,6.805598380191981
0,-1805.29,-934.65,-3126.46,38.61,6.810598819854135
0,-1796.04,-938.08,-3126.03,44.44,6.81559925951629
0,-1796.25,-936.5,-3128.12,38.67,6.8205996991784374
0,-1800.1,-937.33,-3129.16,41.47,6.825600138840592
0,-1801.7,-930.6,-3130.69,44.84,6.830600578502747
0,-1809.53,-944.15,-3140.41,35.33,6.835601018164901
0,-1804.21,-944.01,-3135.82,36.73,6.840601457827056
0,-1810.62,-945.3,-3137.21,40.24,6.84560189748921
0,-1802.99,-947.13,-3133.74,38.39,6.850602337151365
0,-1799.98,-943.74,-3132.53,37.72,6.8556027768135195
0,-1802.28,-950.33,-3133.95,45.6,6.860603216475674
0,-1803.5,-944.54,-3131.18,44.88,6.865603656137829
0,-1801.15,-940.52,-3135.17,41.26,6.870604095799983
0,-1807.47,-944.61,-3138.11,37.83,6.875604535462138
0,-1808.29,-954.89,-3143.46,33.88,6.880604975124292
0,-1806.77,-947.73,-3134.55,42.62,6.885605414786447
0,-1806.38,-945.96,-3127.02,45.71,6.8906058544486015
0,-1807.15,-946.27,-3131.84,42.58,6.895606294110756
0,-1808.24,-949.46,-3135.66,41.72,6.900606733772911
0,-1805.4,-945.64,-3134.52,38.54,6.905607173435065
0,-1801.23,-943.64,-3132.2,38.58,6.91060761309722
0,-1803.97,-946.85,-3135.43,37.71,6.915608052759374
0,-1808.74,-949.49,-3143.2,29.15,6.920608492421529
0,-1807.24,-946.61,-3139.43,31.46,6.9256089320836836
0,-1812.16,-942.11,-3138.02,28.37,6.930609371745838
0,-1807.74,-942.64,-3141.73,30.66,6.935609811407993
0,-1806.5,-949.21,-3138.92,31.74,6.94061025107014
0,-1807.83,-956.03,-3139.72,31.32,6.945610690732295
0,-1806.22,-948.27,-3136.82,34.35,6.950611130394449
0,-1813.18,-946.71,-3138.06,28.9,6.955611570056604
0,-1806.76,-946.79,-3140.4,33.2,6.9606120097187585
0,-1803.3,-944.59,-3129.54,32.85,6.965612449380913
0,-1801.06,-940.86,-3129.9,34.46,6.970612889043068
0,-1812.78,-942.93,-3134.93,32.11,6.975613328705222
0,-1808.55,-945.58,-3135.75,38.65,6.980613768367377
0,-1803.51,-947.61,-3135.82,30.59,6.985614208029531
0,-1808.24,-936.61,-3141.43,33.34,6.990614647691686
0,-1804.36,-954.17,-3137.64,34.84,6.9956150873538405
0,-1809.6,-947.34,-3145.08,30.32,7.000615527015995
0,-1807.76,-945.48,-3138.27,34.78,7.00561596667815
0,-1810.38,-943.87,-3138.9,36.74,7.010616406340304
0,-1804.34,-944.85,-3140.27,34.09,7.015616846002459
0,-1807.7,-950.08,-3142.35,33.8,7.020617285664613
0,-1816.7,-954.92,-3147.08,24.77,7.025617725326768
0,-1817.54,-942.09,-3143.41,26.15,7.030618164988923
0,-1815.47,-951.22,-3143.35,22.9,7.035618604651077
0,-1812.59,-944.47,-3143.45,28.37,7.040619044313232
0,-1801.08,-952.3,-3139.81,30.07,7.045619483975386
0,-1807.65,-956.4,-3141.18,29.9,7.050619923637541
0,-1815.22,-960.83,-3147.38,24.63,7.055620363299695
0,-1812.89,-952.86,-3143.55,27.19,7.060620802961843
0,-1820.04,-955.85,-3143.03,25.07,7.0656212426239975
0,-1805.69,-949.68,-3132.48,42.89,7.070621682286152
0,-1809.97,-956.23,-3135.33,36.9,7.075622121948307
0,-1812.59,-955.12,-3145.55,23.59,7.080622561610461
0,-1809.11,-942.02,-3139.37,24.04,7.085623001272616
0,-1808.13,-950.69,-3145.45,25.36,7.09062344093477
0,-1814.35,-959.23,-3147.73,25.78,7.095623880596925
0,-1807.85,-943.96,-3142.25,26.82,7.1006243202590795
0,-1811.71,-951.68,-3141.63,30.77,7.105624759921234
0,-1814.13,-956.84,-3143.02,22.32,7.110625199583389
0,-1813.2,-951.67,-3142.07,21.89,7.115625639245543
0,-1816.68,-951.83,-3145.36,20.39,7.120626078907698
0,-1814.43,-944.54,-3143.58,24.65,7.125626518569852
0,-1811.2,-946.38,-3139.5,31.13,7.130626958232007
0,-1813.71,-954.66,-3141.73,30.55,7.135627397894162
0,-1802.62,-941.28,-3136.2,31.93,7.140627837556316
0,-1802.9,-942.37,-3139.01,39.04,7.145628277218471
0,-1803.69,-940.88,-3139.12,35.33,7.150628716880625
0,-1802.68,-935.0,-3132.29,31.48,7.15562915654278
0,-1803.23,-944.14,-3136.78,28.26,7.160629596204934
0,-1803.7,-941.63,-3134.85,39.19,7.165630035867089
0,-1805.31,-943.98,-3134.14,33.55,7.170630475529244
0,-1803.92,-949.08,-3136.24,35.3,7.175630915191398
0,-1804.21,-936.48,-3134.7,40.83,7.180631354853546
0,-1802.81,-942.32,-3133.81,38.52,7.1856317945157
0,-1796.68,-946.15,-3134.42,42.45,7.190632234177855
0,-1796.63,-937.23,-3124.63,48.61,7.195632673840009
0,-1794.71,-939.15,-3125.17,48.01,7.200633113502164
0,-1801.18,-941.42,-3134.43,39.67,7.2056335531643185
0,-1805.94,-941.07,-3129.61,35.92,7.210633992826473
0,-1797.94,-928.92,-3123.13,44.23,7.215634432488628
0,-1795.8,-933.57,-3125.94,45.15,7.220634872150782
0,-1809.98,-936.92,-3134.45,35.24,7.225635311812937
0,-1807.95,-944.78,-3136.66,29.34,7.230635751475091
0,-1803.18,-950.91,-3138.59,29.22,7.235636191137246
0,-1801.77,-954.98,-3137.61,37.02,7.240636630799401
0,-1808.49,-945.79,-3138.61,37.91,7.245637070461555
0,-1806.69,-942.06,-3133.96,32.1,7.25063751012371
0,-1802.2,-937.27,-3134.73,35.87,7.255637949785864
0,-1807.81,-946.93,-3138.08,32.6,7.260638389448019
0,-1805.95,-946.93,-3136.47,35.94,7.2656388291101734
0,-1805.15,-946.33,-3140.15,36.93,7.270639268772328
0,-1813.48,-958.2,-3144.09,28.13,7.275639708434483
0,-1812.7,-950.43,-3141.21,35.27,7.280640148096637
0,-1809.48,-947.71,-3133.42,39.14,7.285640587758792
0,-1818.18,-942.33,-3138.8,25.16,7.290641027420946
0,-1809.63,-938.75,-3141.76,26.61,7.295641467083101
0,-1802.1,-924.03,-3131.3,39.9,7.300641906745248
0,-1806.2,-933.42,-3125.84,40.51,7.305642346407403
0,-1799.35,-928.13,-3122.1,41.23,7.3106427860695575
0,-1801.66,-935.36,-3129.32,38.65,7.315643225731712
0,-1812.63,-942.65,-3138.51,26.43,7.320643665393867
0,-1812.54,-946.16,-3134.11,33.89,7.325644105056021
0,-1819.99,-944.58,-3142.72,31.99,7.330644544718176
0,-1810.38,-946.07,-3138.27,36.65,7.33564498438033
0,-1808.68,-948.39,-3136.37,33.94,7.340645424042485
0,-1812.13,-948.12,-3138.82,36.3,7.34564586370464
0,-1810.32,-946.62,-3139.35,31.69,7.350646303366794
0,-1814.99,-953.86,-3148.58,33.09,7.355646743028949
0,-1820.71,-952.69,-3148.26,26.65,7.360647182691103
0,-1816.06,-950.67,-3151.15,25.8,7.365647622353258
0,-1810.64,-946.49,-3141.44,32.42,7.3706480620154124
0,-1806.56,-946.27,-3135.16,37.57,7.375648501677567
0,-1810.37,-951.88,-3141.98,31.03,7.380648941339722
0,-1819.2,-955.12,-3149.83,22.15,7.385649381001876
0,-1816.53,-957.7,-3144.82,26.1,7.390649820664031
0,-1810.16,-948.39,-3142.3,30.43,7.395650260326185
0,-1820.33,-962.13,-3145.35,30.03,7.40065069998834
0,-1818.64,-954.34,-3149.17,28.34,7.4056511396504945
0,-1809.69,-942.48,-3140.77,30.87,7.410651579312649
0,-1800.37,-947.25,-3134.93,38.53,7.415652018974804
0,-1801.99,-940.9,-3133.81,38.69,7.420652458636951
0,-1807.51,-940.6,-3132.59,37.71,7.425652898299106
0,-1799.68,-932.82,-3125.94,46.63,7.43065333796126
0,-1790.83,-936.92,-3125.97,48.99,7.435653777623415
0,-1803.67,-936.36,-3126.63,47.18,7.440654217285569
0,-1797.96,-931.17,-3127.9,43.03,7.445654656947724
0,-1802.64,-934.48,-3122.89,47.01,7.450655096609879
0,-1793.56,-934.36,-3124.04,51.36,7.455655536272033
0,-1796.99,-940.45,-3127.09,50.89,7.460655975934188
0,-1802.78,-936.28,-3126.88,48.81,7.465656415596342
0,-1795.44,-935.08,-3127.55,47.31,7.470656855258497
0,-1790.81,-936.03,-3127.28,43.66,7.4756572949206515
0,-1800.08,-940.64,-3129.31,38.88,7.480657734582806
0,-1800.48,-931.45,-3125.74,45.25,7.485658174244961
0,-1803.28,-940.53,-3130.92,42.71,7.490658613907115
0,-1809.26,-948.06,-3137.64,41.64,7.49565905356927
0,-1811.2,-947.96,-3136.84,40.06,7.500659493231424
0,-1812.85,-946.84,-3138.7,35.4,7.505659932893579
0,-1807.68,-934.68,-3134.24,40.81,7.5106603725557335
0,-1814.27,-942.07,-3134.57,35.34,7.515660812217888
0,-1809.96,-945.87,-3136.64,35.07,7.520661251880043
0,-1805.9,-949.8,-3139.0,36.71,7.525661691542197
0,-1815.37,-950.99,-3141.47,31.51,7.530662131204352
0,-1813.42,-955.11,-3142.26,36.14,7.535662570866506
0,-1813.6,-953.83,-3143.46,36.23,7.540663010528654
0,-1810.21,-955.76,-3137.61,34.62,7.545663450190808
0,-1803.34,-947.93,-3134.59,38.13,7.550663889852963
0,-1807.08,-951.82,-3140.95,35.38,7.555664329515118
0,-1820.21,-950.3,-3148.09,32.09,7.560664769177272
0,-1815.1,-949.13,-3138.5,39.42,7.565665208839427
0,-1807.79,-957.2,-3142.94,33.65,7.570665648501581
0,-1812.69,-960.82,-3151.87,26.08,7.575666088163736
0,-1819.31,-958.04,-3154.75,18.32,7.5806665278258905
0,-1816.13,-964.69,-3150.82,21.47,7.585666967488045
0,-1812.9,-961.37,-3149.53,20.91,7.5906674071502
0,-1801.45,-962.86,-3144.64,24.2,7.595667846812354
0,-1804.48,-953.67,-3141.36,28.65,7.600668286474509
0,-1799.27,-946.01,-3135.09,34.21,7.605668726136663
0,-1805.75,-940.66,-3136.39,34.81,7.610669165798818
0,-1807.81,-944.21,-3137.46,35.64,7.6156696054609725
0,-1808.63,-956.41,-3146.85,28.42,7.620670045123127
0,-1812.42,-955.55,-3141.49,30.71,7.625670484785282
0,-1807.93,-957.09,-3140.67,33.91,7.630670924447436
0,-1802.48,-953.48,-3140.43,28.24,7.635671364109591
0,-1804.65,-950.49,-3138.54,36.94,7.640671803771745
0,-1811.23,-950.07,-3139.82,34.22,7.6456722434339
0,-1807.96,-942.41,-3136.92,33.9,7.6506726830960545
0,-1807.56,-955.92,-3139.43,32.86,7.655673122758209
0,-1808.22,-951.54,-3144.2,32.65,7.660673562420364
0,-1811.5,-955.46,-3146.65,33.85,7.665674002082511
0,-1813.74,-950.86,-3138.62,34.12,7.670674441744666
0,-1812.15,-955.74,-3141.16,27.65,7.67567488140682
0,-1816.83,-951.2,-3141.98,36.83,7.680675321068975
0,-1816.16,-948.16,-3145.21,31.97,7.6856757607311295
0,-1811.41,-947.9,-3139.44,33.48,7.690676200393284
0,-1813.78,-955.7,-3139.48,34.54,7.695676640055439
0,-1812.65,-947.6,-3140.75,30.41,7.700677079717593
0,-1808.42,-957.01,-3141.4,33.42,7.705677519379748
0,-1801.32,-943.84,-3135.81,39.36,7.710677959041902
0,-1798.96,-932.74,-3129.2,43.06,7.715678398704057
0,-1794.25,-925.86,-3125.44,40.44,7.7206788383662115
0,-1804.58,-940.22,-3127.88,31.64,7.725679278028366
0,-1801.19,-945.07,-3132.77,32.98,7.730679717690521
0,-1813.06,-942.7,-3141.08,33.15,7.735680157352675
0,-1812.03,-947.28,-3136.28,32.58,7.74068059701483
0,-1797.08,-939.49,-3129.39,32.1,7.745681036676984
0,-1803.55,-938.79,-3138.54,34.09,7.750681476339139
0,-1802.32,-943.39,-3135.62,38.37,7.7556819160012935
0,-1808.9,-946.59,-3138.19,38.15,7.760682355663448
0,-1807.31,-952.7,-3139.0,34.59,7.765682795325603
0,-1804.11,-941.57,-3134.57,38.83,7.770683234987757
0,-1804.04,-936.95,-3134.21,38.08,7.775683674649912
0,-1811.18,-951.29,-3144.4,35.11,7.780684114312066
0,-1809.67,-950.92,-3135.33,40.2,7.785684553974214
0,-1803.91,-945.29,-3131.41,40.2,7.7906849936363685
0,-1805.2,-942.43,-3138.93,35.44,7.795685433298523
0,-1811.19,-940.61,-3131.29,42.82,7.800685872960678
0,-1818.12,-947.97,-3138.92,34.75,7.805686312622832
0,-1807.03,-939.65,-3135.26,39.69,7.810686752284987
0,-1805.39,-933.26,-3135.26,36.51,7.815687191947141
0,-1803.72,-945.21,-3139.16,30.3,7.820687631609296
0,-1811.83,-953.23,-3142.86,31.21,7.8256880712714505
0,-1815.02,-955.25,-3145.73,22.76,7.830688510933605
0,-1801.69,-948.43,-3136.81,31.85,7.83568895059576
0,-1808.68,-950.77,-3138.63,25.88,7.840689390257914
0,-1802.04,-941.75,-3141.15,30.19,7.845689829920069
0,-1805.92,-942.1,-3133.91,38.35,7.850690269582223
0,-1796.18,-929.6,-3121.78,47.37,7.855690709244378
0,-1800.55,-944.29,-3134.24,34.24,7.8606911489065325
0,-1800.5,-943.59,-3130.17,42.51,7.865691588568687
0,-1802.77,-939.6,-3128.12,40.54,7.870692028230842
0,-1809.93,-941.16,-3134.57,35.02,7.875692467892996
0,-1805.55,-935.68,-3131.71,36.61,7.880692907555151
0,-1800.62,-937.78,-3130.53,35.27,7.885693347217305
0,-1800.88,-945.87,-3132.57,38.35,7.89069378687946
0,-1804.15,-943.09,-3133.27,36.56,7.895694226541615
0,-1802.42,-937.69,-3132.47,32.48,7.900694666203769
0,-1810.8,-940.58,-3136.57,37.57,7.905695105865917
0,-1812.31,-954.17,-3140.26,29.47,7.910695545528071
0,-1807.07,-946.46,-3141.23,35.46,7.915695985190226
0,-1818.47,-951.87,-3143.01,28.41,7.92069642485238
0,-1816.82,-955.52,-3144.86,30.27,7.925696864514535
0,-1813.1,-953.52,-3142.96,31.64,7.9306973041766895
0,-1810.02,-953.93,-3144.92,31.33,7.935697743838844
0,-1810.2,-948.84,-3139.14,35.37,7.940698183500999
0,-1816.21,-944.02,-3140.71,32.83,7.945698623163153
0,-1818.71,-957.78,-3146.54,26.46,7.950699062825308
0,-1811.62,-949.93,-3147.01,29.15,7.955699502487462
0,-1806.44,-942.46,-3136.1,35.51,7.960699942149617
0,-1817.15,-942.03,-3140.64,29.93,7.9657003818117715
0,-1804.52,-939.53,-3129.28,42.37,7.970700821473926
0,-1806.38,-934.0,-3127.4,44.02,7.975701261136081
0,-1803.91,-950.78,-3136.01,37.56,7.980701700798235
0,-1801.15,-948.18,-3137.5,36.84,7.98570214046039
0,-1804.31,-953.9,-3136.88,34.87,7.990702580122544
0,-1808.33,-939.85,-3134.75,41.13,7.995703019784699
0,-1809.29,-942.29,-3136.92,33.68,8.000703459446854
0,-1807.43,-941.4,-3135.01,38.56,8.005703899109008
0,-1804.57,-938.75,-3132.2,40.54,8.010704338771163
0,-1799.0,-938.02,-3129.77,38.17,8.015704778433317
0,-1797.2,-937.95,-3131.04,38.37,8.020705218095472
0,-1800.1,-941.71,-3136.59,33.85,8.02570565775762
0,-1794.06,-938.21,-3132.08,35.23,8.030706097419774
0,-1806.61,-939.13,-3138.34,31.75,8.035706537081929
0,-1803.22,-940.35,-3133.84,32.93,8.040706976744083
0,-1795.78,-934.52,-3128.77,28.96,8.045707416406238
0,-1792.03,-923.28,-3120.99,39.9,8.050707856068392
0,-1783.05,-926.62,-3117.54,42.47,8.055708295730547
0,-1786.79,-925.96,-3120.14,40.92,8.060708735392701
0,-1775.91,-906.71,-3110.6,46.98,8.065709175054856
0,-1780.36,-922.35,-3112.2,39.83,8.07070961471701
0,-1791.01,-916.42,-3115.87,42.27,8.075710054379165
0,-1778.52,-915.2,-3107.7,49.59,8.08071049404132
0,-1776.96,-926.52,-3115.98,42.5,8.085710933703474
0,-1781.07,-925.24,-3123.68,41.41,8.090711373365629
0,-1781.58,-914.37,-3110.24,46.81,8.095711813027783
0,-1776.58,-906.8,-3109.45,46.6,8.100712252689938
0,-1776.53,-915.07,-3114.48,48.4,8.105712692352093
0,-1789.63,-919.75,-3117.83,40.17,8.110713132014247
0,-1784.88,-929.45,-3124.54,42.24,8.115713571676402
0,-1791.37,-924.21,-3117.82,50.86,8.120714011338556
0,-1792.41,-932.75,-3121.48,50.4,8.12571445100071
0,-1799.89,-941.15,-3128.22,40.28,8.130714890662865
0,-1795.78,-945.66,-3134.08,39.22,8.13571533032502
0,-1800.98,-942.06,-3130.48,43.2,8.140715769987175
0,-1804.54,-941.15,-3136.72,40.98,8.145716209649322
0,-1811.99,-944.96,-3138.82,37.47,8.150716649311477
0,-1816.75,-952.17,-3139.53,32.43,8.155717088973631
0,-1816.63,-954.19,-3141.97,33.58,8.160717528635786
0,-1807.91,-956.66,-3141.73,34.67,8.16571796829794
0,-1802.66,-950.26,-3128.72,39.31,8.170718407960095
0,-1810.04,-954.13,-3138.18,36.65,8.17571884762225
0,-1813.99,-959.38,-3141.63,32.66,8.180719287284404
0,-1816.56,-946.79,-3141.79,35.87,8.185719726946559
0,-1813.72,-943.57,-3138.44,40.28,8.190720166608713
0,-1813.35,-947.12,-3134.83,38.32,8.195720606270868
0,-1814.77,-952.11,-3141.84,37.17,8.200721045933022
0,-1814.1,-952.54,-3141.45,35.22,8.205721485595177
0,-1822.11,-968.07,-3159.32,27.16,8.210721925257332
0,-1823.89,-971.32,-3159.45,26.31,8.215722364919486
0,-1822.31,-962.88,-3151.64,27.7,8.22072280458164
0,-1824.23,-962.68,-3149.3,32.73,8.225723244243795
0,-1822.92,-956.47,-3145.58,35.31,8.23072368390595
0,-1821.34,-957.07,-3149.72,32.85,8.235724123568104
0,-1822.9,-959.66,-3150.82,26.17,8.240724563230259
0,-1823.21,-964.21,-3159.37,22.22,8.245725002892414
0,-1818.42,-959.66,-3148.35,33.05,8.250725442554568
0,-1818.08,-959.13,-3143.79,34.79,8.255725882216723
0,-1818.15,-949.99,-3144.48,32.02,8.260726321878877
0,-1811.45,-950.83,-3145.52,31.99,8.265726761541025
0,-1818.44,-954.16,-3145.85,29.29,8.27072720120318
0,-1816.28,-955.91,-3142.69,38.94,8.275727640865334
0,-1821.28,-960.31,-3146.45,32.34,8.280728080527489
0,-1817.13,-957.09,-3149.19,32.42,8.285728520189643
0,-1826.19,-960.63,-3147.84,27.83,8.290728959851798
0,-1829.79,-963.28,-3152.71,23.9,8.295729399513952
0,-1824.42,-957.01,-3156.17,21.26,8.300729839176107
0,-1819.8,-946.35,-3147.4,26.23,8.305730278838261
0,-1821.0,-947.29,-3145.11,25.77,8.310730718500416
0,-1826.51,-962.86,-3149.72,28.04,8.31573115816257
0,-1819.82,-968.42,-3154.41,19.72,8.320731597824725
0,-1815.49,-961.47,-3152.1,27.36,8.32573203748688
0,-1813.45,-953.97,-3148.24,26.99,8.330732477149034
0,-1819.16,-954.4,-3144.91,27.32,8.335732916811189
0,-1813.22,-956.03,-3144.09,30.58,8.340733356473343
0,-1817.92,-952.15,-3142.99,27.88,8.345733796135498
0,-1814.03,-944.56,-3141.3,32.65,8.350734235797653
0,-1811.54,-937.51,-3137.32,37.0,8.355734675459807
0,-1806.78,-950.09,-3136.81,39.46,8.360735115121962
0,-1807.3,-944.79,-3136.2,35.63,8.365735554784116
0,-1806.83,-944.37,-3135.56,37.21,8.370735994446271
0,-1806.02,-942.59,-3139.32,35.51,8.375736434108425
0,-1806.22,-942.36,-3136.54,33.45,8.38073687377058
0,-1806.85,-949.21,-3142.01,29.73,8.385737313432728
0,-1809.59,-938.25,-3143.63,32.2,8.390737753094882
0,-1806.45,-944.26,-3134.2,35.25,8.395738192757037
0,-1811.02,-946.46,-3132.54,33.01,8.400738632419191
0,-1814.85,-952.49,-3136.61,29.76,8.405739072081346
0,-1812.61,-946.73,-3139.95,28.04,8.4107395117435
0,-1812.76,-946.54,-3140.84,30.19,8.415739951405655
0,-1813.62,-949.84,-3146.33,22.38,8.42074039106781
0,-1810.16,-952.14,-3138.13,22.84,8.425740830729964
0,-1812.02,-958.34,-3148.34,21.42,8.430741270392119
0,-1814.29,-957.02,-3150.28,21.58,8.435741710054273
0,-1812.74,-948.17,-3143.78,25.66,8.440742149716428
0,-1807.2,-951.29,-3140.65,32.71,8.445742589378582
0,-1796.3,-946.16,-3137.99,32.44,8.450743029040737
0,-1800.05,-940.9,-3135.08,33.34,8.455743468702892
0,-1805.69,-943.34,-3137.16,32.21,8.460743908365046
0,-1805.49,-940.75,-3136.68,35.82,8.4657443480272
0,-1800.39,-945.42,-3132.14,33.67,8.470744787689355
0,-1803.3,-937.75,-3128.01,34.73,8.47574522735151
0,-1806.79,-944.31,-3140.78,24.7,8.480745667013665
0,-1806.96,-941.13,-3138.22,29.02,8.485746106675819
0,-1803.52,-951.28,-3136.44,31.01,8.490746546337974
0,-1808.82,-949.01,-3139.35,35.61,8.495746986000128
0,-1812.43,-948.7,-3140.28,38.61,8.500747425662283
0,-1804.48,-945.61,-3136.08,37.1,8.505747865324437
0,-1812.05,-947.72,-3136.13,35.99,8.510748304986585
0,-1809.1,-949.84,-3142.51,30.34,8.51574874464874
0,-1808.6,-948.93,-3141.36,28.14,8.520749184310894
0,-1808.73,-954.91,-3143.09,36.95,8.525749623973049
0,-1816.18,-948.39,-3142.88,31.43,8.530750063635203
0,-1816.7,-951.08,-3144.15,32.98,8.535750503297358
0,-1806.66,-955.57,-3139.68,37.1,8.540750942959512
0,-1803.18,-947.57,-3137.18,34.07,8.545751382621667
0,-1808.56,-946.73,-3141.28,32.71,8.550751822283821
0,-1804.79,-937.55,-3135.29,41.19,8.555752261945976
0,-1807.02,-941.34,-3130.5,41.77,8.56075270160813
0,-1813.28,-953.8,-3138.37,40.04,8.565753141270285
0,-1806.59,-949.11,-3140.16,41.88,8.57075358093244
0,-1814.56,-941.83,-3139.57,41.54,8.575754020594594
0,-1808.07,-944.03,-3132.89,40.27,8.580754460256749
0,-1798.39,-938.39,-3125.37,49.05,8.585754899918904
0,-1804.41,-942.59,-3134.3,46.25,8.590755339581058
0,-1804.74,-945.6,-3136.82,44.56,8.595755779243213
0,-1809.77,-941.27,-3133.86,41.5,8.600756218905367
0,-1802.11,-935.38,-3127.74,44.68,8.605756658567522
0,-1805.75,-938.42,-3135.23,35.26,8.610757098229676
0,-1806.34,-942.9,-3138.42,33.87,8.615757537891831
0,-1807.89,-946.13,-3143.96,34.16,8.620757977553986
0,-1822.94,-954.5,-3140.79,26.05,8.62575841721614
0,-1815.61,-945.34,-3140.29,34.16,8.630758856878288
0,-1815.31,-943.46,-3144.21,30.58,8.635759296540442
0,-1816.41,-949.15,-3142.57,22.95,8.640759736202597
0,-1810.43,-953.84,-3142.19,27.12,8.645760175864751
0,-1817.5,-955.74,-3143.22,31.74,8.650760615526906
0,-1809.73,-952.65,-3142.73,35.24,8.65576105518906
0,-1806.38,-937.64,-3137.65,37.82,8.660761494851215
0,-1808.51,-939.07,-3136.49,31.99,8.66576193451337
0,-1804.0,-940.68,-3134.37,36.52,8.670762374175524
0,-1814.32,-953.52,-3140.25,38.69,8.675762813837679
0,-1805.53,-943.06,-3133.63,42.63,8.680763253499833
0,-1803.68,-950.2,-3132.31,42.3,8.685763693161988
0,-1804.39,-939.4,-3139.29,37.51,8.690764132824143
0,-1804.55,-947.09,-3139.29,32.11,8.695764572486297
0,-1803.83,-943.49,-3134.32,39.75,8.700765012148452
0,-1793.92,-943.54,-3131.93,39.75,8.705765451810606
0,-1799.34,-943.61,-3136.09,34.59,8.71076589147276
0,-1803.06,-939.73,-3131.37,38.34,8.715766331134915
0,-1797.2,-947.96,-3129.52,45.43,8.72076677079707
0,-1805.32,-945.2,-3130.43,34.69,8.725767210459225
0,-1809.81,-945.65,-3138.89,26.33,8.73076765012138
0,-1807.58,-942.25,-3137.23,33.21,8.735768089783534
0,-1806.98,-942.89,-3137.5,30.34,8.740768529445688
0,-1804.78,-939.58,-3131.87,40.2,8.745768969107843
0,-1804.27,-938.89,-3131.98,40.84,8.75076940876999
0,-1807.73,-940.8,-3136.56,35.0,8.755769848432145
0,-1808.32,-938.12,-3132.05,40.24,8.7607702880943
0,-1803.13,-934.91,-3130.91,41.17,8.765770727756454
0,-1794.93,-936.04,-3124.12,44.56,8.770771167418609
0,-1801.68,-939.35,-3129.83,40.57,8.775771607080763
0,-1809.91,-939.56,-3135.53,40.44,8.780772046742918
0,-1809.27,-941.4,-3137.54,41.38,8.785772486405072
0,-1810.26,-943.46,-3141.31,38.53,8.790772926067227
0,-1811.91,-943.8,-3141.34,35.55,8.795773365729382
0,-1811.88,-950.36,-3143.86,32.52,8.800773805391536
0,-1813.78,-945.37,-3141.69,32.52,8.80577424505369
0,-1811.27,-954.11,-3142.91,36.28,8.810774684715845
0,-1805.03,-948.91,-3136.98,38.71,8.815775124378
0,-1808.14,-954.56,-3140.71,31.9,8.820775564040154
0,-1805.67,-941.76,-3138.14,38.85,8.825776003702309
0,-1806.47,-943.7,-3131.75,42.9,8.830776443364464
0,-1803.05,-950.11,-3139.71,36.2,8.835776883026618
0,-1807.48,-948.57,-3140.26,40.04,8.840777322688773
0,-1806.8,-944.55,-3134.49,40.33,8.845777762350927
0,-1805.37,-943.16,-3134.7,40.75,8.850778202013082
0,-1810.8,-941.33,-3130.32,38.45,8.855778641675236
0,-1806.43,-934.26,-3131.48,35.72,8.860779081337391
0,-1802.22,-947.83,-3136.4,31.47,8.865779520999546
0,-1809.61,-943.54,-3136.56,35.27,8.870779960661693
0,-1804.34,-930.76,-3135.87,37.68,8.875780400323848
0,-1805.97,-937.4,-3135.69,36.91,8.880780839986002
0,-1798.92,-936.06,-3129.8,42.24,8.885781279648157
0,-1810.67,-945.88,-3134.65,37.04,8.890781719310311
0,-1809.09,-947.35,-3138.6,39.05,8.895782158972466
0,-1820.13,-950.76,-3139.83,27.94,8.90078259863462
0,-1814.51,-949.08,-3138.63,34.15,8.905783038296775
0,-1805.52,-952.57,-3143.42,37.13,8.91078347795893
0,-1808.94,-942.22,-3134.4,45.07,8.915783917621084
0,-1810.44,-947.57,-3139.59,39.32,8.920784357283239
0,-1814.7,-954.6,-3144.21,26.63,8.925784796945393
0,-1809.61,-947.74,-3145.53,26.03,8.930785236607548
0,-1808.69,-947.63,-3138.13,30.37,8.935785676269703
0,-1806.96,-937.87,-3133.58,32.05,8.940786115931857
0,-1807.19,-946.81,-3131.42,37.95,8.945786555594012
0,-1808.69,-949.12,-3137.82,38.95,8.950786995256166
0,-1807.64,-947.29,-3140.55,31.9,8.95578743491832
0,-1805.86,-953.65,-3148.7,28.55,8.960787874580475
0,-1812.97,-947.71,-3138.23,30.02,8.96578831424263
0,-1810.71,-950.93,-3135.93,31.36,8.970788753904785
0,-1802.89,-947.05,-3135.1,33.45,8.97578919356694
0,-1812.53,-959.27,-3146.92,29.29,8.980789633229094
0,-1820.38,-958.95,-3154.39,22.43,8.985790072891248
0,-1813.43,-951.38,-3153.41,24.68,8.990790512553396
0,-1816.92,-945.78,-3142.02,32.62,8.99579095221555
0,-1805.54,-950.86,-3133.27,38.38,9.000791391877705
0,-1805.66,-941.29,-3131.74,39.91,9.00579183153986
0,-1806.57,-945.54,-3138.34,40.29,9.010792271202014
0,-1805.3,-948.99,-3135.66,39.65,9.015792710864169
0,-1799.76,-944.16,-3137.49,36.91,9.020793150526323
0,-1803.1,-942.63,-3134.49,41.88,9.025793590188478
0,-1796.41,-941.12,-3128.85,43.82,9.030794029850632
0,-1790.82,-947.64,-3133.85,40.87,9.035794469512787
0,-1801.25,-949.7,-3131.04,41.46,9.040794909174942
0,-1806.03,-940.73,-3133.25,39.64,9.045795348837096
0,-1809.31,-950.23,-3137.33,38.94,9.05079578849925
0,-1805.91,-944.84,-3139.3,36.0,9.055796228161405
0,-1799.57,-948.0,-3133.5,37.63,9.06079666782356
0,-1803.07,-945.23,-3136.33,38.54,9.065797107485714
0,-1806.91,-946.45,-3140.09,35.83,9.070797547147869
0,-1805.95,-940.99,-3134.57,34.46,9.075797986810024
0,-1802.97,-944.36,-3132.87,37.73,9.080798426472178
0,-1807.04,-940.26,-3136.46,31.66,9.085798866134333
0,-1802.26,-935.1,-3128.62,40.47,9.090799305796487
0,-1809.04,-939.51,-3130.48,38.89,9.095799745458642
0,-1802.31,-941.44,-3128.4,40.92,9.100800185120796
0,-1799.4,-936.6,-3127.85,45.34,9.105800624782951
0,-1795.65,-920.61,-3124.3,44.16,9.110801064445099
0,-1800.6,-936.66,-3126.48,39.51,9.115801504107253
0,-1788.35,-933.39,-3127.0,45.9,9.120801943769408
0,-1796.74,-936.43,-3129.16,41.76,9.125802383431562
0,-1804.57,-936.52,-3128.37,38.04,9.130802823093717
0,-1802.48,-934.0,-3127.16,39.89,9.135803262755871
0,-1801.64,-941.14,-3128.7,41.97,9.140803702418026
0,-1810.93,-943.69,-3136.3,38.85,9.14580414208018
0,-1814.05,-945.8,-3137.47,35.87,9.150804581742335
0,-1809.77,-943.08,-3141.36,37.57,9.15580502140449
0,-1799.14,-946.78,-3136.21,37.73,9.160805461066644
0,-1799.66,-937.97,-3130.48,38.29,9.165805900728799
0,-1803.4,-948.42,-3131.61,34.53,9.170806340390953
0,-1810.37,-950.53,-3137.72,30.18,9.175806780053108
0,-1815.55,-961.98,-3143.53,27.53,9.180807219715263
0,-1812.55,-949.09,-3146.66,26.19,9.185807659377417
0,-1801.63,-939.59,-3134.63,34.23,9.190808099039572
0,-1810.64,-942.15,-3135.37,33.05,9.195808538701726
0,-1811.2,-950.04,-3142.98,25.53,9.200808978363881
0,-1819.09,-952.92,-3146.49,24.65,9.205809418026035
0,-1822.57,-956.29,-3148.89,18.16,9.21080985768819
0,-1812.85,-952.19,-3142.01,25.02,9.215810297350345
0,-1810.51,-941.43,-3141.16,27.46,9.2208107370125
0,-1812.11,-949.67,-3140.42,30.36,9.225811176674654
0,-1809.98,-942.45,-3142.23,32.84,9.230811616336808
0,-1811.07,-940.89,-3140.01,30.89,9.235812055998956
0,-1809.57,-937.82,-3132.51,36.77,9.24081249566111
0,-1794.15,-936.8,-3127.73,37.32,9.245812935323265
0,-1802.41,-939.81,-3132.8,38.52,9.25081337498542
0,-1807.09,-939.84,-3134.67,37.94,9.255813814647574
0,-1811.81,-945.81,-3143.72,36.21,9.260814254309729
0,-1812.34,-945.6,-3140.32,35.43,9.265814693971883
0,-1796.51,-938.87,-3134.02,40.77,9.270815133634038
0,-1802.49,-942.14,-3132.93,35.02,9.275815573296192
0,-1802.24,-933.6,-3136.46,37.91,9.280816012958347
0,-1810.12,-948.84,-3128.77,37.67,9.285816452620502
0,-1810.69,-951.57,-3133.05,31.03,9.290816892282656
0,-1816.16,-956.71,-3145.62,33.31,9.29581733194481
0,-1814.49,-952.79,-3141.78,38.38,9.300817771606965
0,-1815.84,-953.56,-3138.39,39.79,9.30581821126912
0,-1816.89,-950.32,-3140.93,43.87,9.310818650931274
0,-1806.94,-947.01,-3137.48,40.9,9.315819090593429
0,-1808.17,-945.69,-3140.54,31.2,9.320819530255584
0,-1807.71,-944.29,-3138.56,35.98,9.325819969917738
0,-1810.98,-939.47,-3134.77,33.04,9.330820409579893
0,-1812.89,-941.29,-3136.09,32.26,9.335820849242047
0,-1809.94,-944.4,-3139.5,27.76,9.340821288904202
0,-1809.99,-952.75,-3137.12,31.82,9.345821728566357
0,-1803.3,-942.85,-3135.48,32.71,9.350822168228511
0,-1803.02,-943.63,-3134.53,36.3,9.355822607890659
0,-1804.76,-934.62,-3129.35,37.77,9.360823047552813
0,-1801.2,-926.76,-3128.61,42.96,9.365823487214968
0,-1795.45,-929.28,-3123.16,45.74,9.370823926877122
0,-1795.78,-939.03,-3124.14,41.68,9.375824366539277
0,-1806.9,-941.82,-3133.46,46.06,9.380824806201431
0,-1807.32,-946.46,-3135.06,39.02,9.385825245863586
0,-1813.28,-942.01,-3137.14,37.75,9.39082568552574
0,-1807.82,-937.97,-3132.69,34.64,9.395826125187895
0,-1810.58,-954.31,-3140.7,33.02,9.40082656485005
0,-1808.48,-952.35,-3144.52,31.79,9.405827004512204
0,-1810.4,-948.09,-3148.02,34.63,9.410827444174359
0,-1809.18,-962.15,-3150.37,31.31,9.415827883836513
0,-1808.26,-953.91,-3144.98,37.46,9.420828323498668
0,-1812.21,-959.67,-3144.11,37.86,9.425828763160823
0,-1810.93,-950.74,-3143.09,35.46,9.430829202822977
0,-1808.82,-946.53,-3137.51,39.3,9.435829642485132
0,-1809.94,-942.85,-3133.82,46.0,9.440830082147286
0,-1800.76,-937.38,-3134.69,39.9,9.445830521809441
0,-1801.29,-938.51,-3128.53,46.7,9.450830961471596
0,-1794.24,-941.69,-3129.42,51.89,9.45583140113375
0,-1802.12,-938.92,-3128.55,42.28,9.460831840795905
0,-1805.44,-941.71,-3128.29,39.36,9.46583228045806
0,-1791.63,-926.08,-3115.3,54.16,9.470832720120214
0,-1791.97,-930.88,-3119.51,44.89,9.475833159782361
0,-1790.07,-922.2,-3117.99,48.3,9.480833599444516
0,-1792.78,-925.06,-3119.78,46.02,9.48583403910667
