labels,F4,F3,Fz,Cz,timestamps
0,-2.005586337095515,1.6066762229930631,-8.58791809195903,-1.6106961471881294,-2.0000273860057582
0,-0.7948259446678603,-1.7127974740459297,-3.5970989641308115,-5.219921846553069,-1.9950273175407425
0,-0.89406539028194,-8.362272102225884,-0.9862804729250914,-3.569148138233003,-1.9900272490757303
0,-3.703304680049484,-4.341747669127071,-7.575462622589087,-0.6383750218821301,-1.9850271806107145
0,7.527456180026913,4.528775818086647,4.785354582962653,6.562397503090161,-1.9800271121457023
0,2.5682171839076835,0.28929835251048974,4.506171139992132,5.963169437218392,-1.9750270436806865
0,1.3789783253017576,2.2998199272107294,1.9669870446564857,2.723940780672777,-1.9700269752156707
0,3.229739597611632,4.610340535075287,12.227802292755525,4.634711533158019,-1.9650269067506585
0,5.810500993966504,2.4708601687461758,8.34861687952938,0.5054816939746454,-1.9600268382856427
0,5.381262507154322,3.8713788205546744,-1.0305692004995406,-2.613748737842588,-1.9550267698206305
0,2.052024129519121,2.2218964825086793,3.9102440465756203,6.9970202366118395,-1.9500267013556147
0,1.0427858529925995,7.472413146286382,3.001056614309982,5.177788616099467,-1.945026632890599
0,2.343547669223715,3.1429288031743727,5.491868495982333,5.818556399022345,-1.9400265644255867
0,0.9943095696793208,1.603443444022921,3.2626796845192296,0.5593235832961228,-1.935026495960571
0,2.075071545663819,-0.616042940664531,7.053490172428802,2.020090166428156,-1.9300264274955587
0,4.165833588308185,-4.695530360520582,0.30429995177264957,-2.1991438543035984,-1.925026359030543
0,1.0765956885197925,3.7549811748779924,-1.4448909857552958,0.24162151830799955,-1.9200262905655272
0,-0.102642163028419,-5.384508343928097,-5.2240826485973,-1.3076137184996897,-1.915026222100515
0,-2.3418799758000164,-5.91399892624945,-3.6832750450449914,-2.4868495674103306,-1.9100261536354992
0,-0.7011177592444096,-0.21349058111779273,-4.952468183044405,-2.0160860309790083,-1.9050260851704834
0,-9.460355522655643,-3.3929833172150987,-9.911662070090252,-9.365323111533902,-1.9000260167054712
0,-6.469593274975107,6.197522857006941,-2.7608567131172745,-8.424560810981182,-1.8950259482404554
0,9.941168975331063,4.028027933085646,4.989947881482065,7.666200869337093,-1.8900258797754432
0,5.231931219993501,1.6785319023082892,6.5207517075267,4.196961928414603,-1.8850258113104275
0,-1.437306549525025,-1.0509652443509643,-3.0584452413590095,-1.542277634864462,-1.8800257428454117
0,6.703455657839573,6.369536483872844,3.8323570281560917,1.348482178123935,-1.8750256743803995
0,-0.06578216714677809,-3.129962922418339,-1.8868414907542506,-2.90075863410375,-1.8700256059153837
0,-2.5550200339432614,-1.2394634727567564,-3.2360408049576295,-4.300000072971892,-1.8650255374503715
0,-4.824257952069385,-2.8789651766611937,-9.075240921193169,-3.1392421396981707,-1.8600254689853557
0,-4.143495930847153,-10.388468043434044,-6.47444184579696,-3.888484835179734,-1.85502540052034
0,0.15726602073878934,-3.527972081948852,-0.7636435845218055,-1.4677281599745944,-1.8500253320553277
0,0.6680278939816342,-1.4074773005283392,4.917153857344113,2.643027885624672,-1.845025263590312
0,3.7887896802591197,-1.476983707051341,2.6779504746196694,0.26378330142517414,-1.8400251951252997
0,6.019551370818156,6.683508690798511,5.428746261901523,6.0045380871569485,-1.835025126660284
0,-2.6696870433820963,-1.8460001147042253,-1.1404587865512354,0.9352922423293343,-1.8300250581952682
0,-3.8589255716089976,-10.98551013137265,-6.49966467670428,-2.813954233792901,-1.825024989730256
0,-10.40816422304431,-11.95502136676635,-10.788871414408437,-5.6332013420253375,-1.8200249212652402
0,-10.177403006387731,-1.6545338277375017,-6.748079004975541,-9.692449082943092,-1.8150248528002244
0,-3.0966419295785905,1.3659524796090525,-3.2372874529775193,-6.6616974565774285,-1.8100247843352122
0,-4.385880999806633,1.1264375495465109,-1.7564967623454562,-3.250946462268132,-1.8050247158701964
0,-4.315120223704739,-7.333078623571631,-1.7357069366096416,-9.250196098706041,-1.8000246474051842
0,-0.9143596074963685,0.937403954717295,-2.0449179790615264,-3.049446363998605,-1.7950245789401684
0,0.9964008428934065,2.8778852790668092,0.04587010718312144,0.18130274427733228,-1.7900245104751527
0,-11.86283887824698,-2.8516346557840935,-7.02334268082296,-6.517948771062474,-1.7850244420101404
0,3.6179212236502774,-1.241155855102864,-1.3525563457884526,0.49279909307724534,-1.7800243735451247
0,0.428681143475394,-5.350678324066046,-6.501770890081377,-2.846453659951468,-1.7750243050801124
0,0.9894408762554361,-5.490202067588959,0.7990136843035394,-0.8357070265813357,-1.7700242366150967
0,0.00020041695936692805,-6.299727090171618,-1.3302026243274834,3.115038996886181,-1.765024168150081
0,6.64095976044897,6.01074660414055,-3.429419817475684,3.5957844141511646,-1.7600240996850687
0,3.4617189013749825,1.4012190115441052,-0.9486378964866041,-3.7334707712300355,-1.755024031220053
0,0.6524778340521389,-12.328309871755792,2.1621431374587106,-3.5327265557882095,-1.7500239627550371
0,-2.476763447493445,-7.317840049369565,-5.477076716713259,-3.8119829359164683,-1.745023894290025
0,2.593995050658422,4.642628475623138,3.7137025399978065,-0.9012399077116179,-1.7400238258250091
0,-7.605246677533426,-2.6569042993960608,2.8444809066385326,-2.3304974669857335,-1.735023757359997
0,3.8655113620124366,6.343561623064133,5.40525838213787,3.1202443906339874,-1.7300236888949811
0,0.5362691635099711,6.594026240329582,4.086034965107261,1.070985669567762,-1.7250236204299654
0,-0.6429732788082378,6.394489549331282,-1.2431893462221626,4.051726374134118,-1.7200235519649532
0,2.047784029226296,6.644951546424245,12.317585446036508,5.842466508415645,-1.7150234834999374
0,10.618541081654284,20.79541222724315,17.79835933927501,10.35320607609712,-1.7100234150349252
0,7.68929787214887,18.005871586367075,12.699132329929947,6.803945080250434,-1.7050233465699094
0,9.360054393705333,9.576329616919,13.45990441310425,11.884683523164568,-1.7000232781048936
0,4.450810638511405,6.646786310542287,6.0106755825650575,5.625421406269492,-1.6950232096398814
0,-0.9284334019403957,3.9572416577810587,2.0214458310103205,7.8761587301464315,-1.6900231411748656
0,4.912322263395424,2.6576956484796717,8.242215150412896,7.156895494603658,-1.6850230727098534
0,2.3630776253017203,7.4781482720089985,11.452983532176752,5.807631698746753,-1.6800230042448376
0,5.163832674285958,9.528599517264725,11.40375096696725,4.048367341023608,-1.6750229357798219
0,5.214587400499784,7.779049372501737,8.094517444493215,4.559102419322831,-1.6700228673148096
0,4.075341793665277,7.869497825190973,2.2052829535054927,7.18983693104688,-1.6650227988497939
0,-1.1839041569171185,2.649944862033749,1.1360474820529958,-1.4294291268709967,-1.660022730384778
0,0.4968495377717534,-10.509609530803166,-5.673188982157323,-2.038695757847711,-1.6550226619197659
0,-3.542397133327927,-15.429165367140072,-12.642426451345752,-6.667962965360885,-1.65002259345475
0,-14.831644181113711,-19.738722660029467,-13.361664937179095,-5.377230752626231,-1.6450225249897379
0,-11.090891615929086,-14.408281421152603,-12.850904450325618,-10.556499122363963,-1.6400224565247221
0,-13.570139447140447,-11.39784166060818,-14.150145000227182,-13.045768076585409,-1.6350223880597063
0,-9.929387682935456,-10.157403387056217,-12.42938659502969,-5.125037616397887,-1.6300223195946941
0,1.2013636695893217,-2.156966608008206,-9.568629241610155,0.8356922579816704,-1.6250222511296784
0,-8.707885395878098,-9.336531330129452,-4.247872945707337,-4.133578453094385,-1.6200221826646661
0,-4.177134885132902,-6.276097559424963,-5.0471177121895865,-1.6628497489864773,-1.6150221141996504
0,-5.046384803486883,-0.09566530129083808,-8.9563635452821,4.157878371120925,-1.6100220457346346
0,-5.765635155738489,-13.825234560566365,-11.235610448578619,0.7186059080942534,-1.6050219772696224
0,4.445114053769139,-1.1148053415341395,-2.8548584249069635,2.3393328626819607,-1.6000219088046066
0,2.0758628209277927,4.385622352068734,3.2658925236167593,5.040059235428492,-1.5950218403395944
0,0.9066111415844355,-4.423951483196312,-2.753357604756749,0.8507850266202042,-1.5900217718745786
0,-0.8526409885815776,-5.2335268506779595,-9.47260881163105,-2.868489763704146,-1.5850217034095628
0,1.9481064260076726,1.3068962464572718,-2.941861098324631,-0.1477651356021221,-1.5800216349445506
0,2.3988533808651895,-0.5226821947145434,0.07888553431004708,0.6529589109195241,-1.5750215664795348
0,-1.1804001286037378,-7.482262176951765,0.3396310857691617,4.5136823758822935,-1.570021498014519
0,-4.209654107069041,-5.701843702776891,-4.969624444299047,0.1844052591937259,-1.5650214295495068
0,-2.3989085591111845,2.1385732256914207,-2.4388810561109775,-6.42487243938446,-1.560021361084491
0,-4.728163489055331,0.5589886066729346,-5.038138749618454,-5.12415072002354,-1.5550212926194789
0,-7.687418900866775,-4.9605975614895526,-1.4173975244327006,-6.823429582525525,-1.550021224154463
0,0.8833252019268737,-3.550185280349359,-5.6366573798238555,-6.652709026142699,-1.5450211556894473
0,-2.5259311837974394,3.150225448762796,1.1140816852582622,-4.42198904952563,-1.540021087224435
0,0.9048119390785238,8.950634624631656,1.7048196720966953,-2.3912696507632827,-1.5350210187594193
0,-1.8144454322228916,5.591042245791959,0.2255565820375871,-4.1405508274944856,-1.530020950294407
0,-9.07370330035438,3.511448310237996,-10.76370758356899,-5.719832576987612,-1.5250208818293913
0,-10.492961667626314,-4.528147184534025,-8.392972823114356,-11.159114896067937,-1.5200208133643756
0,-6.782220535681218,-3.4977442412163997,-4.772239134381236,-11.928397780891007,-1.5150207448993633
0,-9.57147990532251,-3.217342862350432,-10.05150651440647,-12.747681226673267,-1.5100206764343476
0,-8.750739776509095,-8.526943050130141,-3.5607749595153213,-10.17696522751509,-1.5050206079693318
0,-7.150000148363894,-9.936544806251716,-4.150044465389072,-2.7662497764298024,-1.5000205395043196
0,1.0507389807504157,-0.7861481317528973,4.630684972770055,0.45446513439059477,-1.4950204710393038
0,-3.468522386999868,1.6142469729276747,4.921413359915089,5.0051795131371986,-1.4900204025742916
0,10.002215750763343,7.564640507588814,10.002140700773348,8.455893367942041,-1.4850203341092758
0,7.022953396278733,5.255032471834157,4.432866999533674,8.646606706499828,-1.48002026564426
0,5.673690551289535,7.075422864784155,2.59359225974731,1.427319535854486,-1.4750201971792478
0,0.054427216923397664,-2.5541883149818867,-3.495683515512002,0.08803186246102962,-1.470020128714232
0,0.01516339386533766,3.436198930723486,2.3350396766377193,2.3487436924440304,-1.4650200602492198
0,5.565899082585001,10.536584599828592,7.505761839012903,3.3294550317605003,-1.460019991784204
0,6.856634283337508,8.206968689849244,7.946482974183546,3.040165886170433,-1.4550199233191883
0,4.637368995978148,-3.0426488023335367,7.817203084167287,5.26087626114953,-1.450019854854176
0,5.898103219830324,0.017732119658605574,10.037922170244792,8.941586161782919,-1.4450197863891603
0,2.6188369536832727,3.878111452026314,3.7786402329031907,3.9622955926299346,-1.440019717924148
0,-0.23042980410354658,2.738489190883042,1.4193572719232588,-2.1269954423100357,-1.4350196494591323
0,0.20030294456582623,1.4188653321430724,2.9500732866054884,1.9837130606098103,-1.4300195809941165
0,-1.9389648022975479,5.119239871461188,2.370788275955606,-3.2555788950664875,-1.4250195125291043
0,-1.4182330466442064,-5.510387195742076,-4.578497761212595,-10.554871305694887,-1.4200194440640885
0,-1.5175017903126617,-4.320015874123495,-5.617784826107683,-8.934164167237446,-1.4150193755990728
0,-8.406771034957398,-18.069646168056156,-8.207072919660261,-7.163457474942765,-1.4100193071340605
0,-4.436040781897424,-7.419278081167987,-7.916362042251372,-1.6127512232710444,-1.4050192386690448
0,-3.315311031972014,0.3110883838913498,-5.9556521935673725,-3.0420454060814093,-1.4000191702040325
0,-9.324581785506668,-2.068546774786108,-5.284943372595368,-4.311340016844526,-1.3950191017390168
0,-2.453853042304236,1.431816441213711,1.3957644222599344,-0.4206350487310178,-1.390019033274001
0,0.7568751983350469,-2.057821969605385,-2.6135288070397587,3.7900695053187796,-1.3850189648089888
0,2.1776029374167574,-2.1674620086795198,-2.05282305834165,-2.5892263475731827,-1.380018896343973
0,4.258330175957056,1.9528963226488196,1.4278816706422792,6.441477399635381,-1.3750188278789608
0,6.13905691474709,-0.9767469768839422,-0.09141461770507715,13.172180753756656,-1.370018759413945
0,-2.5402168457693697,-0.32639190852230426,-0.9507119209779773,3.1728837210649434,-1.3650186909489292
0,-6.949491105384712,-6.506038473460156,-5.360010236735605,-10.166413692801234,-1.360018622483917
0,2.6412341361784515,3.49431332726843,-5.899309562339839,-1.385711482423237,-1.3550185540189013
0,4.571958879383875,2.044663492782867,2.6813901051918627,2.274990357850301,-1.350018485553889
0,1.8426831246610258,5.635012022152393,5.1420887690984785,7.6256918338490225,-1.3450184170888733
0,9.773406872146065,5.315358914155828,6.852786432530268,6.796392951187021,-1.3400183486238575
0,6.744130121501643,7.845704167118346,7.473483098207423,0.44709371498455674,-1.3350182801588453
0,-0.6451471282000896,9.426047778771993,3.0541787682588546,1.9677941298920612,-1.3300182116938295
0,-5.574424878333986,-5.563610253796185,-2.7451265557169053,-8.761505799663132,-1.3250181432288137
0,2.1962968696500003,1.1267300660613815,0.17556712760998372,5.689193930799688,-1.3200180747638015
0,3.6170181144033804,2.3470687348760557,4.156259819519859,6.6298933258540576,-1.3150180062987857
0,2.6677388545313865,-5.052594250809851,2.5069515212192943,-0.3094076100941761,-1.3100179378337735
0,-5.171540911544768,-4.672258894381592,-2.822357766269158,-2.858708872941158,-1.3050178693687577
0,2.959178814505397,2.2180748009954985,0.00833195795217534,-1.658010458688729,-1.300017800903742
0,2.7198980310261724,16.718406832280824,-1.9509793051916051,8.332687636723703,-1.2950177324387298
0,6.080616736259186,3.4787371960685127,7.619708445280265,4.443385417257931,-1.290017663973714
0,2.391334928143382,1.0490658882242745,2.2903952102360745,5.494082886487895,-1.2850175955087018
0,6.09205260421763,6.99939290400003,5.871080990223963,7.2847800474539435,-1.280017527043686
0,3.362769761598215,5.709718238215686,2.071765785376115,1.6254769026501366,-1.2750174585786702
0,0.15348639700173788,2.340041885236843,1.302449595451562,2.2461734540887424,-1.270017390113658
0,-4.945797493116153,0.030363838985935657,-3.7768675800317384,-3.173130296521542,-1.2650173216486422
0,-4.845081912271153,7.98068409306906,1.0638142583949837,-5.682434347526551,-1.2600172531836265
0,-8.874366863654021,-11.568997359124856,-6.925504889690227,-9.491738697025921,-1.2550171847186142
0,-10.863652349874908,-16.408680524131103,-13.72482502441025,-13.021043342537643,-1.2500171162535985
0,-10.922938372741557,-20.44836540773314,-16.19414614520587,-11.150348280689308,-1.2450170477885862
0,-12.032224933077627,-9.43805201432657,-7.973468250411499,-6.869653507052904,-1.2400169793235705
0,-5.7815120306649534,-12.44774034678428,-7.462791337154155,-2.8289590162363014,-1.2350169108585547
0,-3.520799664348397,-9.957430406673021,-2.532115401594319,-5.4582648021412385,-1.2300168423935425
0,-3.4700878322960347,-10.637122194442787,-4.4914404392385885,-0.34757085819712724,-1.2250167739285267
0,-5.219376532217722,-1.8168157095492958,-2.5607664451439227,2.5631228224699747,-1.2200167054635145
0,0.5813342385486082,-4.596510950669495,0.47990658596024804,1.7638162468243865,-1.2150166369984987
0,1.4920444829389667,-0.17620791598093144,2.060578659541644,6.76450942169284,-1.210016568533483
0,9.382754203920955,4.364093396593154,7.2512497810435175,13.585202353530665,-1.2050165000684707
0,6.353463404160505,13.814392989068583,12.851919955583408,17.54589504805128,-1.200016431603455
0,9.564172085725197,4.414690862970875,6.402589187610943,8.186587509816222,-1.1950163631384427
0,5.664880249949128,4.5049870190812715,-1.5467425192323074,10.967279742111034,-1.190016294673427
0,1.285587897456279,3.5052814575248075,5.1239248381129725,5.88797174710701,-1.1850162262084112
0,4.946295028332145,12.375574177909925,8.49459126235073,4.758663526096722,-1.180016157743399
0,6.687001642257938,8.495865179228183,8.955256755736208,4.519355079699059,-1.1750160892783832
0,1.8777077384936403,0.06615445969745185,0.945921319873317,-0.9399535919582506,-1.1700160208133674
0,4.108413315855675,-5.083557983066811,1.5865849557690197,-0.8092624890340738,-1.1650159523483552
0,8.67911837274685,-3.3232721515903982,3.527247664066492,-0.9685716117662106,-1.1600158838833394
0,-0.830177092872814,14.807011951724542,-0.032090554813366284,4.412119039627692,-1.1550158154183272
0,1.2405269165391928,3.0472943243407276,3.328570299358598,4.932809464853254,-1.1500157469533114
0,1.651230398282038,2.267574963204238,3.899230226611023,2.49349966334933,-1.1450156784882957
0,1.7119333495230415,1.2378538647475712,2.8498892267201548,0.8941896342060861,-1.1400156100232834
0,-4.397364232669095,-6.4418689748363605,-4.319452700807231,-2.4251206237317615,-1.1350155415582677
0,-7.886662351179898,-3.9815935592912544,-10.358795556512831,-6.804431111640652,-1.1300154730932555
0,-1.5459610085870028,-5.2213198920418415,2.6418606593614617,-1.4237418304727416,-1.1250154046282397
0,-12.185260206969458,-5.231047976057859,-3.1274840530052916,-2.1130527808303263,-1.120015336163224
0,-6.784559947793596,-7.7507778138090595,-7.916829693127533,-5.6023639629965825,-1.1150152676982117
0,-15.333860231737372,-7.050509407189625,-12.006176260140442,-15.881675376869895,-1.110015199233196
0,-9.62316105849038,-12.670242757402947,-11.84552375246676,-9.010987021640949,-1.1050151307681837
0,-16.502462426610172,-14.429977864778579,-11.234872167518974,-12.23029889547702,-1.100015062303168
0,-7.911764333436911,1.9302852713758956,-1.4442215016576607,-5.829610995463344,-1.0950149938381522
0,-5.37106677515563,-3.2394533473954072,-0.7035717504302516,-2.4889233177635037,-1.09001492537314
0,-0.5303697470670359,2.2908062808733147,-1.6029229089579966,-1.2082358579100236,-1.0850148569081242
0,-8.659673243917116,-3.9489358417231997,-5.482274972162525,-9.367548611038533,-1.0800147884431084
0,0.13102273995573588,-5.458679712978774,0.2783720652532934,-6.026861571881154,-1.0750147199780962
0,-1.828281789415851,0.03157466955488314,2.619018208805691,0.24382526536155524,-1.0700146515130804
0,2.852413174236839,-4.178172691368752,5.409663464047595,1.8345119069296216,-1.0650145830480682
0,1.6731076372191056,5.382078207229572,0.3503078363293767,0.20519835920861784,-1.0600145145830524
0,2.6338016057189297,-2.007672631604896,0.4409513307266014,-0.7941153714481091,-1.0550144461180366
0,1.0144950857345207,-6.4674252048342264,-3.0484060478371173,-3.703429278702898,-1.0500143776530244
0,0.51518808308151,4.102820490680268,-0.6777642944175737,2.0072566438747534,-1.0450143091880086
0,4.855880603423342,5.073064458198981,4.302876596017197,9.947942402759278,-1.0400142407229964
0,7.616572652199479,11.073306700810628,5.803516628456325,1.8686280041930123,-1.0350141722579806
0,9.367264234408715,16.213547220990332,11.924155807553252,3.429313453960968,-1.0300141037929649
0,1.4279553544146544,-2.436213979720196,-0.46520586264059455,-3.7900012425332172,-1.0250140353279527
0,-5.12135398397959,-6.115976900575453,-5.134568378630867,-3.2393160800055396,-1.0200139668629369
0,-1.5606637771646268,-7.285741541010256,-4.343931737084491,0.11136894694902488,-1.015013898397921
0,-1.429974021388392,-5.505507900063256,-4.523295934406279,1.9820538439098936,-1.010013829932909
0,6.290715287272823,0.004724023789317855,-0.3426609666018243,5.562738616474947,-1.0050137614678931
0,2.9014041526892456,-1.9150457675008892,6.417973170593138,0.6734232700436309,-1.000013693002881
0,0.7020925784727595,-2.8148172717395417,-0.3713935185617432,1.6441078097394983,-0.9950136245378651
0,6.192780567931837,-0.9045904865552716,1.4892389699956285,3.244792240452751,-0.9900135560728494
0,5.903468124050458,9.515634590536328,3.549870640127882,-1.6645234331046255,-0.9850134876078371
0,7.39415524936439,1.5158579618923824,1.6805014955167454,-1.8838392063330278,-0.9800134191428214
0,-5.375158054108115,-3.583920370453585,-8.648868460307396,-8.433155074561135,-0.9750133506778091
0,-2.574471784654969,-3.2137004046424504,-6.138239223724223,-6.982471032782721,-0.9700132822127934
0,-3.4137859405006177,4.1165178612734525,2.6423892092747936,-0.9217870754510222,-0.9650132137477776
0,-6.0031005195689175,-7.573265570616122,-5.356983156910722,-5.271103196492123,-0.9600131452827654
0,-6.712415519376162,-7.0330506980450265,1.1136436823499458,-4.600419389421912,-0.9550130768177496
0,-4.701730936929687,0.7371624816157376,-0.4657302681691118,-8.119735647336121,-0.9500130083527374
0,-0.3310467687069477,8.957373971339134,0.6448949963877579,-2.4990519628161754,-0.9450129398877216
0,-1.9703630107942147,5.387583774037433,-2.8444805191002325,-4.718368327913315,-0.9400128714227058
0,3.9803203409129724,0.6277918921855508,4.676143190269299,-3.3676847342252714,-0.9350128029576936
0,10.961003290464948,1.6379983278139145,3.3667661293527846,-0.5270011729837982,-0.9300127344926779
0,2.451685841534728,3.1882030826848053,1.1073883028153606,-0.36631763514929816,-0.9250126660276621
0,-0.48763200274800006,1.748406158364976,-2.191990284913832,2.1843658884394728,-0.9200125975626499
0,-3.2469502396005514,-5.6813924437483845,-3.541369629478172,4.1350494069153605,-0.9150125290976341
0,-3.9162688662482728,-1.1211927222634515,-1.0807497263986683,-0.4842670707571434,-0.9100124606326219
0,-1.1855878796958277,0.3790053243824305,-1.1701305709859424,-6.073583535763222,-0.9050123921676061
0,-0.9649072766893093,8.489201697858535,-0.6495121583782668,-0.6628999792363937,-0.9000123237025903
0,-2.074227053781817,-2.4306036003083316,0.02110551639155822,-0.9322163920772379,-0.8950122552375781
0,-1.6535472073747748,-12.070410568772276,-4.588277541622985,-0.34153276498700047,-0.8900121867725623
0,-5.2128677336935,-12.510219205937027,-10.217661327171484,-1.6708490885608878,-0.8850121183075501
0,0.7178113712765443,3.749970490523916,-4.337045834558868,0.38983464668184253,-0.8800120498425343
0,0.5384901117739769,-0.5098414763862888,3.9435689424776257,5.490518450256105,-0.8750119813775186
0,0.24916849213205017,-9.72965510335008,-1.925816989448499,-4.438797668401994,-0.8700119129125063
0,0.9798465166657777,-4.159470386785755,3.9047963763235494,5.141886300019134,-0.8650118444474906
0,1.160524189634407,1.0107126773296722,5.205409046325785,1.3425703647246985,-0.8600117759824784
0,7.1412015151798585,6.550894093346363,10.956021026780927,6.583254534735142,-0.8550117075174626
0,7.781878497154228,10.471073865514242,7.0366323233268435,11.66393881869057,-0.8500116390524468
0,4.1325551389008215,2.0112519975783933,9.1072429408237,11.344623224574372,-0.8450115705874346
0,8.093231443147669,7.161428492642083,2.587852883337752,14.66530775940953,-0.8400115021224188
0,7.593907411994073,-1.0583966467265742,3.7984621542799792,14.655992429034189,-0.835011433657403
0,9.864583046853404,5.791776581655822,8.519070756556397,15.636677237952034,-0.8300113651923908
0,15.72525834830086,6.761948179642705,14.409678692522961,20.097362189201277,-0.825011296727375
0,9.825933315876023,4.282118148667399,6.640285963720952,17.98804728420354,-0.8200112282623628
0,7.94660794796979,3.742286489654351,8.580892570724208,15.958732522643318,-0.8150111597973471
0,4.257282241950625,1.0624532030749376,0.6314985132478584,9.999417902509906,-0.8100110913323313
0,1.727956194448441,3.792618289068431,2.492103790412312,5.000103420379266,-0.8050110228673191
0,-5.821370198322402,1.2827817475182275,0.8427084010002392,6.4707890718002306,-0.8000109544023033
0,0.839303059772066,-0.10705642191015971,-3.0766876563655106,9.75147485158357,-0.7950108859372911
0,2.2999759649790756,-6.2768962196557805,-4.256084383056268,6.742160753839781,-0.7900108174722753
0,1.800648513577873,1.0332623539385084,3.8645182197114836,4.892846771943696,-0.7850107490072595
0,2.8113207017169195,-6.886580701229734,1.1451201508468754,-0.526467101370525,-0.7800106805422473
0,3.2019925253314803,-3.6064253849570957,0.6557214092079344,3.5742191262214997,-0.7750106120772315
0,-0.6173360198787001,1.61372830330208,3.8063219935047017,1.4849054468042597,-0.7700105436122158
0,8.173335061554901,2.553880364332018,7.286921902232516,4.245591852255364,-0.7650104751472036
0,2.114005764815995,8.374030798874063,-0.1024788664501945,5.506278334177024,-0.7600104066821878
0,-1.9153239152530386,-1.7958203926330398,4.198119685228409,0.34696488382175916,-0.7550103382171756
0,5.955346015926689,8.564326789862143,2.298717554727493,1.4576514921110408,-0.7500102697521598
0,1.0660155527512858,1.1944723460419489,2.989314739236794,-3.3816618502200666,-0.745010201287144
0,4.7466846893789185,-2.0053837247486253,4.8799112356568894,-3.490975152430399,-0.7400101328221318
0,7.4073534196343775,1.7847585766328942,4.670507040551925,-4.250288423579866,-0.735010064357116
0,0.938021736921207,8.99489924922106,4.741102150076184,-2.4696016724087495,-0.7300099958921038
0,4.2686896341995855,0.18503829180866094,-1.4883034400281612,-2.408914907323176,-0.725009927427088
0,2.3593571040702166,-4.414824297150132,-1.4077097342913867,-11.55822813638486,-0.7200098589620723
0,3.3400241388320353,-5.094688519299522,1.2628832626937685,-4.897541367169116,-0.71500979049706
0,1.7506907304952506,-7.25455437601242,-1.8865244536271608,-6.216854606599702,-0.7100097220320443
0,0.45135687081786957,-1.3944218681846383,1.2940671122289809,0.5738321390232386,-0.705009653567032
0,-3.487977448588833,4.085709003712484,0.3946579557550818,-0.08548113619620534,-0.7000095851020163
0,2.432687763875018,4.365838239341185,6.7652480723860045,3.9952055619821794,-0.6950095166370005
0,-6.6866475001022785,0.9959658381788965,-1.604162542631506,2.0158922277172895,-0.6900094481719883
0,-0.8159832486721492,2.076091799417473,-2.0735738942662927,1.2465788549642172,-0.6850093797069725
0,-2.7553194897422704,12.956216121949891,1.1270140124495915,0.25726543747418895,-0.6800093112419567
0,-5.214656230943946,-4.423661195744769,-3.8123988274474714,-1.5820480311148417,-0.6750092427769445
0,4.746006520350505,-4.643540155582363,0.048187581191522624,0.5686384428150805,-0.6700091743119287
0,2.916668756899068,1.7965792404579384,4.7687732336082655,7.3493248528698905,-0.6650091058469165
0,10.747330471291713,11.306696990481651,12.70935812493611,8.88001119243848,-0.6600090373819008
0,0.6079916556644862,4.716813092365179,6.42994224980897,4.160697454392878,-0.655008968916885
0,-1.0513476983476389,0.6969275434377045,-2.08947439786698,-5.588616368965308,-0.6500089004518728
0,-7.910687599339269,-2.032959659435161,-2.2988918246907253,-9.727930285554319,-0.645008831986857
0,-8.200028055702955,-10.492848519483148,-5.698310037330828,-1.7872443029956249,-0.6400087635218448
0,-11.949369075247617,-8.292739039602687,-11.897729042147494,-8.366558428350137,-0.635008695056829
0,-11.84871066492187,1.8973687779302526,-8.507148844881913,-7.385872668093067,-0.6300086265918132
0,-10.438052830636112,3.10747493134487,-7.656569450436366,-8.405187028061748,-0.625008558126801
0,-14.18739557718783,-9.102420580954249,-9.68599086283074,-9.544501513345079,-0.6200084896617852
0,-4.97673890825519,-2.7423177604314595,-6.35541308525082,-6.393816128223243,-0.615008421196773
0,-10.296082826488968,-14.262216608154356,-10.104836120075817,-5.1831308761901305,-0.6100083527317572
0,-9.935427333638097,-12.382117124462788,-14.324259968836875,-12.122445760023428,-0.6050082842667415
0,-12.064772430549194,-10.82201930868799,-14.223684632044653,-12.221760781727717,-0.6000082158017292
0,-5.324118117103517,-10.391923159016592,-11.643110108986006,-16.44107594230188,-0.5950081473367135
0,-6.323464392265412,-13.611828672516648,-13.91253639764929,-15.910391241473585,-0.5900080788716977
0,-10.042811254236328,-13.621735845122755,-8.781963494772484,-14.929706677521098,-0.5850080104066855
0,-8.522158700487042,-6.54164467158202,-7.341391395956372,-11.359022247233481,-0.5800079419416697
0,-6.9015067276865265,-14.681555145500132,-8.230820095841713,-11.79833794601987,-0.5750078734766575
0,-5.11085533170864,0.5785327405242138,-2.160249588290184,-8.04765376807549,-0.5700078050116417
0,0.50979549221341,-4.161381005317464,-6.36967986653736,-9.92696970654234,-0.565007736546626
0,-1.6795542507472945,-0.4012963743536574,-0.4791109233372768,-7.206285753625321,-0.5600076680816137
0,1.5510954447598655,1.9487866423116715,1.4214572488921755,2.334398099262551,-0.555007599616598
0,2.231744584115286,1.4988680536316479,7.312024657842954,2.695081861186959,-0.5500075311515857
0,11.972393172552248,-0.5710521315103336,11.742591310954147,7.015765541258287,-0.54500746268657
0,8.463041214853185,13.399026095601291,12.483157215005338,9.586449148244759,-0.5400073942215542
0,9.173688715035606,5.169102743297138,8.753722375801935,5.507132690311756,-0.535007325756542
0,7.324335676237939,1.5291778192879566,8.854286798096574,12.187816174880192,-0.5300072572915262
0,10.944982100735398,14.489251330647493,12.074850485656242,15.058499608503901,-0.5250071888265104
0,3.745627989974209,6.709323283792333,4.615413441315104,10.359182996669109,-0.5200071203614982
0,0.8662733446693958,3.919393684354519,1.5459756670744162,9.489866343671562,-0.5150070518964824
0,-0.2230818349308939,9.94946253720163,3.4065371643604205,3.000549652739867,-0.5100069834314702
0,-7.3824375487196585,-2.260470153421106,0.5970979342697458,3.1612329263181045,-0.5050069149664544
0,-5.921793796407246,-10.780404383647937,-2.8623420222859504,-4.818083833600388,-0.5000068465014387
0,0.2588494227059594,-8.90034014947943,-5.231782704409516,-3.4074006251300806,-0.49500677803642645
0,-3.540507890267303,-6.560277446271978,-9.371224110950022,-5.876717446187943,-0.4900067095714107
0,-5.849865733910033,-3.0002162686024296,-4.280666240244532,-6.156034294285286,-0.48500664110639846
0,-8.229224106457137,-7.770156610404402,-3.6401090900172735,3.4246488335213017,-0.4800065726413827
0,0.5814169943539991,-4.620098465071318,-0.18955265748523642,7.645331940433573,-0.4750065041763669
0,-4.207942428738783,-5.790041825452177,-5.008996939535967,-3.3439849704502578,-0.4700064357113547
0,-5.157302372649464,-10.619986683813897,-11.828441932743193,-10.9033018962113,-0.4650063672463389
0,-2.8466628339588604,-1.6999330317829244,-3.957887633156964,-8.872618833694636,-0.4600062987813267
0,-7.926023808842335,-15.669880860292508,-4.18733403615037,-6.601935779056769,-0.45500623031631093
0,0.21461470697052076,-1.7898301595262271,-2.2067811365186616,-0.44125272767964174,-0.45000616185129516
0,-1.5847472818548805,-0.229780918944948,2.9837710712997465,1.889430325577281,-0.44500609338628294
0,3.8558902295649196,4.1802668724277305,1.5243225929911972,3.900113386013549,-0.44000602492126717
0,0.27652724611809265,5.640313225580272,2.394873434161839,-1.9592035411687792,-0.4350059564562514
0,-8.922836227362424,-10.849641848707678,-7.224576399712211,-6.338520450869334,-0.4300058879912392
0,-3.2922001859005348,-4.389598339670584,-3.0440269031030764,0.022162662130813693,-0.4250058195262234
0,-2.991564624127597,-5.539556236169992,-9.62347807015581,-1.0271541966856086,-0.4200057510612112
0,-6.600929536224022,-8.039515526492057,-9.472929894447168,-11.006471021580714,-0.4150056825961954
0,-7.790294915919,-8.569476198300869,-12.682382368778994,-8.865787806417899,-0.41000561413117964
0,-4.649660756392095,-6.349438238557211,-5.601835485011382,-5.4651045443851,-0.4050055456661674
0,-1.6990270502322202,0.1905983664738894,-7.681289234066329,-4.994421227908107,-0.40000547720115165
0,-8.338393789538042,-2.0693663689750794,-6.12074360607332,-7.383737848764041,-0.39500540873613943
0,-7.547760965935752,-10.17933243035924,-3.180198590497277,-9.813054398119569,-0.39000534027112366
0,-7.73712857044775,-5.849299802741046,-9.069654176226845,-7.772370866432649,-0.3850052718061079
0,-3.916496593393713,-4.579268470590914,-15.239110351524394,-5.091687243370818,-0.38000520334109567
0,-2.5358650244654912,-11.139238417726236,-7.188567103790798,-0.9910035179045955,-0.3750051348760799
0,-0.07523385291715073,-13.639209627238222,-4.918024419425895,-0.43031967854189745,-0.3700050664110677
0,-2.0346030677497913,-4.30918208130617,-5.817482283985882,-1.7196357135619535,-0.3650049979460519
0,-1.7339726578194319,-4.869155761176221,0.7530593175583891,0.3210483888649669,-0.36000492948103613
0,4.046657388128806,0.1808693525785665,9.353600400536711,7.5717326405964975,-0.3550048610160239
0,6.507287081324802,10.010893279687565,12.144140980121579,12.722417053259102,-0.35000479255100814
0,10.787916432679802,1.600916039763149,8.974681070809924,8.463101637845215,-0.34500472408599236
0,9.328545452461965,9.280937651982619,5.845220686168189,10.56378640442494,-0.34000465562098015
0,10.689174150069695,15.540958134899185,13.215759838861679,8.974471362091819,-0.3350045871559644
0,10.43980253393236,-0.6290224937478166,5.116298540693061,11.73515651898016,-0.33000451869095215
0,4.6004306115157085,0.9609957829872426,3.536836802642897,7.9158418822542025,-0.3250044502259364
0,-1.0889416105194938,-0.8989870183794212,-2.0826253649282966,-1.1434725418204132,-0.3200043817609206
0,-0.7583141259669608,7.431029118529409,-1.1920879519359344,0.36721325241907476,-0.3150043132959084
0,-4.937686928710571,-5.478955790042252,3.278449051673011,-8.022100729547729,-0.3100042448308926
0,1.0729399875086787,-2.6689417279566436,-0.731014344052159,-1.6014144820691387,-0.3050041763658804
0,-1.3464333708647607,-5.898928678950404,-7.860478129073604,-5.740727999130313,-0.3000041079008646
0,2.184193002720422,-7.238916626386453,-1.9299422931955612,-4.100041274297663,-0.29500403943584885
0,1.3148191148063855,-3.9489055531139736,-1.7794068258806266,-3.7593543007193047,-0.29000397097083663
0,-3.3745550281296675,-6.008895441425347,-1.4688717162724174,-6.408667071112335,-0.28500390250582086
0,2.3860705803637283,0.18111372688980287,-0.27833695331720315,-3.0479795777471193,-0.2800038340408051
0,1.6066959467488782,6.861121970354531,3.0121974741365807,4.282708187504606,-0.27500376557579287
0,2.1873210774220917,12.241129307414049,10.312731577159107,12.19339623288221,-0.2700036971107771
0,9.297945978574333,7.411135755952337,11.153265366410242,11.704084566214489,-0.2650036286457649
0,6.898570655993604,4.69114133302869,8.003798851778388,7.814773194466046,-0.2600035601807491
0,3.0291951148798337,3.0311460549595637,5.654332042247081,10.655462123596239,-0.25500349171573333
0,0.9498193598605074,1.7811499375495252,0.6148649460303942,-0.08384864134012646,-0.2500034232507211
0,3.200443395186374,-2.618847003693886,0.7553975708555025,-0.42315909593450646,-0.24500335478570534
0,-2.158932775107645,2.4211552466185773,-2.514070075763601,-5.792469236034756,-0.24000328632069312
0,-3.6683091470698264,-11.028843296081801,-5.673537986294403,-5.341779057364437,-0.23500321785567735
0,-6.75768571662395,-4.578842616103007,-3.163006152976939,-3.0810885552754366,-0.23000314939066158
0,-5.487062479328082,-0.3488426972794515,-2.4524745676947735,-0.18039772470491322,-0.22500308092564936
0,-8.64643943020332,-8.588843522963593,-2.511943221988334,-9.219706560250884,-0.22000301246063358
0,-2.3058165636614545,-5.818845076072143,-10.601412107070793,-0.5490150561699938,-0.21500294399562137
0,-1.6851938735548533,3.881152660946608,-3.3408812137054937,-4.7083232063169245,-0.2100028755306056
0,-4.29457135334226,6.571149705933671,-5.000350532081928,-10.2776310041232,-0.20500280706558982
0,-1.4139489961973746,2.611146076605926,-2.6498200518560155,-8.826938442474951,-0.2000027386005776
0,-7.723326795002104,1.2611417903107371,-4.809289762260018,-2.7762455135331927,-0.19500267013556183
0,4.377295257690869,9.311136864028002,4.0012403478036145,3.1644477911913302,-0.19000260167054606
0,2.227917169550656,9.301131314305415,4.8217702895787165,5.555141480455861,-0.18500253320553384
0,5.17853894819781,14.161125156990765,6.222300074138296,6.965835562844738,-0.18000246474051806
0,3.9391606009616416,-1.9688815929747059,5.092829712129907,3.6065300464882615,-0.17500239627550584
0,5.129782134774783,3.921111078572971,4.08335921368358,5.147224938988604,-0.17000232781049007
0,6.440403556121074,11.00110318530651,7.343888588417005,3.6879202474654136,-0.1650022593454743
0,9.231024870956494,18.02109474033931,10.544417845394511,7.638615978583104,-0.16000219088046208
0,11.021646084562322,15.941085755763224,15.624946992930017,11.919312138465443,-0.1550021224154463
0,8.672267201372447,4.3610762423059075,7.155476038324575,7.050008732504054,-0.1500020539504341
0,5.932888224906378,13.201066209419064,5.6760049877980965,8.440705765221484,-0.14500198548541832
0,2.383509157884848,-7.528944334376753,-1.9334661532628588,1.2014032403353943,-0.14000191702040254
0,5.3941300024405505,-0.7489553810598744,3.1070626200806175,7.142101160936906,-0.13500184855539032
0,8.304750760241939,6.461033077298243,6.457591312539832,6.2727995296116195,-0.13000178009037455
0,6.695371432421191,4.611021048569986,8.328119928519435,7.153498348409844,-0.12500171162536233
0,2.635992019484998,3.701008540321686,2.7086484719034103,7.934197618747304,-0.12000164316034656
0,-6.8133874785655575,-5.769004440256356,-5.460823053936906,4.404897341361735,-0.11500157469533079
0,-5.282767061838832,6.570982113839406,-6.5302946457973015,-2.724402483600882,-0.11000150623031857
0,-7.972146730122829,-0.9690317904491115,-8.779766300181288,-3.4837018563043953,-0.1050014377653028
0,-10.141526482606547,5.190953853690076,-8.659238012967872,-5.303000776853037,-0.10000136930028702
0,-0.8209063177663183,0.6509390528492037,0.7612902206818455,-6.382299245015002,-0.0950013008352748
0,-12.70028623338441,-12.939076186522636,-8.268181593791187,-11.171597260040349,-0.09000123237025903
0,-8.939666226552838,-15.659091857710706,-7.617653450462428,-10.760894820459328,-0.08500116390524681
0,-6.5390462935625076,-3.8191079531698846,-5.857125342849624,-10.490191923878125,-0.08000109544023104
0,-2.118426429888609,0.41087553561852463,-1.1665972638455453,-9.389488566888083,-0.07500102697521527
0,3.5521933695557473,10.070858617701196,6.593930794096096,-4.498784745110417,-0.07000095851020305
0,11.89281310998935,18.060841301942954,13.944458838504413,8.991919546552001,-0.06500089004518728
0,11.373432796235187,16.530823596314114,17.584986876288543,3.8726243134109577,-0.06000082158017506
0,5.93405243229334,7.090805507430787,9.575514913206979,-1.65667043946719,-0.055000753115159284
0,2.4146720212792574,1.1607870406252994,2.966042953744702,3.9640352926655353,-0.05000068465014351
0,3.1052915656646234,7.24076820038544,4.056571001426647,3.5247415143520366,-0.04500061618513129
0,6.4359110675040965,-1.2492510092851963,4.247099059205795,2.6754482299038607,-0.04000054772011552
0,6.056530528449514,6.750729415270857,6.8376271296097,1.0861554433462117,-0.03500047925509975
0,0.20714994968029354,2.1907094773950035,1.9081552147173362,4.006863158446022,-0.03000041079008753
0,-0.7822306680237717,12.670689180037716,3.2886833161619484,0.6675713787419723,-0.025000342325071756
0,-4.86161132402547,1.9206685255924678,8.859211435181074,-2.1017198924199585,-0.020000273860059536
0,-3.7309920175627616,-9.91935248409021,-4.850260427381678,-2.301010651756035,-0.015000205395043764
0,-5.400372747552287,-14.669373847221719,-10.76973227091458,-10.810300895827345,-0.010000136930027992
0,-8.409753512469077,-20.03939556129574,-9.409204094545164,-11.279590620727701,-0.005000068465015772
0,-10.549134310203328,-10.829417622485655,-7.978675896665061,-8.82887982176334,0.0
0,-3.0685151379047255,5.440559974414482,-0.3881476748346806,2.0318315066548793,0.00500006846501222
0,3.042104007953457,10.100537235390298,2.7223805739650873,0.5125433707239648,0.010000136930027992
0,-0.847276868749703,-5.8294858335968565,-4.3870911470206115,-3.416744223139261,0.015000205395043764
0,1.1933422359060928,-1.299509226870274,0.5234371655164938,-3.266031268429821,0.020000273860055984
0,0.6139613257834852,-3.3295329387685713,-1.2060344850255977,-7.405317758418644,0.025000342325071756
0,1.2145804046819995,7.200443036535813,-1.195506095140943,-5.0046036859653755,0.030000410790083976
0,0.08519947632350969,1.840418704872,1.8250223387530593,-3.0038890434209926,0.03500047925509975
0,1.7758185443515115,4.430394071823448,2.4255508202484304,2.146826177308633,0.04000054772011552
0,0.606437612325252,-1.72963085734592,-3.483920647129024,0.17754198454139014,0.04500061618512774
0,1.2770566837084951,2.5703439224033606,5.346607940071082,1.2182583866061876,0.05000068465014351
0,7.877675761817801,-3.5796815839854514,4.927136585197426,-0.35102460823421444,0.055000753115159284
0,8.858294849654282,1.8202926284282879,8.72766529130067,3.6496930082080667,0.060000821580171504
0,5.288913949647291,5.4602665645860915,0.5481940609250386,0.8604112440067085,0.06500089004518728
0,-0.22046693642528364,5.410240229268514,5.108722896100083,0.31113010708238076,0.0700009585101995
0,2.440152192749707,1.680213626892472,-0.8007482015271653,-0.4081503947696531,0.07500102697521527
0,-2.5992286617331275,-2.2798132384942673,-3.520219230521216,3.142569746185114,0.08000109544023104
0,-7.17860949878942,-1.809840363003345,-4.259690189434373,-0.26670946239468224,0.08500116390524326
0,-6.3279903170835485,4.360132257280405,-2.0091610765861763,-3.755988012926672,0.09000123237025903
0,-2.507371114799825,7.350104626232221,-2.348631889985339,-4.085265897774925,0.09500130083527125
0,-2.3167518896262544,1.7500767474368222,0.6318973726097642,-0.48454310907944176,0.10000136930028702
0,3.003867361077007,0.3800486240704919,0.7024267135828198,6.676180361236433,0.1050014377653028
0,-4.135513359913326,-7.979979740921091,-0.1270438646519608,2.1769045212103864,0.11000150623031502
0,-2.9548940497405303,-3.2800083444791976,-3.156514359685845,-1.1323706213708564,0.11500157469533079
0,-7.714274705337308,0.9299628168017577,-6.125984769013435,2.2783549410533777,0.12000164316034301
0,-9.203655323201398,-8.360066253334136,-7.335455089818304,-1.1009187840580776,0.12500171162535878
0,-0.5930358992246111,4.719904449127522,-0.6049253188021331,2.9098082106947016,0.13000178009037455
0,-1.3424164287327311,-0.770125071606558,-1.4343954522068656,3.4605359326108953,0.13500184855538677
0,0.6182030932684098,6.749845188673618,2.3961345139837285,6.351264388773749,0.14000191702040254
0,8.498822671827382,15.659815233882156,13.796664583756735,8.641993585868166,0.14500198548541832
0,1.2994423117906908,0.25978506729340295,4.107194760687997,1.192723530028572,0.15000205395043054
0,4.020062017629782,-3.5602453085343253,3.437725047679254,3.1834542268471617,0.1550021224154463
0,2.640681793447587,1.2997241086045936,1.6782554470375997,1.4241856815392817,0.16000219088045853
0,-0.06869835694998461,-2.650306679072145,-0.4412140392775267,0.5149178990845996,0.1650022593454743
0,2.231921570030071,7.829662330708105,2.6393165905171654,1.3856508843032982,0.17000232781049007
0,0.9725415778337396,8.659631140061158,2.2998473380825533,-1.9436153580771112,0.1750023962755023
0,-3.2468383301925328,1.2095997506555356,3.680378204905027,-2.002880823343043,0.18000246474051806
0,-3.5362181506919184,-10.690431836295312,-5.65909080773103,1.8978544932907915,0.18500253320553028
0,-7.86559788009109,-6.790463619579667,-7.998559698560381,-3.531409403302044,0.19000260167054606
0,-9.924977514363446,-12.100495597437687,-7.788028465973008,-0.6606725081681675,0.19500267013556183
0,-4.2243570488207745,-11.340527767245257,-8.27749710771017,-4.969934816211918,0.20000273860057405
0,2.146263521889604,-2.780560125413042,-0.7769656207952518,5.380803677848776,0.20500280706558982
0,0.3768842035098332,8.109407332417966,-0.3764340016868223,2.2615429793706454,0.2100028755306056
0,6.86750500181627,5.949374610823467,7.264097753396182,6.542283093544058,0.2150029439956178
0,1.798125922366777,12.289341714000873,7.044629648099633,4.173024025190615,0.22000301246063358
0,-0.9412530295921027,-0.3506913545488686,0.2651616856438242,-1.1162342212887986,0.2250030809256458
0,5.009368150943233,-0.18072459195655677,4.725693868783022,3.2845083581878396,0.23000314939066158
0,-0.85001053119086,-3.1307579956533704,-3.003773800051518,0.8852517675163254,0.23500321785567735
0,-0.259389071307242,-5.190791563022242,5.9867586813861715,-0.1740039895455302,0.24000328632068957
0,1.6812325351916568,8.689174708748926,0.9672913151836191,2.7167410906420124,0.24500335478570534
0,5.711854292827588,6.499140822487425,6.99782410318886,4.937487011585829,0.25000342325071756
0,7.652476205886783,13.989106780605654,6.698357046874016,7.758233776527616,0.25500349171573333
0,7.773098278174589,9.02907258470262,6.038890147197794,10.87898138820616,0.2600035601807491
0,5.223720512845536,9.599038235376714,11.069423404481338,14.729729848585656,0.2650036286457613
0,0.4843429124178955,-0.19099626771621753,2.619956818335042,11.830479158584643,0.2700036971107771
0,-8.405034520974509,-4.751030925542536,-0.5595096122828253,6.64122931794248,0.2750037655757893
0,-5.554411785155432,-9.591065739175077,-4.848975888774292,1.6819803253689696,0.2800038340408051
0,-4.283788877519956,-7.551100709289351,-9.828442012473689,-0.6072678210834698,0.28500390250582086
0,-3.3931657949357525,-4.951135835877923,-2.1079079842872606,-1.4265151236340239,0.2900039709708331
0,-10.892542533778864,-6.201171118237818,-14.647373804501575,-3.8257615845047304,0.29500403943584885
0,-8.421919089845002,-9.791206555032124,-7.436839472654377,-7.235007205720753,0.3000041079008646
0,-6.991295458177628,-10.501242144227714,-7.1863049874137825,-2.1842519889422767,0.30500417636587684
0,1.0593283669390756,-3.8212778829747815,-5.0357703465989125,-2.383495935393332,0.3100042448308926
0,-0.20004760827875853,-4.351313767642985,-2.575235547359591,-6.49273904592364,0.31500431329590484
0,1.720576622563256,3.378650205937009,2.495299413606922,-3.2719813210174196,0.3200043817609206
0,0.6212010658385805,-3.3313859578106224,2.0758345397899864,-6.461222760735322,0.3250044502259364
0,-1.0481742721537728,-3.961422254350454,-3.343630165348738,-8.190463364635464,0.3300045186909486
0,-9.647549385093557,-9.491458678928112,-6.173094698349201,-4.289703131695964,0.3350045871559644
0,-5.666924266378008,-0.3314952263496404,-6.7325590555040735,-5.038942060284366,0.3400046556209766
0,-9.376298908835887,-12.731531890872024,-5.662023232613675,-4.128180148223965,0.34500472408599236
0,-4.815673304588965,-8.32156866612537,-8.121487224873684,-2.0174173928868893,0.35000479255100814
0,-7.9250474450549495,-8.951605544950025,-9.690951026813984,-5.096653791265517,0.35500486101602036
0,-6.974421320977337,-11.111642519285933,-6.940414632212776,-2.5258893400073625,0.36000492948103613
0,-10.553794922400883,-3.541679580173363,-9.839878034031639,-8.59512403538695,0.36500499794604835
0,-13.403168238555795,-18.01171671778219,-15.869341224356996,-8.944357873185423,0.3700050664110641
0,-13.352541257660484,-7.501753921343155,-9.098804194245668,-5.233590848527878,0.3750051348760799
0,-10.43191396675455,-13.061791179013397,-11.858266933600294,0.267177044137794,0.3800052033410921
0,-12.06128635167408,-10.721828477831949,-15.987729431158405,-12.712054189104316,0.3850052718061079
0,-7.950658397123218,-8.051865803759242,-7.07719167447211,-6.251284541649343,0.39000534027112366
0,-7.6300300867907405,-11.871903141730739,-6.936653649952404,-3.710514006229324,0.3950054087361359
0,4.230598596440766,-4.861940475729444,-0.7661153431172849,-4.0797425749240155,0.40000547720115165
0,7.471227670089361,-1.931977788912523,6.144423261021835,-0.8589702393443708,0.40500554566616387
0,17.601857151460592,9.177984936069318,9.714962177482434,4.391803009172341,0.41000561413117964
0,6.482487057063649,3.9079477165795855,7.345501420839201,4.982577179303098,0.4150056825961954
0,8.893117402345725,1.3379105696200804,3.0860410049677935,3.1633522794696125,0.42000575106120763
0,17.403748201718916,9.597873511746457,11.376580943057293,8.514128317682667,0.4250058195262234
0,15.15437946849109,11.46783655901116,8.577121247617637,7.974905301431416,0.4300058879912356
0,14.92501121461671,14.03779972669595,8.337661930364263,7.415683237548237,0.4350059564562514
0,22.005643450522843,23.287763028936006,9.618203002138245,6.956462132124519,0.44000602492126717
0,13.09627618500011,5.217726478419264,2.6287444729526035,5.627241990531902,0.4450060933862794
0,9.526909425202135,-0.5923099135531642,3.739286352123677,3.79802281749734,0.45000616185129516
0,2.5175431769314627,1.9976538634789565,-0.3901713514999411,9.298804617178948,0.45500623031631093
0,6.868177445084533,3.4376178196594966,6.310371370639821,7.509587393145526,0.46000629878132315
0,7.188812233945471,-0.3224180350405701,1.0409145268506397,8.800371148262004,0.4650063672463389
0,10.24944754718829,-0.21245369081043183,3.1014581251506637,11.711155884583807,0.47000643571135114
0,2.4900833877789434,-3.5024891378982757,7.542002173248189,2.8319416033033153,0.4750065041763669
0,1.5607197580211218,-1.7625243664605754,1.0525466784841644,2.6027283048396814,0.4800065726413827
0,4.131356659771416,13.907440633439021,10.893091647749443,7.123515989064286,0.4850066411063949
0,14.031994094519531,9.92740587148879,12.743637087352042,6.874304655396429,0.4900067095714107
0,6.442632063171647,18.007371356582,15.824183002723684,10.27509430268563,0.4950067780364229
0,7.5232705658060635,8.587337096430494,9.874729398112914,10.155884929028064,0.5000068465014387
0,13.643909601635405,-1.2226969024397993,10.445276276510393,12.386676531612856,0.5050069149664544
0,16.174549168924123,4.24726936568823,14.305823639741435,14.797469106572478,0.5100069834314667
0,-2.464810735166166,9.73723590609509,7.776371488515501,6.8682626488748415,0.5150070518964824
0,7.745829885573887,10.097202723585356,10.386919822454997,12.32905715234301,0.5200071203614947
0,9.146471026721375,13.427169822182904,13.40746864015034,10.109852609750337,0.5250071888265104
0,-0.5928873166888017,4.767137204925557,-0.011982060790606847,5.1706490128853755,0.5300072572915262
0,-1.5222451501046708,-3.602895126040149,-6.551432283508509,1.0314463526931177,0.5350073257565384
0,-3.131602479164869,0.8670728309535094,-3.320882031355479,-1.8777553804060614,0.5400073942215542
0,-7.88095930937266,14.507041077397373,0.8196686925514146,-0.08695619616889927,0.54500746268657
0,-7.200315645837739,-4.3629903855163175,-3.9297801146191222,-0.7861561043348131,0.5500075311515822
0,1.3503285068703421,-6.553021556979219,-0.7892284555093833,9.394644885361377,0.555007599616598
0,-2.5490268553633944,2.2769475637640295,2.3713236673890425,14.615446762910866,0.5600076680816102
0,-19.838381736294252,-14.923083022238103,-16.388123748255097,-10.203750482313886,0.565007736546626
0,-23.367736138950182,-19.423113313353454,-23.717570704272703,-26.722946861286744,0.5700078050116417
0,-12.737090064932467,-6.983143306903776,-13.557017201288293,-8.562142384319207,0.5750078734766539
0,-9.026443514126763,-9.633172998924353,-9.686463238286933,-6.021337060341618,0.5800079419416697
0,-7.675796484995053,-7.793202384348353,-8.615908812792945,-8.920530897057679,0.5850080104066819
0,-6.395148974992825,-0.07323145727847843,-0.895353921286211,-7.619723901317045,0.5900080788716977
0,5.855499019122582,1.2667397887375504,4.925201440377353,-1.4889160792493825,0.5950081473367135
0,4.356147500900504,0.7967113603676936,3.4157572765032773,5.131892563551705,0.6000082158017257
0,0.7667964737677061,-1.473316735726989,-2.0636864087787217,0.06270202166385108,0.6050082842667415
0,5.347445940837957,1.8466555070789594,0.8368703884653388,2.383512289540823,0.6100083527317537
0,3.8380959049003747,13.356628095312082,2.3674276720983887,5.244323361431565,0.6150084211967695
0,-1.6012536315803658,9.766601035077327,-0.9220145540696677,3.1551352313150156,0.6200084896617852
0,4.289397333599267,5.996574331681046,7.778543713650607,3.125947892827188,0.6250085581267975
0,3.1100488024526047,2.116547989578456,3.4491024787091735,-2.2632386607180908,0.6300086265918132
0,-2.5892992232107024,5.32652201260143,-1.0603382557956207,-3.3024244361534505,0.635008695056829
0,-3.568646741701361,8.596496404118144,-1.319778487043542,-8.071609440194937,0.6400087635218412
0,-12.15799375117815,-3.603528832974235,1.3607817877177368,-7.3107936791603985,0.645008831986857
0,-14.8373402492396,-2.263553696133134,-11.24865742867196,-9.009977158747219,0.6500089004518692
0,-16.05668623247678,4.496421817101618,-6.728096133066852,-7.149159883904398,0.655008968916885
0,-14.376031696143157,-6.6536022907605386,-2.7275343217571364,-8.538341858799235,0.6600090373819008
0,-8.675376634068733,-4.7236260171075655,-11.536971990383812,-11.157523086798294,0.665009105846913
0,-3.7047210388406935,-18.653649358950226,-16.206409133876413,-13.166703570375857,0.6700091743119287
0,-10.964064902126392,-20.52367231241361,-14.915845746150971,-16.945883310921253,0.675009242776941
0,-5.953408214854936,-8.363694872234436,-9.34528181981256,-10.015062308548197,0.6800093112419567
0,-0.9127509672622871,2.076282968273251,0.10528265376880297,-0.45424056211431607,0.6850093797069725
0,9.217906850890378,7.976261216615727,5.915847683989301,2.7665819303744827,0.6900094481719847
0,6.668565249819682,-5.583760119607484,5.196413280383717,7.237405171165,0.6950095166370005
0,2.2292242392905455,-2.193781032939429,2.086979452185212,2.1382291622863536,0.7000095851020127
0,8.039883828499597,5.996198484090372,7.667546208194784,6.82905390534386,0.7050096535670285
0,6.13054402611206,3.216178438955721,4.068113556764932,4.5098794014787,0.7100097220320443
0,8.971204840200325,-8.823841161026415,-2.5613184942009553,0.12070565137540147,0.7150097904970565
0,4.131866278159019,1.2361396914176273,-0.24074993708045647,2.0315326553594715,0.7200098589620723
0,-6.337471653203293,-5.243878996228061,-2.4601807642838476,3.512360413529884,0.725009927427088
0,-1.3668089473240326,-4.643897216174812,0.38038903188130013,8.923188925740924,0.7300099958921002
0,5.633854402435967,10.826085039629962,11.060959459144538,6.004018191414664,0.735010064357116
0,-1.2754815972351448,5.766067779228733,8.41153052496044,5.964848209366592,0.7400101328221282
0,-3.674816939730109,0.9660510102678224,0.9221022361749238,0.36567897780672387,0.745010201287144
0,-2.5541516184176962,-2.7139652600590827,0.10267459903407555,4.7765104944886385,0.7500102697521598
0,-3.583485626452463,2.5460189752496265,-2.346752380513114,5.317342756821251,0.755010338217172
0,1.0671810432818045,5.716003723139987,-2.566178696520383,-4.671824238105868,0.7600104066821878
0,2.1778483980791696,5.705988990351468,3.994395657073605,-0.0009904934018333533,0.7650104751472036
0,12.44851644516669,4.305974783203755,9.564970686324797,3.86984398781137,0.7700105436122193
0,17.039185191282716,13.415961107466522,17.565546396881242,7.600679202352838,0.775010612077228
0,15.319854642141363,18.725947968138215,17.376122793424873,11.831515146672988,0.7800106805422438
0,19.53052480202734,24.43593536898299,20.456699879192104,10.472351816496419,0.7850107490072595
0,21.61119567356721,21.395923312002004,19.64727765568045,7.90318920660606,0.7900108174722753
0,22.271867257535742,7.935911797197065,16.1978561225331,7.774027310826051,0.7950108859372911
0,19.89253955268497,4.525900822859444,10.498435277613657,5.194866122145279,0.8000109544022997
0,10.263212555762792,3.5658903861871267,12.709015117257405,6.9557056328426565,0.8050110228673155
0,-2.4461137381193825,-1.544119516187144,0.39959563658972386,-2.6534541653822057,0.8100110913323313
0,2.424560665199766,-4.41412888785481,0.5701768299054044,-0.5526132811914553,0.8150111597973471
0,3.0952357595219295,1.3058622676334808,4.760758691066661,-3.181771723317351,0.8200112282623628
0,-3.3640884614971176,-6.084146053089951,-3.1586587862661797,-8.440929500320392,0.8250112967273715
0,-5.903412004242234,-11.914153853103121,-10.698075608483936,-14.120086620325521,0.8300113651923873
0,-6.2627348748816285,-9.134161134920886,-13.387491781637383,-16.559243090620754,0.835011433657403
0,-15.292057079060536,-7.17416790021629,-8.896907310959511,-15.078398917260849,0.8400115021224188
0,-2.291378621644875,-9.594174149769167,-6.126322200659486,-13.087554104852002,0.8450115705874346
0,-8.62069950664493,1.005820116425695,-7.835736454034461,-12.46670865656813,0.8500116390524433
0,-5.740019737331642,-6.604185101029801,-7.545150073622527,-4.5658625743030115,0.855011707517459
0,-8.469339316321491,-12.244189801058155,-3.944563061263782,-4.395015858947988,0.8600117759824748
0,-8.638658245537515,-12.074193981935375,-9.723975418141283,-7.284168510693126,0.8650118444474906
0,-1.8379765261799068,-1.9141976410284598,-3.4733871448021523,-1.94332052919015,0.8700119129125063
0,-0.4672941588450402,0.8657992251146951,-0.6927982412087433,6.837528086313707,0.875011981377515
0,3.563388856188739,5.555796620330721,-2.132208706906434,11.22837733661255,0.8800120498425308
0,0.3640725186712088,-0.5442054515875832,0.7783814587760545,8.129227222020138,0.8850121183075466
0,-0.5352431717638946,-0.384206987043754,1.8489722565971207,4.370077742059337,0.8900121867725623
0,-0.6345582155613592,-3.394207982532177,-3.2504363126847333,-1.3790711044555592,0.8950122552375781
0,6.136127386799817,-2.4842084344560904,3.030155751678631,2.291780680881877,0.9000123237025868
0,7.386813634681524,0.9357916609722154,4.030748450403989,10.402633096255181,0.9050123921676025
0,12.437500526983857,12.46579230761865,8.801341784014468,11.393486139446571,0.9100124606326183
0,4.788188061859643,-1.0242064909021416,4.711935752589301,2.8943398075172073,0.9150125290976341
0,6.878876236631383,5.9757952685503755,6.632530355614104,12.645194096696372,0.9200125975626499
0,6.1395650478943535,12.225797588624912,13.323125591920018,13.536049002376727,0.9250126660276656
0,6.610254491610543,7.885800471355067,3.10372145958586,6.916904518977925,0.9300127344926743
0,8.860944563105447,1.7258039179859643,6.704317955895735,3.9277606399079175,0.9350128029576901
0,8.041635257007933,0.9458079290929826,6.124915077455501,6.228617357778966,0.9400128714227058
0,13.51232656714557,6.515812504859541,6.795512820278767,6.879474664618924,0.9450129398877216
0,5.703018486433337,5.585817645150895,3.976111179785535,-3.159667448059503,0.9500130083527374
0,4.103711006878056,2.855823349408122,-1.4732898491345099,1.6111910108956327,0.955013076817746
0,5.164404119770161,5.875829616598291,2.4173097280855393,3.492050032487761,0.9600131452827618
0,8.095097815852647,5.905836445229446,2.167909905854536,4.492909607582602,0.9650132137477776
0,9.565792085290376,5.015843833317042,8.458510678399692,4.553769726761372,0.9700132822127934
0,1.8764869175576295,0.3158517783760466,6.549112039573477,-3.055369619745655,0.9750133506778091
0,5.617182301470467,1.50586027754206,-2.5202860172903137,1.8654915580582077,0.9800134191428178
0,2.817878225340715,0.30586932774252873,5.1603165007107625,0.23635325009593472,0.9850134876078336
0,6.858574677059357,8.225878925753912,1.5109195862279134,0.6572154462583295,0.9900135560728494
0,2.9292716440838507,8.365889068051931,2.751523231690673,-0.9319218636079794,0.9950136245378651
0,-0.16003088655533226,2.9958997505725407,3.3421274292749015,-2.381058689661837,1.000013693002881
0,13.620667071805034,12.25591096859778,15.182732170815264,9.489804957955496,1.0050137614678896
0,13.201365505307447,18.145922716635596,8.583337447525361,9.570669068919614,1.0100138299329053
0,8.022064399212393,9.185934988126304,16.443943249657664,13.541533632306034,1.015013898397921
0,9.032763737718566,0.9759477752997702,7.004549566317528,11.74239863622385,1.0200139668629369
0,11.843463504032885,3.6959610694885465,5.945156385500884,11.193264067642737,1.0250140353279527
0,6.644163680429504,8.725974861511359,6.545763694311207,15.674129912347,1.0300141037929613
0,1.1348642483108204,9.425989141702665,11.906371479131845,11.134996154894186,1.035014172257977
0,1.5955651884576314,2.4360038997379587,-3.183020274351336,-3.054137221326739,1.0400142407229929
0,-4.5637335186364565,-6.353980875307085,-13.562411580922126,-15.913270233614103,1.0450143091880086
0,-10.643031892429361,-13.83396519448973,-14.571802455158442,-18.942402899015406,1.0500143776530244
0,-13.732329951912714,-13.3939490683333,-10.1211929107228,-12.591535233454348,1.055014446118033
0,-13.96162771517192,-8.733932506336656,-17.08058296004439,-17.090667251345206,1.0600145145830489
0,-15.040925199069383,-12.663915516844426,-17.40997261422344,-15.27979896557608,1.0650145830480646
0,-12.36022241911817,-9.883898107102697,-19.45936188285878,-15.108930387523268,1.0700146515130804
0,-12.169519389482236,-10.523880283295613,-6.69875077391961,-13.238061527063536,1.0750147199780962
0,-10.78881612306187,-8.593862050576929,-3.1381392939571593,-12.367192392649008,1.080014788443112
0,-14.768112631566792,-7.953843413139795,-10.077527448557923,-4.926322991455185,1.0850148569081206
0,-10.987408925514961,0.8461756256407885,-9.296915242610638,-4.255453329646271,1.0900149253731364
0,-8.126705014230906,-5.893804937030328,-5.736302680257661,-7.584583412674092,1.0950149938381522
0,-17.15600090590931,-8.983785103534816,-13.475689764815252,-10.053713245395222,1.100015062303168
0,-6.905296607631808,-5.793764875757964,-8.24507649872413,-0.8328428320041403,1.1050151307681837
0,-8.664592125367042,-4.713744254947786,-8.004462883486706,-2.1519721760847115,1.1100151992331924
0,-9.073887464098092,4.406276758201207,-8.513848919694787,-4.251101280821763,1.1150152676982081
0,-5.103182627967972,0.2862981632535957,-0.6832346071534363,-2.170230149121805,1.120015336163224
0,-4.98247762037873,-5.793680040208684,-0.8526199450890256,-2.0693587836149914,1.1250154046282397
0,-8.86177244409798,-17.15365785244684,-4.682004932398909,-4.298487186656746,1.1300154730932555
0,-11.791067101243296,-12.123635273053509,-13.121389567685867,-6.067615360308572,1.1350155415582641
0,-12.100361593097544,-8.19361230050922,-9.80077384897882,-6.776743306221559,1.14001561002328
0,-10.679655919905008,-7.203588932155899,-10.000157773406066,-10.245871025480346,1.1450156784882957
0,-11.288950080798125,-10.65356516439634,-11.909541337076847,-7.354998518454319,1.1500157469533114
0,-4.868244073848652,-6.343540992798501,-7.9189245350767,-7.954125784708773,1.1550158154183272
0,-0.4575378962619976,-14.043516412075599,-2.128307361546093,-1.0732528230487082,1.1600158838833359
0,-3.5468315446911953,-4.953491416034298,2.592310190048095,2.8876203682609605,1.1650159523483516
0,2.463874984484788,2.586534002356432,10.152928126459406,4.158493791136599,1.1700160208133674
0,14.694581694908697,4.676559850597289,7.063546454154503,8.849367447309975,1.1750160892783832
0,6.685288589824213,10.416586136123795,16.884165178906567,13.500241337998023,1.180016157743399
0,0.535995671731778,-4.5933871340581565,1.9647843055422693,4.381115463621046,1.1850162262084076
0,-3.3532970574764116,-2.903359953323225,0.5754038379877886,5.801989823723332,1.1900162946734234
0,5.797410403867125,4.306667684884213,6.276023779590926,8.442864417113327,1.1950163631384392
0,10.79811805728964,3.9266957871448893,4.956644133344827,11.5137392419238,1.200016431603455
0,14.208825903837345,5.286724359853686,9.527264901808088,9.324614295472308,1.2050165000684707
0,11.789533943622033,10.55675340898145,10.06788608690964,6.465489574150912,1.2100165685334794
0,10.450242175588011,14.45678293983928,10.498507689760732,4.846365073490439,1.2150166369984952
0,2.3409505975698557,4.456812956820761,8.149129710539485,-0.9627592116234047,1.220016705463511
0,12.591659206511213,2.496843463378651,11.059752148469752,4.5981167132999285,1.2250167739285267
0,-1.7076320013510522,-0.2831255376732475,-0.6796249981031365,-0.6410071574798704,1.2300168423935425
0,-6.5169230302800285,-5.213094043769343,-4.31900173145819,-5.95013082982583,1.2350169108585582
0,-2.1862138846259844,-6.053062052259371,-10.308378054000544,-8.639254309484503,1.240016979323567
0,-4.725504568452656,-3.893029560137443,-10.717753967711765,-14.268377601702488,1.2450170477885827
0,-5.094795085430494,-0.57299656395212,-3.6071294738044117,-9.667500710853236,1.2500171162535985
0,-0.9540854388319071,7.29703694004098,-1.1065045727277887,-5.566623640275377,1.2550171847186142
0,-0.6033756315906509,4.667070955531382,-1.575879264440543,-5.525746392383432,1.26001725318363
0,-4.062665666411772,-3.9228945141093123,-8.045253548617714,-6.524868968892024,1.2650173216486387
0,-3.181955545806099,-5.912859465723443,-7.454627424588368,-1.2939913709541615,1.2700173901136544
0,0.47875472795905105,-2.5128238960080136,-1.1340008911536834,-1.7031135992729027,1.2750174585786702
0,1.2894651528150358,-0.12278780131496633,3.2466260533701545,-3.172235654251391,1.280017527043686
0,-2.6298242732372206,-0.012751177734514674,-1.5127465891305496,-5.431357536048971,1.2850175955087018
0,2.980886447811239,4.257285978720274,-0.03211881677698308,-0.27047924452549665,1.2900176639737104
0,2.081597313943829,11.117323671882803,8.928509372238244,7.230399220708053,1.2950177324387262
0,3.232308323022336,1.607361905152578,0.9091379795170104,3.2412778600054053,1.300017800903742
0,5.343019472663338,5.1974006813476015,0.7897670063193657,1.2321566734102518,1.3050178693687577
0,6.31373076012909,7.037440002762046,6.330396453597143,12.353035660567656,1.3100179378337735
0,0.7344421822363005,-3.0625201287604087,2.351026322027492,4.093914820629698,1.3150180062987822
0,-5.69484626456088,-0.08247971169339545,2.2216566119611607,-0.04520584785217924,1.320018074763798
0,-2.904134583866976,7.837561255352126,4.1622873234251845,12.715673653138595,1.3250181432288137
0,2.8665772209199187,13.547602773526362,5.80291845613194,11.796553321064009,1.3300182116938295
0,9.297289146515881,9.017644843329348,12.68355000935587,8.917433152557324,1.3350182801588453
0,7.998001189362034,5.467687464322922,6.984181981692346,4.128313143267122,1.340018348623854
0,2.2887133452991058,-0.062269364770418945,1.3148143709292839,1.0991932880465987,1.3450184170888697
0,-2.3905743904104253,-3.952225645705127,-1.0845528257715098,-3.8699264186947886,1.3500184855538855
0,-2.4798620227629766,-7.692181380278283,-0.8539196115095908,-5.04904598261901,1.3550185540189013
0,-2.2191495567013035,2.1078634300007555,-1.7132859893906323,-8.238165409123196,1.360018622483917
0,-3.1484369969579244,-7.532091216006027,-7.482651962381925,-4.467284703106787,1.3650186909489257
0,-10.827724347968147,-1.30204531911023,-5.252017533147162,-6.206403868873201,1.3700187594139415
0,-5.977011613681934,7.588001120131999,3.408617296078409,-2.1655229101683533,1.3750188278789572
0,-4.296298797393121,3.6180481011765693,-0.15074747664075616,-6.514641830260126,1.380018896343973
0,-4.385585901761981,-1.9019043767969146,-6.250111853146032,-5.293760631968036,1.3850189648089888
0,-4.094872928948633,-1.181856314864867,-0.4094758351715002,-1.7528793176423325,1.3900190332739975
0,-1.5941598807033177,5.858192285825068,1.621160575758874,5.838002110737637,1.3950191017390132
0,1.3865532415372375,2.158241424036783,4.351797378225509,-0.6211163487121173,1.400019170204029
0,1.1572664364793923,-0.3217089016903181,0.11243457069097952,1.90976530198908,1.4050192386690448
0,-5.312020297151993,-4.141658692997201,2.653072151400568,-2.219352939320527,1.4100193071340605
0,-1.9413069605582651,-1.9516079514897102,-3.116289881562978,-2.7284710748219227,1.4150193755990763
0,0.9594064452588426,6.168443321382728,4.074348469805857,-0.7175891065851301,1.420019444064085
0,-6.059880080496702,3.2884951241746725,-1.2150127965303998,-8.566707036471401,1.4250195125291008
0,-3.539166538406229,0.5285474552047846,-1.0943736826612591,-0.23582486602397323,1.4300195809941165
0,-3.628452928733372,-4.511399687452215,-6.473734190646337,-0.6049425964294793,1.4350196494591323
0,-2.5777392513659465,-2.141346305735342,-3.163094322324184,5.7459397713258005,1.440019717924148
0,-0.34702550587257897,6.508707598560114,-4.892454079154967,8.38682223614507,1.4450197863891567
0,-3.766311691586009,-8.49123797628255,-0.7118134621961757,4.997704796502956,1.4500198548541725
0,-2.0755978076364383,-4.0711830319068065,-5.57117247215906,3.018587450292617,1.4550199233191883
0,-2.074883852930041,-6.961127569649327,-1.9505311094425708,1.6794701948991688,1.460019991784204
0,-4.314169826126116,5.348928409604685,0.780110625847764,7.150353027343209,1.4650200602492198
0,-6.713455725587127,2.5589849052312093,-4.459247266173347,3.861235944279608,1.4700201287142285
0,-7.972741549246197,-4.430958083432043,-5.468604785197943,-2.527881058033384,1.4750201971792443
0,-1.5120272944670567,-3.4709005570984393,-9.167961930573071,0.9830020163913565,1.48002026564426
0,-0.9013129580924372,8.899157483615092,2.6926812988653777,9.513885163413185,1.4850203341092758
0,0.7994014633436601,-8.160783961855241,3.153324904691796,3.484768378642803,1.4900204025742916
0,-3.6798840265719077,-1.8707248940776706,-6.326031111400349,-6.5443483427123255,1.4950204710393002
0,0.8408305758343082,-9.300665313415346,1.1746132523050667,-0.5934650056454102,1.500020539504316
0,3.0715452743164806,-7.720605219744629,1.6752579976236697,1.5774183849497736,1.5050206079693318
0,8.372260072557161,-6.810544612278495,-1.474096873569179,-4.831698175666601,1.5100206764343476
0,2.7229749739082423,-4.920483489512801,0.23654864058457753,-3.520814692101584,1.5150207448993633
0,3.3036899812500016,3.759578150645725,0.5371945419403414,-1.3599311687245288,1.520020813364372
0,5.414405097027398,2.85964031057465,6.087840832320909,-4.449047609609034,1.5250208818293878
0,10.955120323247579,1.029702992599364,7.268487513339656,-1.5881640185451236,1.5300209502944035
0,13.585835661274693,3.5697661988324803,7.229134586151987,6.42271960089246,1.5350210187594193
0,11.53655111151842,3.4798299311485263,9.29978205126362,3.6836032451263487,1.540021087224435
0,12.767266673235152,1.7898941911532489,9.910429908414775,2.6244869103032578,1.5450211556894438
0,8.99798234449512,0.929958980182213,8.481078156493611,5.325370592194395,1.5500212241544595
0,4.86869812229123,2.0700242993651408,5.881726793513223,0.5462542862109367,1.5550212926194753
0,5.119414002755593,1.8000901496709854,7.502375816689924,-3.7928620125056582,1.560021361084491
0,2.750129981405607,-4.5498434680569995,-2.5769747774084784,-4.221978308862833,1.5650214295495068
0,-4.709153946641062,1.070223447008065,-6.8763249925788115,-8.911094607515924,1.5700214980145226
0,-9.428437786349129,-1.5197091042151225,-10.155674832512771,-7.080210912617924,1.5750215664795313
0,-6.457721542340832,-6.9096411206672235,-6.715024300346326,-4.679327227670571,1.580021634944547
0,-4.777005218608936,-11.349572600994955,-8.704373398444133,-4.718443555530541,1.5850217034095628
0,-10.62628881847271,-12.389503543210465,-10.81372212835746,-8.467559898491036,1.5900217718745786
0,-8.145572344550567,-2.0894339444190204,-5.873070490798347,-6.316676258270281,1.5950218403395944
0,-6.7848557986813445,8.67063619904348,-3.7324184856608964,-8.245792635929945,1.600021908804603
0,0.945860818043495,3.900706891052907,0.47823388777569426,-6.064909031829824,1.6050219772696188
0,-2.573422494964661,-5.199221864768379,-5.701113369397397,-1.0340254456666997,1.6100220457346346
0,-1.962705738040186,-3.7291500649894744,-6.400460255801823,0.9368581233410505,1.6150221141996504
0,-0.041988911356455084,5.200922293921252,-0.35980676968391934,5.827741676153265,1.6200221826646661
0,-5.4412720149232445,2.1609952155953573,0.10084709108949416,3.348625213594507,1.6250222511296748
0,-0.6305550485507566,-5.958931296419746,-4.638498671118474,-2.0604912638070423,1.6300223195946906
0,-6.599838011781406,-0.13885723861365226,-4.0378440537635205,-1.8896077557346946,1.6350223880597063
0,-1.9391209038282136,8.021217392611973,0.8728109459594959,3.0312757381174094,1.6400224565247221
0,-7.478403723522309,6.861292600755663,-5.776533668868711,1.8021592180665424,1.6450225249897379
0,-10.827686469212821,-7.038631611062017,-4.645877894904611,1.1330426843290649,1.6500225934547466
0,2.893030861359907,-4.458555239966813,-1.6552217284675854,7.663926136916786,1.6550226619197623
0,-2.8262517290102096,-0.3084782829331415,4.395434834443343,4.48480957552672,1.660022730384778
0,-4.855534237225144,2.3015992633514966,0.9860917979230186,4.665692999396729,1.6650227988497939
0,-4.864816659943189,-4.908322597664963,-2.4932508340343436,-5.023423592673653,1.6700228673148096
0,-6.3340989934342895,-1.4482438624553458,-2.3925930574912773,-8.902540202036546,1.6750229357798183
0,-3.1933812334829255,-0.5981645273285372,1.3380651315797882,-6.861656829740868,1.680023004244834
0,0.45733662458108226,1.3619154115719587,2.698723737298926,-6.7607734762091605,1.6850230727098499
0,-0.22194541428112788,13.671995958071962,6.199382763707799,2.260109858785426,1.6900231411748656
0,2.2087726549819355,21.162077115510755,5.190042214548736,-0.8390068241130354,1.6950232096398814
0,7.189490837342184,2.7321588861656214,6.280702093100021,1.8318764758736605,1.70002327810489
0,-0.8097908624775402,-5.63775872883196,1.16136240212189,2.632759759479121,1.7050233465699058
0,3.6609275599288114,-3.577675728891038,0.5820231439489927,5.053643027282963,1.7100234150349216
0,-0.2883538912791398,-9.697592113262518,-3.8173156793007075,2.0245262795934074,1.7150234834999374
0,-3.9276352120700797,-12.577507880634549,-2.4466540654911406,-8.404590483540993,1.7200235519649532
0,-1.1269163983829216,-3.827423028888587,-3.82599201228258,-6.563707262037424,1.725023620429969
0,-5.296197445968865,-4.02733755507184,-5.0453295170343635,-1.7828240554176025,1.7300236888949776
0,-3.595478350288025,-2.1472514556151436,-4.6846665767320825,-1.1519408627196073,1.7350237573599934
0,10.105240893467624,5.9628352733831544,2.2259968120329594,4.748942317293551,1.7400238258250091
0,2.785960290111783,9.722922635821206,5.026660652900292,4.589825485840408,1.745023894290025
0,-3.1733201558398987,0.6830106352149031,2.1073249494388766,5.180708643861758,1.7500239627550407
0,2.117399559866477,6.013099274538963,5.177989704925456,6.981591791854706,1.7550240312200494
0,4.38811944139313,-5.126811443645206,4.248654922271489,5.5624749297799525,1.7600240996850651
0,-4.721160507192257,-0.3067215169440487,5.219320603981639,7.983358057006699,1.765024168150081
0,-4.370440281874691,-2.3866309429059025,-0.6100132478553756,-2.7957588276781657,1.7700242366150967
0,-2.0997198784650717,-9.476539718864004,-5.929346631427142,-5.404875725857088,1.7750243050801124
0,0.9710007075169518,-0.2864478417930607,-3.438679544885398,1.2060073608873583,1.780024373545121
0,3.851721480718272,1.2836446917383233,-0.5880119860959263,-0.2231095688412269,1.7850244420101369
0,10.502442445668853,4.9537378853539735,10.902656047297286,9.477773483616865,1.7900245104751527
0,8.103163606442715,21.02383174244924,10.573324557462987,7.8386565166507465,1.7950245789401684
0,7.133884966389375,8.9239262656405,4.703993545919481,-0.3804604718845095,1.8000246474051842
0,8.854606528056138,5.124021456401156,6.814663013381434,2.190422515343946,1.8050247158701929
0,1.6453282932418114,7.5241173151645935,2.9853329598828355,2.2513054753698984,1.8100247843352086
0,2.706050263143294,5.7942138416136055,-1.693996615031597,-0.2378115949472816,1.8150248528002244
0,2.156772438558383,5.784311034800713,4.126674287896282,1.9830713011142242,1.8200249212652402
0,6.647494819999564,0.9344088932056633,4.537345667740956,-1.866045839822005,1.825024989730256
0,5.678217407627235,1.134507414880524,2.8680175233248306,-7.915163021116603,1.8300250581952646
0,2.598940201137626,4.294606597613519,5.948689853106763,-6.034280245881989,1.8350251266602804
0,9.729663199721067,11.854706438916265,10.63936265509383,2.7166024832236424,1.8400251951252962
0,11.350386401987596,15.034806935729954,12.650035926646108,4.477485163873274,1.845025263590312
0,6.041109805781731,4.494908084058086,4.960709664231376,2.8483677937094645,1.8500253320553277
0,14.051833408047903,7.875009878882958,10.321383863377552,5.429250370078341,1.8550254005203364
0,9.82255720477093,8.625112314338832,2.002058518793997,0.2501328899640962,1.8600254689853521
0,2.2332811909547345,-5.314784616105221,-6.687266375391134,0.8210153500434751,1.865025537450368
0,-9.655994639130949,-14.384680919297471,-3.8765908252190524,-0.028102253184679432,1.8700256059153837
0,-2.2552702913733063,2.055423398187931,5.104085163465253,4.322780076683922,1.8750256743803995
0,-4.404545771338693,0.39552833032582085,-8.915238414961053,-3.63633766404976,1.8800257428454081
0,-6.353821084144906,-8.77436612855665,-1.7545615659441705,-5.0354554791283,1.885025811310424
0,2.4069037655059704,1.6357400160942097,5.206115705305833,-1.5845733721343813,1.8900258797754397
0,0.04762877320489203,10.85584675902419,0.6967933936976826,-0.7136913463604003,1.8950259482404554
0,2.8883539346192473,9.115954094810956,4.307471494003375,2.517190595103858,1.9000260167054712
0,-1.670920754667156,4.256062017401278,-1.0218499992435717,4.878072449174249,1.905026085170487
0,-2.22019529913638,-0.2438294799673778,-2.9711710916754006,0.048954212582389134,1.9100261536354957
0,-0.17946970322510597,-10.553720404430848,-5.32049178888904,-6.730164118134678,1.9150262221005114
0,1.921256028725732,4.436389236954371,-2.629812096229235,-5.639282546379423,1.9200262905655272
0,3.041981892383286,1.2164994373819447,-2.499132018689305,-2.068401075187533,1.925026359030543
0,1.0427078832791183,2.386610190098371,-2.748451560941196,-2.8575197071585876,1.9300264274955587
0,-0.16656600323467374,3.756721488180394,2.6322292725824643,2.823361555414129,1.9350264959605674
0,5.354160228041338,3.95683332444577,4.1829104775370975,4.954242710328932,1.9400265644255832
0,2.9948865721192233,4.086945691387652,1.4235920494515109,-3.2248762447396686,1.945026632890599
0,4.275613023715204,4.247058581123726,0.45427398361912197,-5.803995312235022,1.9500267013556147
0,0.0863395772018587,-2.6628280145840137,3.1349562751320286,1.3268855055137745,1.9550267698206305
0,5.527066226654326,-11.152714104120147,-1.2843610810617885,-2.0722337935832,1.9600268382856392
0,0.5777929658837357,-7.512599695582105,-5.343678090087079,-3.0613532114334174,1.965026906750655
0,2.4685197884415757,-0.3824847964359197,0.6170052430294538,2.9895272501906223,1.9700269752156707
0,-2.490753312319752,-0.8623694135713869,3.9076889134262522,5.82040758956213,1.9750270436806865
0,-0.530026343123897,6.587746446367949,4.718372916235214,-3.9287121951849935,1.9800271121457023
0,2.4307006893316436,4.67786277663564,2.389057246331562,0.8721678939057746,1.985027180610711
0,-1.3085722216365288,-5.222020429813224,-1.4502581017276022,5.043047854724632,1.9900272490757267
0,3.322154917239205,-3.311903180203737,-0.9095731335721364,0.6639276850604775,1.9950273175407425
0,-1.307117900855948,0.3982145183559969,1.1111121451507262,0.7148073825020269,2.0000273860057582
0,-1.0963906828008518,7.048332658923404,11.57179772874938,4.655686944439518,2.005027454470774
0,3.7343365645028426,5.63845123444782,-1.0575163887522296,-0.5434336319207408,2.0100275229357827
0,0.9450638341095067,-2.771429762488185,3.7931697862274723,3.037445650432723,2.0150275914007985
0,5.515791118914774,1.3986896603769217,3.4138562469076246,4.718324788308647,2.0200276598658142
0,-4.3634815884113,-11.351190504739527,-6.125457013720987,1.7792037782649597,2.02502772833083
0,-10.27275429527893,-12.641070265285046,-11.824770002658068,-9.13991738337074,2.0300277967958458
0,-9.73202700876802,-7.850949627953977,-9.424082726440885,-8.999038700192244,2.0350278652608544
0,-5.091299735242609,-10.530828598455244,-8.943395190761164,-4.758160175283942,2.04002793372587
0,-10.920572480245795,-19.2407071814608,-16.79270740032229,-8.087281811022878,2.045028002190886
0,-13.409845248486246,-20.91058538039372,-15.122019358698081,-9.186403609086925,2.0500280706559018
0,-9.71911804370493,-11.480463197090724,-11.411331068135393,-9.955525570402154,2.0550281391209175
0,-10.898390868551664,-9.740340631754222,-13.910642529503049,-8.194647695041796,2.0600282075859333
0,-16.037663724568024,-17.750217683193895,-11.889953742371812,-12.34376998216704,2.065028276050942
0,-18.49693661207431,-15.490094348931276,-21.899264705011564,-17.332892429934063,2.0700283445159577
0,-14.8962095299384,-5.339970625122634,-20.028575414194034,-6.732015035327277,2.0750284129809735
0,-10.115482475473112,-4.23984650671125,-8.407885864977537,-7.141137794138567,2.0800284814459893
0,-5.484755444617377,1.300278012136581,-0.5371960508750548,2.279739298743492,2.085028549911005
0,-1.104028432326976,6.370402937561336,3.633494035518069,3.200616248883921,2.0900286183760137
0,0.2866985670054992,11.060528275571013,6.304184401828402,10.991493061836763,2.0950286868410295
0,1.9074255592054343,3.820654031641868,2.9048750554405953,4.682369742729676,2.1000287553060453
0,3.218152550081246,5.970780210553108,11.52556600328478,9.42324629602565,2.105028823771061
0,1.058879545286039,-0.31909318350613314,3.5762572517046007,7.484122725454162,2.110028892236077
0,3.0596065502633962,1.721033853271542,5.356948806397077,8.604999033985179,2.1150289607010855
0,1.1903335702463143,7.831161324446722,9.807640672436769,13.315875223767792,2.1200290291661013
0,1.7710606102705941,20.301289233174348,11.678332854237478,12.486751295995521,2.125029097631117
0,-2.4082123247796585,-1.9385824181990066,-0.6309746445787937,5.557627250782694,2.130029166096133
0,-4.747485230047121,-0.5184536282196683,-0.6102818210688419,-1.7314969127143418,2.1350292345611486
0,-3.426758100499252,-2.9083243958741862,-4.02958867257111,-8.700621195831575,2.1400293030261572
0,-9.946030930737209,-12.458194720060034,-6.7988951963192426,-9.989745599779704,2.145029371491173
0,-6.875303714825287,-14.698064599151724,-8.378201389161879,-10.258870125139854,2.150029439956189
0,-7.684576446135128,-5.157934030604975,-10.427507247331286,-4.987994771623763,2.1550295084212046
0,-5.623849117304362,-6.577803010851547,-4.546812766282671,-7.76711953810414,2.1600295768862203
0,-1.6531217203142838,-5.0676715355107795,-7.9261179406847315,-7.406244422725098,2.165029645351229
0,-7.212394246628072,-1.4975395996131893,-6.18542276450492,-10.655369422920701,2.1700297138162448
0,-5.711666687254205,-3.137407197757617,-3.864727231072473,-11.704494535300826,2.1750297822812605
0,-6.190939032686032,-3.0972743242296445,-13.514031333094703,-18.26361975546623,2.1800298507462763
0,-4.500211272845657,-6.287140973018993,-11.973335062535845,-13.12274507775668,2.185029919211292
0,2.340516602852084,2.4329928622220596,-2.002638410430425,-3.661870495156373,2.1900299876763007
0,-3.8787553946944406,-5.026872811863959,-4.211941366950775,-6.000995999526756,2.1950300561413165
0,1.0819727455645636,5.52326201153808,3.218756078263254,-1.3101215820112069,2.2000301246063323
0,7.242701034720811,14.66339733918128,3.6394539357454114,2.100752766654266,2.205030193071348
0,6.053429483692609,-0.23646682263035257,5.460152215904905,2.5916270558838117,2.210030261536364
0,-0.21584189701438858,-3.506330468205297,1.3408509288245862,-1.9574987049689019,2.2150303300013796
0,4.584886902677483,2.153806407837988,7.821550084198275,7.2433754933154475,2.2200303984663883
0,9.075615892496112,7.093943810829732,11.172249691258951,4.204249659751437,2.225030466931404
0,0.006345081749589532,2.7940817459192173,-2.0070502413735545,2.945123802998099,2.23003053539642
0,-3.4429255206747493,1.634220217886711,-5.276349705604452,-5.054002068642705,2.2350306038614356
0,-2.8421959060387745,4.27435923115943,-5.165648693424232,1.2068720529922004,2.2400306723264514
0,-9.121466065408727,-9.635501210052238,-7.594947196479907,-1.5822538238665216,2.24503074079146
0,-11.320735989372732,-17.25536110141128,-9.754245205842638,-9.081379690833288,2.250030809256476
0,-10.06000566775593,-3.885220437897782,-11.953542711840496,-9.220505539186446,2.2550308777214916
0,-8.309275089438337,-7.545079213514118,-13.812839703851566,-11.839631359544025,2.2600309461865074
0,-13.718544242314298,-2.894937421438881,-12.172136170123636,-6.278757141631081,2.265031014651523
0,-2.7378131133088983,1.3852049456856073,-4.011432097727898,-3.9478828742815484,2.270031083116532
0,-2.1070816885034382,14.16534789541097,4.849272527184509,-0.377008545658981,2.2750311515815476
0,-2.8463499534269827,-3.014508564972367,-3.520022281105577,0.7638658564465599,2.2800312200465633
0,3.5043821066666405,0.815635571360811,14.02068349167779,3.41474034435587,2.285031288511579
0,9.755114506552287,11.115780310905032,13.26138985942284,8.045614930261092,2.290031356976595
0,14.945847260629103,8.99592565978693,6.942096835195638,5.836489625982207,2.2950314254416035
0,11.786580382436501,-0.34392837649148394,4.462804431063466,2.827364442798126,2.3000314939066193
0,6.097313884385467,9.066218206920773,13.123512658241976,1.7882393914794266,2.305031562371635
0,6.168047777846421,2.616365414363219,8.094221527165763,7.559114482411782,2.310031630836651
0,13.238782073359122,11.036513249667445,14.804931047351047,14.259989725538983,2.3150316993016666
0,9.22951678063757,7.456661716036716,11.77564122723939,11.78086513005109,2.3200317677666753
0,12.800251908423652,16.926810815867235,17.04635207406499,15.501740704040396,2.325031836231691
0,3.1409874644302587,8.00696055053745,6.637063593765868,8.422616454345208,2.330031904696707
0,0.4817234555180431,6.857110920322225,1.5577757911094658,4.503492386632736,2.3350319731617226
0,-2.60754011192959,-4.882738075391854,-2.271511329890519,-1.3056314942876754,2.3400320416267384
0,-8.25680323158878,-14.392586437559459,-4.07079776546068,-4.514755184013156,2.345032110091747
0,-11.40606589680081,-9.452434166764721,-4.4800835116992594,-7.9538786780944655,2.350032178556763
0,-7.905328100217966,-7.152281262715072,-9.819368564340678,-7.083001971676913,2.3550322470217786
0,-10.554589833603089,-12.792127724140721,-7.378652918557045,-10.412125059260656,2.3600323154867944
0,-15.07385108775195,-13.541973548798268,-17.90793656873995,-14.871247934522911,2.36503238395181
0,-6.433111852409301,2.338181266569624,-7.047219508266128,-9.050370590121105,2.370032452416819
0,-4.5523721162769535,5.408336725980611,-1.6265017294369004,-3.029493017635288,2.3750325208818346
0,-2.3916318672664394,8.15849283359302,1.494216776214965,-7.388615207769946,2.3800325893468504
0,-3.100891092796932,-4.2613504067799814,-4.185063982514155,-4.427737150601109,2.385032657811866
0,-1.880149779963005,3.5588070083142305,1.965656003289721,9.143141164246487,2.390032726276882
0,2.3105920843711445,-1.6810349178260047,1.0163767426141486,3.664019747262034,2.3950327947418977
0,7.161334513400152,-2.6308761819198234,1.3670982444332862,9.694898608606126,2.4000328632069063
0,8.632077520073347,6.579283219337994,6.377820517589997,15.035777757782993,2.405032931671922
0,13.862821116736708,14.399443289119475,11.47854357061513,21.84665720329723,2.410033000136938
0,3.6835653148730394,-2.160395969905893,3.34926741146818,13.097536952234794,2.4150330686019537
0,1.1543101251108563,-0.08023455568624951,4.509992047415361,10.728417010074647,2.4200331370669694
0,7.325055557477391,4.779927533491645,-0.7792825148225372,9.409297380873808,2.425033205531978
0,2.3058016215943185,9.720090299132298,4.451443731151872,8.720178067563703,2.430033273996994
0,8.666548326653828,7.940253742297487,7.8321707914773055,8.601059072128084,2.4350333424620096
0,2.017295681356861,10.970417863316008,8.992898671875805,1.3819403957173235,2.4400334109270254
0,4.4180436939103656,0.41058266169239527,-0.03637262253849036,-1.4271779611261095,2.445033479392041
0,-1.8212076278735754,-3.3592518637122213,3.4443569127814944,-6.196295998100454,2.45003354785705
0,11.359541723527952,1.3409142857069907,9.89508728197346,5.534586285181131,2.4550336163220656
0,10.130291755247393,7.411081108522019,8.705818488701702,1.6354688892110074,2.4600336847870814
0,9.171042473715993,10.631248603090858,10.326550535911807,7.956351814351702,2.465033753252097
0,16.07179388440948,13.791416767145776,18.317283425603332,8.437235060564321,2.470033821717113
0,8.642545991708394,7.561585597459326,12.068017158609651,14.998118627147692,2.4750338901821216
0,10.853298798843854,0.41175508981048925,7.7387517344484635,4.1590025125005905,2.4800339586471374
0,18.904052307905683,8.741925239237489,15.379487151405286,9.28988671405862,2.485034027112153
0,12.274806519743075,1.8420960402717776,12.980223406624853,15.020771228374688,2.490034095577169
0,7.2155614338561795,2.7322674870076304,4.470960496083794,11.26165605103407,2.4950341640421847
0,2.316317048578978,-4.097560426784398,-2.278301585231001,3.4525411765247545,2.5000342325071934
0,6.627073361472435,1.2026122925601268,6.2824371571102064,6.41342659838065,2.505034300972209
0,7.957830369550519,5.572785638714947,-0.7968232827140658,6.4843123094461745,2.510034369437225
0,-5.001411930676086,-5.257040394711285,-5.426082910674747,-3.224801697957864,2.5150344379022407
0,-6.880653543000777,-13.826865814105254,-10.835341732655483,-0.9439154318417355,2.5200345063672565
0,-15.79989447100366,-10.53669062540352,-7.714599754049049,-3.83302890024744,2.525034574832265
0,-15.629134717460243,-4.556514833659864,-14.203856979439859,-10.262142110989544,2.530034643297281
0,-16.008374283893886,-16.446338442962578,-19.763113412370426,-15.211255071353824,2.5350347117622967
0,-13.437613170358564,-6.396161456453918,-15.102369055033408,-17.65036778767807,2.5400347802273124
0,-10.69685137545386,-11.205983876275852,-10.151623908080959,-11.74948026496817,2.545034848692328
0,-8.786088896489103,-9.015805703581192,-11.080877970728128,-10.87859250679999,2.550034917157344
0,-11.50532572967476,-10.105626938575409,-5.2001312410317215,-8.167704515482615,2.5550349856223527
0,-1.014561870271333,0.38455241941968266,-2.4693837161616488,-5.356816292303646,2.5600350540873684
0,-2.513797312801125,-3.4652676282482675,-3.2286353926868214,-1.5559278377756833,2.565035122552384
0,6.696967948607194,12.324912920064381,5.1021137331560205,-1.3750391519040075,2.5700351910174
0,8.847733919791445,1.365094065871555,9.402863665158163,4.045849765551911,2.5750352594824157
0,4.648500606172158,7.265275810241336,8.663614406735546,8.216738914804377,2.5800353279474244
0,3.5392680125603504,7.665458153690067,6.654365960606232,6.737628295720422,2.58503539641244
0,4.970036143227645,8.675641096120362,12.54511832867174,9.918517907551735,2.590035464877456
0,6.570805001985626,9.535824636700294,13.805871511934818,7.869407748790697,2.5950355333424717
0,6.951574592149381,4.056008773792751,9.486625510328437,4.76029781713109,2.6000356018074875
0,4.622344916453673,1.086193505050146,6.367380322667203,8.951188109527308,2.605035670272496
0,1.4031159770666886,5.54637882763051,2.198135946838425,7.382078622244944,2.610035738737512
0,-4.56611222422595,-6.463435261600204,-3.441107619851772,-0.6370306491171824,2.6150358072025277
0,-7.145339685691857,-14.133248765785922,-3.810350380282993,-3.106139709442796,2.6200358756675435
0,-1.6545664053085472,3.0369383123491924,-1.009592337202087,-0.9452485637457022,2.6250359441325593
0,-5.153792380619482,0.19712597064531334,-2.178833493109836,-3.484357216910142,2.630036012597568
0,-5.393017608746485,-4.052685792763658,-12.17807385022749,-8.423465673570863,2.6350360810625837
0,-3.8222420863855344,-11.862496979569153,-10.927313410286319,-7.53257393794273,2.6400361495275995
0,-9.891465809746546,-9.312307590992068,-7.95655217419995,-8.991682013603247,2.6450362179926152
0,1.7193112254933625,6.537882372465005,3.284209858000996,-4.120789903385165,2.650036286457631
0,3.150089024084168,8.288072910742581,5.144972686807075,-5.259897609425888,2.6550363549226397
0,-1.0291324090955691,-1.8717359763483157,-0.464263687275567,-1.3590051333092699,2.6600364233876554
0,4.661646930735179,-0.24154428935537287,1.5065007360440323,3.451887523737313,2.665036491852671
0,1.1124270481860976,-1.5513520289832945,3.07726595687172,0.19278036060710235,2.670036560317687
0,0.7232079476723321,-6.451159195856828,-4.46196802480892,-5.066326623844569,2.6750366287827028
0,-7.096010366514738,-10.820965790303498,-8.741201208999959,-5.145433430687966,2.6800366972477114
0,-5.045227889962891,-8.750771812058812,-11.230433595340816,-4.284540060683716,2.685036765712727
0,-4.384444617872783,-8.130577260034363,-5.579665182756481,-4.203646514152609,2.690036834177743
0,-2.0936605449731562,-9.000382132266136,-3.898895969361918,-1.042752790993537,2.6950369026427587
0,-2.012875665606808,3.4198135739843067,8.90187404730034,-1.6718588907814411,2.7000369711077745
0,-3.0320899738316616,-0.23999013804694555,0.8726448698115621,1.2890351871099837,2.7050370395727903
0,-3.8013034634580407,-5.359793264940579,-0.08658349946284598,0.5799294433820606,2.710037108037799
0,-9.190516127976602,-3.0195958031492394,-10.455811058318869,-5.389176121243713,2.7150371765028147
0,-5.489727960393381,-4.129397748845308,-3.8350378043443785,-0.20828150595714645,2.7200372449678305
0,-3.908938953113029,-7.499199097812934,-1.6142637346473854,-1.1873867097591757,2.7250373134328463
0,-6.368149097957002,-3.1689998453772055,-7.453488845854242,-7.1764917314435035,2.730037381897862
0,-7.5673583862136535,-2.238799986379958,-3.5327131341729636,-8.685596569496196,2.7350374503628707
0,1.7434331913635241,4.411400484689091,1.63806340459866,0.5252987780997651,2.7400375188278865
0,3.194225644415167,4.451601573409181,6.768840774902843,7.956194313797713,2.7450375872929023
0,9.875018982601855,4.77180328513549,5.629618981055231,11.977090040020975,2.750037655757918
0,7.195813215188849,6.352005624811906,10.00039802690615,8.057985958600733,2.755037724222934
0,8.016608350766253,0.6222085969137965,8.49117791563145,-0.48111792945840487,2.7600377926879425
0,12.76740439712954,-5.8275877944378625,6.861958649613904,-1.560221623765791,2.7650378611529582
0,11.718201361163041,4.252616454786749,3.5827402304597857,2.8806748758380816,2.770037929617974
0,19.79899924864116,7.212821348629492,7.35352265912576,5.591571569428188,2.77503799808299
0,14.399798063979524,2.34302689092516,8.65430593598607,7.262468456835825,2.7800380665480056
0,9.980597810095428,-2.2367669148668425,-2.8349099391755908,-2.2166344625373284,2.7850381350130142
0,7.541398488539124,-0.396560065516609,3.0058750329572406,-0.5057371896510631,2.79003820347803
0,4.74220009981148,-4.536352557777329,-0.1733391485214555,-4.674839725554098,2.7950382719430458
0,8.283002643642599,1.4538556117550607,1.9074475153792347,4.896057928816922,2.8000383404080615
0,14.183806119055511,5.164064446606416,3.6482350235344976,3.7769557725794165,2.8050384088730773
0,6.754610524223892,7.234273950192243,2.9890233746267056,3.367853804677256,2.810038477338086
0,2.9454158563887445,2.674484125540127,2.9798125670696467,1.5687520237335657,2.8150385458031018
0,6.136222112040693,8.794694975159015,7.640602598947629,6.909650428045962,2.8200386142681175
0,1.9570292871510533,1.3549065010304877,0.03139346795505907,-1.4894509844095756,2.8250386827331333
0,-2.5021626226803555,-5.4448812952939285,-0.4978148285796523,3.7214477840470375,2.830038751198149
0,-0.7613536220249051,0.2453315875884291,3.7429777064531855,4.982346730849895,2.8350388196631577
0,1.0094562845632105,1.3455451511789394,4.413771070018768,4.153245853145421,2.8400388881281735
0,2.5302670925680992,-0.9942406029341533,1.654565258838643,-1.335854852277388,2.8450389565931893
0,-2.208921202578589,-5.714025673123647,2.895360269325836,-2.7149553888750204,2.850039025058205
0,-2.848108605484682,5.866189942342172,4.026156097610773,2.765944239862006,2.855039093523221
0,-1.7272951206680516,5.926406245241076,6.026952739513639,-0.7631559695128314,2.8600391619882295
0,-0.9164807524536538,2.5166232371221713,-6.7422498094789,-5.262256020422422,2.8650392304532453
0,5.4843344949664115,11.216840919080443,0.12854844594905634,0.22864408381491108,2.870039298918261
0,6.91515061731892,8.747059291612324,8.849347501130739,-0.46045565992978843,2.875039367383277
0,6.645967609951602,0.08727835449391905,5.540147351272328,1.6004447453419905,2.8800394358482926
0,4.056785467648618,-5.582501893075616,2.05094799114865,-6.438654703328504,2.8850395043133084
0,2.4476041846328855,0.14771854795491346,4.331749415038727,-0.027754008791235435,2.890039572778317
0,1.2984237547091761,6.6379396767401895,1.4525516168421444,1.023146826298586,2.895039641243333
0,4.9692441713919795,6.298161492364743,1.7833545901722587,0.47404779940330904,2.9000397097083486
0,7.250065427897584,1.6983839935377658,1.3641583284201588,0.8049489079727931,2.9050397781733643
0,4.410887517011615,-1.3913928214569897,0.9949628248091196,-1.534149850595568,2.91003984663838
0,-0.9682895689751516,5.428831045408924,-3.844231927540005,-7.623248478867485,2.915039915103389
0,-2.8974658380993183,12.689055591926174,1.2665740644993804,-6.822346979147924,2.9200399835684046
0,3.543358701535106,1.689280815390379,-0.26261920586756915,0.4085546467320479,2.9250400520334203
0,5.174184041810364,-6.170493287492748,-9.011811745333395,1.0794563973687437,2.930040120498436
0,2.535010174411925,-0.04026672027130168,-0.15100356036798046,4.880358271501894,2.935040188963452
0,2.0358370906954257,4.309960513589079,-1.8101946570983225,1.1912602677351278,2.9400402574284605
0,1.766664781715543,-1.239811589334294,-2.909385041363502,-2.7278376155452517,2.9450403258934763
0,-7.832506761636109,-9.56958303249343,-4.718574718778436,-5.366935380024427,2.950040394358492
0,-1.2316775483996594,-1.8793538191560342,-5.287763694657945,-1.9160330272037405,2.955040462823508
0,4.729152412617162,2.090876047796838,-0.8769519739317111,-4.8651305582529885,2.9600405312885236
0,0.48998311271363837,6.62110656570239,1.02386043881368,-4.5942279739778975,2.9650405997535323
0,-3.5091854568978347,-8.898662268181665,-3.495326460821715,-5.153325274785111,2.970040668218548
0,-4.158353305018112,0.23156954333622967,-3.6745126771170407,-9.352422460599938,2.975040736683564
0,-0.9475204402537039,-3.3181980023865476,-4.223698214125292,-5.661519530754701,2.9800408051485796
0,-11.226686870887463,-16.26796490764485,-10.132883075523472,-4.420616483923411,2.9850408736135954
0,-4.825852604738511,-12.367731174092341,-7.262067264432612,-1.8997133181954755,2.990040942078604
0,-4.695017649024075,-7.157496802364552,-11.901250783228459,-5.188810031224562,2.99504101054362
0,-1.8341820103801312,0.48273820794282934,0.5095663665379233,-0.5079066203233659,3.0000410790086356
0,-1.9633456950276886,3.272973857863886,0.34038418397378156,3.5329969174476146,3.0050411474736514
0,1.8674912910578807,2.6332101485696717,1.1412026684866294,-4.066099414875696,3.010041215938667
0,-3.861671057973926,-1.516552918913048,1.452021819494434,-0.9251956142384904,3.015041284403676
0,-0.04083274788965158,-5.136315343666532,-2.1771583636594753,-0.8542916774927487,3.0200413528686916
0,-1.6799937843381954,-3.406077124656399,-3.616337881638704,1.1566123986354004,3.0250414213337073
0,-2.9191541728221915,-1.025838260551195,0.924483265011282,4.807516617440948,3.030041489798723
0,-7.758313918644568,-3.7255987497117977,-4.034694924075312,-6.631579017874914,3.035041558263739
0,2.592526973216695,0.4046414097400772,0.2561275508987196,-0.8806745041418437,3.0400416267287547
0,11.153368498014375,8.104882219804995,4.936950689842319,3.8402301619273542,3.0450416951937633
0,8.414210650792292,10.785123682303166,6.587774492585068,4.571134983661163,3.050041763658779
0,5.9450534259291965,7.505365798463714,7.5685989585913624,2.6420399641831933,3.055041832123795
0,3.395896817042897,10.705608568672842,8.929424086722006,4.08294510627405,3.0600419005888106
0,0.9767408171732825,7.225851992426876,1.0302498751480096,-3.076149587600259,3.0650419690538264
0,-4.412414580955111,-2.733903931577251,-4.468923678507508,-4.315244115112011,3.070042037518835
0,-1.781569384657062,-0.8136592051409474,2.3619034231709852,-2.264338473818368,3.075042105983851
0,0.45927639891148647,-4.503413830160407,-5.097268822344404,-1.953432661001414,3.0800421744488666
0,2.330122762736541,-4.193167808343301,0.4635595825579721,-3.8725266736660977,3.0850422429138824
0,-1.7490303001892342,-2.80292114107805,0.8943886356274519,-1.4316205085609917,3.090042311378898
0,-7.498182796871252,-2.272673829402568,-4.014781665290442,1.029285837796552,3.095042379843907
0,-7.317334734082078,-3.6124258740458686,-7.00395132222288,-5.4598076309435415,3.1000424483089226
0,-9.62648611805564,-2.4921772754572613,-5.4031203368721465,-8.21890091092944,3.1050425167739384
0,-14.865636954241118,-11.271928033751234,-7.812288710412274,-4.207993997898306,3.110042585238954
0,-15.594787247054409,2.8083218514071655,-9.53145644337681,-4.387086887032017,3.11504265370397
0,-16.103936999611793,-14.691427619132087,-12.780623535530243,-2.816179573002147,3.1200427221689786
0,-16.213086213548223,-22.521176443836772,-8.249789985704188,-0.685272050093678,3.1250427906339944
0,-18.83223488893196,-8.380924620037627,-14.198955791695742,-5.164364312308719,3.13004285909901
0,-8.87138302423701,-4.180672143673402,-8.088120950237425,-5.063456353372208,3.135042927564026
0,-8.070530616492757,-4.610419009608477,-2.957285457049538,-2.252548166649511,3.1400429960290417
0,-8.069677661601398,-3.6501652120785617,2.2735506928993363,-0.7716397451321868,3.1450430644940504
0,-9.358824154586777,-4.8499107448802965,-10.235612494962599,-5.0507310815239075,3.150043132959066
0,-9.907970089637917,-6.279655601382754,-8.994775014864892,-12.059822168219608,3.155043201424082
0,-2.9371154600977247,-2.219399774494094,1.806063139507406,-4.878912997072409,3.1600432698890977
0,-2.406260258584691,5.87085674326525,1.606901974979806,-2.958003559231227,3.1650433383541134
0,8.934595522694218,7.331113959451004,7.777741498506679,1.3529061547211598,3.170043406819122
0,5.105451891501663,9.081371881262525,4.828581716775245,0.13381615446938921,3.175043475284138
0,4.36630885519882,7.7716305152333796,5.379422635989117,0.44472644974399167,3.1800435437491537
0,7.847166420605301,0.5518898671591075,6.930264261802767,8.965637050189892,3.1850436122141694
0,4.82802459398056,7.3021499422275085,4.511106599311753,5.056547965176531,3.190043680679185
0,2.0388833810308253,-1.157589254809219,4.091949653065328,6.857459203567048,3.195043749144194
0,-0.2502572129799113,1.3926722804931233,5.292793427113795,3.9183707736299596,3.2000438176092096
0,2.2506028169637315,1.6729345523957773,-2.036362074911926,-0.8707173168846492,3.2050438860742254
0,7.181463475709989,6.65319756501194,6.344483150311124,-2.949805060530053,3.210043954539241
0,3.7723247678209186,-5.226538677763891,3.0853291058540964,-0.4788924498884236,3.215044023004257
0,8.603186697398232,13.273725827717563,7.96617579444719,13.492020522491266,3.2200440914692727
0,1.6240492679974794,10.86399108473499,5.657023218339955,-6.297066136133978,3.2250441599342814
0,-0.965087517308654,-6.955742904054255,-10.242128620699983,-7.686152418771759,3.230044228399297
0,3.1357763442638915,-13.355476136429203,-3.171279721054565,-0.1952383183358295,3.235044296864313
0,5.516640855333983,1.93479139005268,3.109569919141004,13.725676172532783,3.2400443653293287
0,4.857506018254917,6.13505967834078,1.9204203019927213,10.596591061026938,3.2450444337943445
0,5.038371834959958,9.115328731475973,2.961271429570268,5.447506353598771,3.250044502259353
0,5.179238306895804,4.145598552062605,7.252123303698922,8.178422055797203,3.255044570724369
0,5.790105435012848,12.405869142034357,9.152975925798366,7.369338172386976,3.2600446391893847
0,8.610973219725807,14.236140502525283,8.05382929666687,12.02025470738419,3.2650447076544005
0,2.871841660854964,8.3364126336625,8.384683416327693,6.191171663972062,3.2700447761194162
0,5.282710757630998,8.326685534471258,7.48553828399211,8.152089044466987,3.275044844584425
0,2.8235805087881776,8.346959202997239,8.616393898079446,5.833006850385915,3.2800449130494407
0,1.6444509126688343,10.797233636422746,11.15725025620359,3.2739250825630943,3.2850449815144565
0,2.7253219673059723,3.0775088310914125,10.378107355096121,2.9748437412850763,3.2900450499794722
0,5.7361936704737495,-0.13221521737769026,6.478965190533643,2.8757628264372217,3.295045118444488
0,5.417066019613761,-6.171938513749356,3.069823757412391,2.886682337594212,3.3000451869094967
0,-1.0720609882408405,-4.7016610627465045,0.9006830499925909,0.5376022740587385,3.3050452553745124
0,-1.3911873563782917,-9.15138286871004,-3.678456937801424,-3.4714773650516824,3.310045323839528
0,-0.23031308817884777,-5.891103935401683,-3.987596212074872,-6.340556580604006,3.315045392304544
0,0.7805618130223405,-3.2008242659321047,1.4332652212472032,-1.129635373207387,3.3200454607695598
0,-3.8385626560577357,-2.2905438628536228,-4.095872643540362,1.3912862568603261,3.3250455292345684
0,-2.5476864986057746,-0.1602627283463927,4.76499018799502,4.372208309478371,3.330045597699584
0,-9.676809717565082,-1.629980864378968,-3.8141462896670824,-6.496869215526608,3.3350456661646
0,-1.4559323154558115,-8.729698272745738,-0.9532820820319272,-1.9759463183434303,3.3400457346296157
0,-0.4150542943167598,-3.8494149549275933,-3.0924171945145766,-0.8050229989867302,3.3450458030946315
0,-4.1541756558497624,0.9008690880417474,-2.5715516323400722,-3.8240992572224046,3.35004587155964
0,-7.753296401497864,-3.3788461445093367,-8.09068540046304,0.946824907385455,3.355045940024656
0,0.5075834676520008,5.881439346908498,0.9001814965292666,0.937749495417842,3.3600460084896717
0,-0.8715360491069386,-5.278274438201998,1.6210490543943674,0.42867450749174685,3.3650460769546875
0,6.51934504769498,-5.61798750031354,-2.358082730954921,4.109599944156127,3.3700461454197033
0,-7.7997732425169195,-3.4776998396707186,-5.057213863549535,-1.1094741941794624,3.375046213884719
0,-0.048890920345651456,-0.27741145613320806,-1.7663443472457772,2.7214520927402264,3.3800462823497277
0,-2.7580079862475073,1.8728776507302713,1.744525814364239,-0.5976211949534003,3.3850463508147435
0,-5.917124440420858,-0.36683251856357973,-9.054603382096328,-1.6766940572043476,3.3900464192797592
0,-4.406240282745152,-0.406541963527183,-2.263731939759443,-0.5557664939479302,3.395046487744775
0,-4.365355512682597,-10.75625068362795,-9.782859861343418,-3.574838505025686,3.400046556209791
0,-2.5344701292515515,4.614041321913819,-2.911987149019169,-3.123910090109636,3.4050466246747995
0,-1.9935841310917732,13.444334054087204,4.638886195553843,4.677018751333078,3.4100466931398152
0,0.43730248342445843,-3.1053724863303502,0.039760170961061395,-3.192051980056368,3.415046761604831
0,1.358189716071062,-3.675078299002047,-8.179365224203448,-4.491122283604769,3.4200468300698468
0,-0.6309224313617525,-5.674783383708285,-1.118489991234279,-4.610192158479712,3.4250468985348625
0,0.2899660428831912,5.5955122600019145,-1.1976141311230286,-3.9492616034994272,3.430046966999871
0,-1.0591448594511252,-10.844191367174737,-8.536737644540676,-0.6483306170837817,3.435047035464887
0,-1.8682551365880502,-2.0138942643092235,-2.195860531815658,-5.477399197319755,3.4400471039299028
0,2.0326352133184287,0.25640356987011137,-2.2849827928605735,-10.226467341952251,3.4450471723949185
0,-4.676473807814949,-7.583297863022342,-11.284104427169517,-15.695535048140108,3.4500472408599343
0,-3.345582197959956,-10.502998561017677,-9.80322543371264,-1.894602312137097,3.455047309324943
0,-7.674689954826374,-12.882698521529584,-11.202345810672364,-9.0436691292427,3.4600473777899587
0,-16.213797075615645,-19.702397740971715,-17.821465555201687,-6.202735493981809,3.4650474462549745
0,-6.002903556707838,-13.232096214424583,-12.680584663228027,-1.3518014002500687,3.4700475147199903
0,0.8479906064602909,-3.7417939355260805,3.060296870596521,4.3691331585233995,3.475047583185006
0,-2.1411145808995125,-4.371490896754796,-2.7388209474721847,2.8400681890392496,3.4800476516500147
0,0.7197808866908787,0.9088129100896198,0.14206188919052165,0.8110036978365411,3.4850477201150305
0,2.8006770147657574,-1.7808825064715155,-5.017054612657088,-2.9080603087498424,3.4900477885800463
0,4.301573808788085,-6.460577137738111,0.9138295539000187,1.4228761755510766,3.495047857045062
0,3.762471273984206,-2.070270974770967,2.364714395937692,0.4838131570426323,3.500047925510078
0,1.7033694152510308,-11.729964008235418,-4.0944000794139,0.6447506420261768,3.5050479939750865
0,-4.615731762789425,-8.69965622821396,-3.023513864983506,-3.2243113632280482,3.5100480624401023
0,-3.1148322555621926,-2.899347624041516,-7.852626953393155,0.24662714758326143,3.515048130905118
0,2.3060679416735117,1.6009618156239878,-0.36173933687404597,5.317566180825368,3.520048199370134
0,3.8169688337940424,18.511272102361737,9.319148992678853,7.948505742749516,3.5250482678351496
0,3.3278704255826796,3.481583247344433,8.50003804331567,6.829445839192033,3.5300483363001653
0,-2.6112272784191464,6.261895260923929,7.1409278225506405,12.900386475323202,3.535048404765174
0,-6.190324273796682,0.9822081527069326,-1.3481816628012606,1.9113276555119632,3.54004847323019
0,-0.2094205559926531,-13.367478068070099,-6.437290406377732,-8.717730616551892,3.5450485416952056
0,5.101483879794321,-5.5171633920200875,1.0736015981552232,-10.416788337329365,3.5500486101602213
0,8.012389038365837,5.193152190772773,2.6244943573175874,3.964154497142583,3.555048678625237
0,7.703294924139464,4.023468690594038,4.165387877662545,1.1850978913040424,3.5600487470902458
0,4.934201540897466,6.223786117619881,4.906282165530431,0.27604184972566775,3.5650488155552615
0,0.5951088917927206,2.204104481621532,5.897177226884292,-2.043013623091594,3.5700488840202773
0,3.7860169795225245,-2.8255762080232896,0.14807306724443742,2.427931477324834,3.575048952485293
0,2.1869258064902697,10.37474405781239,8.268969691718288,7.96887715540092,3.580049020950309
0,6.127835374826939,20.66506528788867,15.719867104937368,7.259823415282689,3.5850490894153175
0,9.418745686279404,16.20538749003984,12.580765310730477,7.180770260559406,3.5900491578803333
0,1.9096567420549588,3.2857106706954884,9.16166431179063,7.641717694123915,3.595049226345349
0,1.8105685427970482,3.97603483502332,2.992564109675029,7.0626657181521875,3.600049294810365
0,2.8614810887489397,8.736359987399211,4.163464705104804,3.1436143341304486,3.6050493632753806
0,5.212394379885565,6.686686131622622,3.724366098270277,7.524563542936997,3.6100494317403893
0,-3.1366915840890264,-5.762986729071469,-0.5647317110081606,2.135513344918451,3.615049500205405
0,-3.3557768036433964,-12.182658591713855,-9.663828723090802,-1.22353626001702,3.620049568670421
0,5.775138720769879,3.257670546935276,3.7370750617763684,-0.2225852722101057,3.6250496371354366
0,-4.823945011245168,-1.0319993094120647,1.6279796435931726,-5.511633692016051,3.6300497056004524
0,-1.0430280000712802,-9.631668156747985,-4.271114977553069,-1.840681519619373,3.635049774065461
0,-7.762110245963583,2.9686640091845797,-3.0302088015458164,-6.589728754906141,3.640049842530477
0,-6.011191748828401,-1.1710028070651033,0.52069817189871,3.221224602581817,3.6450499109954926
0,-2.0802725080763893,-0.4806686007832756,-2.4183940567313673,-3.2578214464374486,3.6500499794605084
0,6.120647477308819,5.889666632747506,6.312514513155112,1.0931330988820285,3.655050047925524
0,2.6715682084502936,4.300002898103418,8.85342388203504,4.084088239415002,3.660050116390533
0,0.22248968626622764,6.190340199522646,4.254334049968042,1.6950439759448481,3.6650501848555486
0,2.73341191142231,0.8106785407889969,1.4452450164400035,3.156000309039984,3.6700502533205643
0,3.414334884382077,1.3510179252928076,1.1261567804861357,1.826957239013171,3.67505032178558
0,-6.774741394552009,3.5713583561619364,-6.332930659059177,-1.7220852340402604,3.680050390250596
0,-5.743816925070093,-5.288300163635771,-3.992017303284654,-3.1311271101158793,3.6850504587156045
0,-3.352891706555666,-1.1079576311663697,-1.671103152976394,-3.6301683891123875,3.6900505271806203
0,5.648034262010771,7.232385956585373,0.7998117914084476,-2.0092090706836023,3.695050595645636
0,1.078960981806906,2.7527306025893665,8.55072752953782,-0.6182491542100571,3.700050664110652
0,7.549888453849119,1.2830763095352482,-0.8083559390875,2.0627113611102774,3.7050507325756676
0,4.770816678783772,-2.216576920174343,-6.977438615226634,2.923672476105685,3.7100508010406834
0,0.5817456568024533,-6.426229084202296,-11.066520499585211,-2.705365808498806,3.715050869505692
0,-9.687324612225387,-5.795880179985906,-7.435601592329965,-6.074403492028298,3.720050937970708
0,-3.1163941283578214,1.0544697954519489,-1.0646818928631452,-3.4234405736241214,3.7250510064357236
0,7.59453710868906,6.504820845406116,4.706238599994852,4.557522947897563,3.7300510749007394
0,-2.724530900625345,4.635172973125595,3.207159887577073,0.09848707389972634,3.735051143365755
0,-5.18359815588504,-0.7544738184764519,-6.151918028924554,-0.6705481943016491,3.740051211830764
0,-1.4526646566068453,-3.6141195267809105,-0.9609951483893171,2.310417144521349,3.7450512802957796
0,2.78826959792321,-2.543764149189679,-0.22007146955241141,0.3213830915296553,3.7500513487607954
0,9.58920460848665,6.726592317038036,8.750853008969063,4.042349647785235,3.755051417225811
0,8.57014037554369,0.5069498746625494,11.091778288343813,1.4533168141784805,3.760051485690827
0,3.1410768989181586,1.2873085262608834,5.632704369130622,0.9042845913881553,3.7650515541558356
0,4.0120141777703076,2.2476682741992824,2.4036312511182656,0.25525297991641915,3.7700516226208514
0,2.5829522107646694,4.66802912065985,2.3345589334933843,3.086221980148788,3.775051691085867
0,4.163890996201102,5.348391067562467,1.78548741508199,2.617191592337029,3.780051759550883
0,-1.005169467925632,0.9087541164574636,0.796416694484449,3.7881618165236906,3.7850518280158987
0,4.865770816134375,10.949118268484499,3.587346770123041,-1.3708673475055166,3.7900518964809073
0,3.776711845908454,-8.410516475624762,0.7882776402407664,-6.3298959001143436,3.795051964945923
0,-1.7823463813340048,-7.430150115342531,-3.5507906970779133,1.041076158423736,3.800052033410939
0,-7.051403868490105,1.2302173500666334,-1.1198582437762106,-1.4479511719393499,3.8050521018759547
0,-7.370460618295772,2.940585921700284,-3.4789250016605537,-4.646977891063833,3.8100521703409704
0,-6.829516632986964,-0.5690443992249149,0.20200902766901013,-4.606003998604083,3.815052238805979
0,-4.128571914157017,2.481326388414355,-1.5470561572064576,2.1049705060847277,3.820052307270995
0,-7.377626462782254,-1.6683017143671868,-7.196120557541232,-7.224054376069122,3.8250523757360106
0,-8.246680279247673,-7.457928706563725,-5.3751841743102124,-8.073078643849886,3.8300524442010264
0,-3.635733363301884,-2.6675545869672925,-2.2842470080410693,0.8478977043910862,3.835052512666042
0,-2.354785714086328,-1.317179353999151,-7.383309058781515,-2.131125329247622,3.840052581131051
0,-9.113837330250357,-9.486803005701784,-5.512370326108363,-2.9601477423875,3.8450526495960666
0,-4.432888209969193,-12.096425539654339,-3.7114308090821564,-3.1791695324524802,3.8500527180610824
0,-4.7019383508696455,3.203953047234394,-1.5804905062698056,-2.868190696616922,3.855052786526098
0,5.819012249898999,11.034332758590722,4.750450584087214,2.872788768198109,3.860052854991114
0,1.0099635953749375,7.874713597960176,5.701392463778616,-2.7362311347805566,3.8650529234561297
0,3.6109156884781197,4.915095568258703,2.5223351343278955,-0.055250402275528715,3.8700529919211384
0,6.711868531849074,10.095478671645118,2.8232785968632155,8.395730968988358,3.875053060386154
0,5.932822127738792,1.0958629095878372,10.194222852125243,3.686712982110167,3.88005312885117
0,1.2237764779057643,-7.123751716964517,0.47516790040222645,1.8876956397998725,3.8850531973161857
0,4.4347315836509775,-4.803365207177227,4.476113741487787,8.328678944330704,3.8900532657812015
0,7.235687445890615,4.017022440049673,5.327060374750308,5.929662897528549,3.89505333424621
0,6.696644065099126,10.277411225997794,7.988007799144228,-2.109352499285987,3.900053402711226
0,11.027601441138138,6.297801151674243,8.528956013070816,3.781632754805543,3.9050534711762417
0,11.14855957308677,17.548192217381263,6.9799050142310195,13.202618660432123,3.9100535396412575
0,5.499518459108607,-2.761415577494059,3.970854799594266,-0.9063947822179659,3.9150536081062732
0,-3.389521903461601,-4.861022234324438,-3.71819463445447,-1.6554075734854619,3.920053676571282
0,2.4514384822368367,1.5993722452605916,1.462756708181442,-0.05441971398076076,3.9250537450362977
0,-0.4476003870688015,11.7397678596603,7.2437088235179745,4.466568795661606,3.9300538135013134
0,-0.2066385146790493,8.110164607014084,9.5246617073503,5.027557954714586,3.935053881966329
0,2.1543240960739443,12.49056248475015,7.165615354917576,4.4585477621510226,3.940053950431345
0,2.4452874417939316,5.410961489367854,4.116569760728321,1.6295382165326298,3.9450540188963537
0,8.136251518904801,2.7313616164928365,5.067524918621457,1.0305293160629034,3.9500540873613694
0,1.0072163234866847,2.171762861119558,1.0184808219243742,-1.70847894126906,3.955054155826385
0,-9.991818148715636,-4.3878347820908745,-11.37056253632234,-5.3774865575027855,3.960054224291401
0,-9.410851901905279,-9.017431318494893,-8.399605162933188,-4.97649353449114,3.9650542927564167
0,-3.759884939742558,-0.30702675313585825,-7.238647064115974,-7.665499873684552,3.9700543612214254
0,-10.298917265153587,-2.9566210906099464,-9.607688245265399,-5.234505575993591,3.975054429686441
0,-13.4379488803028,-6.596214335142272,-8.126728710954941,1.0464893582250436,3.980054498151457
0,-5.756979786469139,-11.52580649055754,-8.475768464929933,-5.572515070965224,3.9850545666164727
0,-0.2860099840226952,-9.795397560024895,-5.534807510120958,-8.721518863179567,3.9900546350814885
0,-3.1750394727100315,-16.824987545773467,-9.063845848701614,-5.550522017575582,3.995054703546497
0,-3.494068251943286,-20.294576448820003,-11.972883482095286,-6.749524532686989,4.000054772011513
0,1.8469036790939646,-6.504164268724066,-7.551920410870128,-1.0885264064272875,4.005054840476529
0,12.997876321303485,-2.583751003660586,3.6690433652607295,2.1424723637379435,4.0100549089415445
0,7.768849675258287,3.5966633490705755,2.640007847098466,-0.32652821946790445,4.01505497740656
0,8.199823740794542,-3.1029212075221904,-0.8390269644893024,-2.455528153310967,4.020055045871576
0,14.74079851684762,1.8574953296038714,6.221938931205903,11.345472564900051,4.025055114336585
0,9.521774001366724,12.2579129634141,8.762905534632596,10.736473937600916,4.0300551828016005
0,12.302750191211215,7.048331696517942,12.273872845728013,8.847475966558425,4.035055251266616
0,7.943727082133383,5.75875153084404,6.02484086362674,1.5084786526607388,4.040055319731632
0,10.544704668858529,4.299172467587012,5.955809586581217,8.629481996053418,4.045055388196648
0,2.485682945191808,-1.7904054926083974,4.566779012099483,-0.4495140036609624,4.0500554566616565
0,6.486661904184256,-1.7699823493836746,1.6477491371280963,2.551490652709574,4.055055525126672
0,7.087641538290884,-0.45955810240850414,2.328719958211983,2.012495964079045,4.060055593591688
0,9.468621839373483,10.350867248677366,10.679691471565272,3.183501929159833,4.065055662056704
0,4.719602798603708,5.54129370401988,7.780663672942134,5.954508546415847,4.0700557305217195
0,10.910584406413884,10.281721263210416,11.331636557382819,4.135515813960781,4.075055798986728
0,-1.5884333474662862,10.122149925077466,-2.9373898808909082,-3.5234762704777944,4.080055867451744
0,0.012549526159626567,6.832579687586434,1.5435843517375958,-3.782467709380024,4.08505593591676
0,6.963533016210403,3.383010547864134,-0.15544075136861413,-0.4714585051382244,4.0900560043817755
0,-2.795482888577807,-8.976557497551338,-0.9044651968899835,-0.7504486599296862,4.095056072846791
0,-5.234498199611595,-12.346124452177893,-5.58348899146587,-5.089438175753317,4.1000561413118
0,-0.5635129282358186,-3.6756903190078565,0.707487858424227,0.44157294557640414,4.105056209776816
0,0.7474729144313814,-4.5552551002661215,-2.5715346534743175,4.792584702411902,4.1100562782418315
0,5.298459317386567,4.875181202392552,5.619443466727927,1.483597093092923,4.115056346706847
0,4.449446269487408,-0.7343814124700365,2.330422212880894,12.164610115692497,4.120056415171863
0,-2.219566240710691,3.486057053660621,3.6014015786079607,10.085623767754049,4.125056483636872
0,3.601421775084229,6.356496599110708,8.692381557185422,7.95663804601699,4.1300565521018875
0,-0.8475896949783888,2.8669372218955234,5.063362141424612,14.267652946265265,4.135056620566903
0,1.4933993371574619,0.5473789196442984,2.4743433235799226,1.4386684633182074,4.140056689031919
0,-2.7856111405149844,4.397821689665027,-0.39467490457118004,1.5596845911727084,4.145056757496935
0,0.5753788600067099,6.258265528992015,6.656307448451497,4.410701323313318,4.1500568259619435
0,-5.023630673188974,7.808710434268716,3.397290373867939,1.551718652927089,4.155056894426959
0,2.1273602481348757,3.889156401585681,-4.181726137406884,2.572736572942464,4.160056962891975
0,7.958351612301755,-0.4603965735232671,0.23925790535737415,7.203755076006506,4.165057031356991
0,5.419343407446552,3.960051504092982,1.9002424929048862,0.5947741544276987,4.170057099822007
0,3.290335621242712,5.930500629326795,2.3912276159896435,2.7057938001503117,4.175057168287015
0,1.091328240871605,8.91095079671566,-0.41778673473859673,3.26681400481756,4.180057236752031
0,-5.947678746774871,-4.778597999701891,-4.446800568728078,-3.8621652401389426,4.185057305217047
