labels,F4,F3,Fz,Cz,timestamps
0,-2116.73,-1178.68,-2129.53,-2535.73,-2.0000273860057582
0,-2115.52,-1182.0,-2124.54,-2539.34,-1.9950273175407425
0,-2115.62,-1188.65,-2121.93,-2537.69,-1.9900272490757303
0,-2118.43,-1184.63,-2128.52,-2534.76,-1.9850271806107145
0,-2107.2,-1175.76,-2116.16,-2527.56,-1.9800271121457023
0,-2112.16,-1180.0,-2116.44,-2528.16,-1.9750270436806865
0,-2113.35,-1177.99,-2118.98,-2531.4,-1.9700269752156707
0,-2111.5,-1175.68,-2108.72,-2529.49,-1.9650269067506585
0,-2108.92,-1177.82,-2112.6,-2533.62,-1.9600268382856427
0,-2109.35,-1176.42,-2121.98,-2536.74,-1.9550267698206305
0,-2112.68,-1178.07,-2117.04,-2527.13,-1.9500267013556147
0,-2113.69,-1172.82,-2117.95,-2528.95,-1.945026632890599
0,-2112.39,-1177.15,-2115.46,-2528.31,-1.9400265644255867
0,-2113.74,-1178.69,-2117.69,-2533.57,-1.935026495960571
0,-2112.66,-1180.91,-2113.9,-2532.11,-1.9300264274955587
0,-2110.57,-1184.99,-2120.65,-2536.33,-1.925026359030543
0,-2113.66,-1176.54,-2122.4,-2533.89,-1.9200262905655272
0,-2114.84,-1185.68,-2126.18,-2535.44,-1.915026222100515
0,-2117.08,-1186.21,-2124.64,-2536.62,-1.9100261536354992
0,-2115.44,-1180.51,-2125.91,-2536.15,-1.9050260851704834
0,-2124.2,-1183.69,-2130.87,-2543.5,-1.9000260167054712
0,-2121.21,-1174.1,-2123.72,-2542.56,-1.8950259482404554
0,-2104.8,-1176.27,-2115.97,-2526.47,-1.8900258797754432
0,-2109.51,-1178.62,-2114.44,-2529.94,-1.8850258113104275
0,-2116.18,-1181.35,-2124.02,-2535.68,-1.8800257428454117
0,-2108.04,-1173.93,-2117.13,-2532.79,-1.8750256743803995
0,-2114.81,-1183.43,-2122.85,-2537.04,-1.8700256059153837
0,-2117.3,-1181.54,-2124.2,-2538.44,-1.8650255374503715
0,-2119.57,-1183.18,-2130.04,-2537.28,-1.8600254689853557
0,-2118.89,-1190.69,-2127.44,-2538.03,-1.85502540052034
0,-2114.59,-1183.83,-2121.73,-2535.61,-1.8500253320553277
0,-2114.08,-1181.71,-2116.05,-2531.5,-1.845025263590312
0,-2110.96,-1181.78,-2118.29,-2533.88,-1.8400251951252997
0,-2108.73,-1173.62,-2115.54,-2528.14,-1.835025126660284
0,-2117.42,-1182.15,-2122.11,-2533.21,-1.8300250581952682
0,-2118.61,-1191.29,-2127.47,-2536.96,-1.825024989730256
0,-2125.16,-1192.26,-2131.76,-2539.78,-1.8200249212652402
0,-2124.93,-1181.96,-2127.72,-2543.84,-1.8150248528002244
0,-2117.85,-1178.94,-2124.21,-2540.81,-1.8100247843352122
0,-2119.14,-1179.18,-2122.73,-2537.4,-1.8050247158701964
0,-2119.07,-1187.64,-2122.71,-2543.4,-1.8000246474051842
0,-2115.67,-1179.37,-2123.02,-2537.2,-1.7950245789401684
0,-2113.76,-1177.43,-2120.93,-2533.97,-1.7900245104751527
0,-2126.62,-1183.16,-2128.0,-2540.67,-1.7850244420101404
0,-2111.14,-1181.55,-2122.33,-2533.66,-1.7800243735451247
0,-2114.33,-1185.66,-2127.48,-2537.0,-1.7750243050801124
0,-2113.77,-1185.8,-2120.18,-2534.99,-1.7700242366150967
0,-2114.76,-1186.61,-2122.31,-2531.04,-1.765024168150081
0,-2108.12,-1174.3,-2124.41,-2530.56,-1.7600240996850687
0,-2111.3,-1178.91,-2121.93,-2537.89,-1.755024031220053
0,-2114.11,-1192.64,-2118.82,-2537.69,-1.7500239627550371
0,-2117.24,-1187.63,-2126.46,-2537.97,-1.745023894290025
0,-2112.17,-1175.67,-2117.27,-2535.06,-1.7400238258250091
0,-2122.37,-1182.97,-2118.14,-2536.49,-1.735023757359997
0,-2110.9,-1173.97,-2115.58,-2531.04,-1.7300236888949811
0,-2114.23,-1173.72,-2116.9,-2533.09,-1.7250236204299654
0,-2115.41,-1173.92,-2122.23,-2530.11,-1.7200235519649532
0,-2112.72,-1173.67,-2108.67,-2528.32,-1.7150234834999374
0,-2104.15,-1159.52,-2103.19,-2523.81,-1.7100234150349252
0,-2107.08,-1162.31,-2108.29,-2527.36,-1.7050233465699094
0,-2105.41,-1170.74,-2107.53,-2522.28,-1.7000232781048936
0,-2110.32,-1173.67,-2114.98,-2528.54,-1.6950232096398814
0,-2115.7,-1176.36,-2118.97,-2526.29,-1.6900231411748656
0,-2109.86,-1177.66,-2112.75,-2527.01,-1.6850230727098534
0,-2112.41,-1172.84,-2109.54,-2528.36,-1.6800230042448376
0,-2109.61,-1170.79,-2109.59,-2530.12,-1.6750229357798219
0,-2109.56,-1172.54,-2112.9,-2529.61,-1.6700228673148096
0,-2110.7,-1172.45,-2118.79,-2526.98,-1.6650227988497939
0,-2115.96,-1177.67,-2119.86,-2535.6,-1.660022730384778
0,-2114.28,-1190.83,-2126.67,-2536.21,-1.6550226619197659
0,-2118.32,-1195.75,-2133.64,-2540.84,-1.65002259345475
0,-2129.61,-1200.06,-2134.36,-2539.55,-1.6450225249897379
0,-2125.87,-1194.73,-2133.85,-2544.73,-1.6400224565247221
0,-2128.35,-1191.72,-2135.15,-2547.22,-1.6350223880597063
0,-2124.71,-1190.48,-2133.43,-2539.3,-1.6300223195946941
0,-2113.58,-1182.48,-2130.57,-2533.34,-1.6250222511296784
0,-2123.49,-1189.66,-2125.25,-2538.31,-1.6200221826646661
0,-2118.96,-1186.6,-2126.05,-2535.84,-1.6150221141996504
0,-2119.83,-1180.42,-2129.96,-2530.02,-1.6100220457346346
0,-2120.55,-1194.15,-2132.24,-2533.46,-1.6050219772696224
0,-2110.34,-1181.44,-2123.86,-2531.84,-1.6000219088046066
0,-2112.71,-1175.94,-2117.74,-2529.14,-1.5950218403395944
0,-2113.88,-1184.75,-2123.76,-2533.33,-1.5900217718745786
0,-2115.64,-1185.56,-2130.48,-2537.05,-1.5850217034095628
0,-2112.84,-1179.02,-2123.95,-2534.33,-1.5800216349445506
0,-2112.39,-1180.85,-2120.93,-2533.53,-1.5750215664795348
0,-2115.97,-1187.81,-2120.67,-2529.67,-1.570021498014519
0,-2119.0,-1186.03,-2125.98,-2534.0,-1.5650214295495068
0,-2117.19,-1178.19,-2123.45,-2540.61,-1.560021361084491
0,-2119.52,-1179.77,-2126.05,-2539.31,-1.5550212926194789
0,-2122.48,-1185.29,-2122.43,-2541.01,-1.550021224154463
0,-2113.91,-1183.88,-2126.65,-2540.84,-1.5450211556894473
0,-2117.32,-1177.18,-2119.9,-2538.61,-1.540021087224435
0,-2113.89,-1171.38,-2119.31,-2536.58,-1.5350210187594193
0,-2116.61,-1174.74,-2120.79,-2538.33,-1.530020950294407
0,-2123.87,-1176.82,-2131.78,-2539.91,-1.5250208818293913
0,-2125.29,-1184.86,-2129.41,-2545.35,-1.5200208133643756
0,-2121.58,-1183.83,-2125.79,-2546.12,-1.5150207448993633
0,-2124.37,-1183.55,-2131.07,-2546.94,-1.5100206764343476
0,-2123.55,-1188.86,-2124.58,-2544.37,-1.5050206079693318
0,-2121.95,-1190.27,-2125.17,-2536.96,-1.5000205395043196
0,-2113.75,-1181.12,-2116.39,-2533.74,-1.4950204710393038
0,-2118.27,-1178.72,-2116.1,-2529.19,-1.4900204025742916
0,-2104.8,-1172.77,-2111.02,-2525.74,-1.4850203341092758
0,-2107.78,-1175.08,-2116.59,-2525.55,-1.48002026564426
0,-2109.13,-1173.26,-2118.43,-2532.77,-1.4750201971792478
0,-2114.75,-1182.89,-2124.52,-2534.11,-1.470020128714232
0,-2114.79,-1176.9,-2118.69,-2531.85,-1.4650200602492198
0,-2109.24,-1169.8,-2113.52,-2530.87,-1.460019991784204
0,-2107.95,-1172.13,-2113.08,-2531.16,-1.4550199233191883
0,-2110.17,-1183.38,-2113.21,-2528.94,-1.450019854854176
0,-2108.91,-1180.32,-2110.99,-2525.26,-1.4450197863891603
0,-2112.19,-1176.46,-2117.25,-2530.24,-1.440019717924148
0,-2115.04,-1177.6,-2119.61,-2536.33,-1.4350196494591323
0,-2114.61,-1178.92,-2118.08,-2532.22,-1.4300195809941165
0,-2116.75,-1175.22,-2118.66,-2537.46,-1.4250195125291043
0,-2116.23,-1185.85,-2125.61,-2544.76,-1.4200194440640885
0,-2116.33,-1184.66,-2126.65,-2543.14,-1.4150193755990728
0,-2123.22,-1198.41,-2129.24,-2541.37,-1.4100193071340605
0,-2119.25,-1187.76,-2128.95,-2535.82,-1.4050192386690448
0,-2118.13,-1180.03,-2126.99,-2537.25,-1.4000191702040325
0,-2124.14,-1182.41,-2126.32,-2538.52,-1.3950191017390168
0,-2117.27,-1178.91,-2119.64,-2534.63,-1.390019033274001
0,-2114.06,-1182.4,-2123.65,-2530.42,-1.3850189648089888
0,-2112.64,-1182.51,-2123.09,-2536.8,-1.380018896343973
0,-2110.56,-1178.39,-2119.61,-2527.77,-1.3750188278789608
0,-2108.68,-1181.32,-2121.13,-2521.04,-1.370018759413945
0,-2117.36,-1180.67,-2121.99,-2531.04,-1.3650186909489292
0,-2121.77,-1186.85,-2126.4,-2544.38,-1.360018622483917
0,-2112.18,-1176.85,-2126.94,-2535.6,-1.3550185540189013
0,-2110.25,-1178.3,-2118.36,-2531.94,-1.350018485553889
0,-2112.98,-1174.71,-2115.9,-2526.59,-1.3450184170888733
0,-2105.05,-1175.03,-2114.19,-2527.42,-1.3400183486238575
0,-2108.08,-1172.5,-2113.57,-2533.77,-1.3350182801588453
0,-2115.47,-1170.92,-2117.99,-2532.25,-1.3300182116938295
0,-2120.4,-1185.91,-2123.79,-2542.98,-1.3250181432288137
0,-2112.63,-1179.22,-2120.87,-2528.53,-1.3200180747638015
0,-2111.21,-1178.0,-2116.89,-2527.59,-1.3150180062987857
0,-2112.16,-1185.4,-2118.54,-2534.53,-1.3100179378337735
0,-2120.0,-1185.02,-2123.87,-2537.08,-1.3050178693687577
0,-2111.87,-1178.13,-2121.04,-2535.88,-1.300017800903742
0,-2112.11,-1163.63,-2123.0,-2525.89,-1.2950177324387298
0,-2108.75,-1176.87,-2113.43,-2529.78,-1.290017663973714
0,-2112.44,-1179.3,-2118.76,-2528.73,-1.2850175955087018
0,-2108.74,-1173.35,-2115.18,-2526.94,-1.280017527043686
0,-2111.47,-1174.64,-2118.98,-2532.6,-1.2750174585786702
0,-2114.68,-1178.01,-2119.75,-2531.98,-1.270017390113658
0,-2119.78,-1180.32,-2124.83,-2537.4,-1.2650173216486422
0,-2119.68,-1172.37,-2119.99,-2539.91,-1.2600172531836265
0,-2123.71,-1191.92,-2127.98,-2543.72,-1.2550171847186142
0,-2125.7,-1196.76,-2134.78,-2547.25,-1.2500171162535985
0,-2125.76,-1200.8,-2137.25,-2545.38,-1.2450170477885862
0,-2126.87,-1189.79,-2129.03,-2541.1,-1.2400169793235705
0,-2120.62,-1192.8,-2128.52,-2537.06,-1.2350169108585547
0,-2118.36,-1190.31,-2123.59,-2539.69,-1.2300168423935425
0,-2118.31,-1190.99,-2125.55,-2534.58,-1.2250167739285267
0,-2120.06,-1182.17,-2123.62,-2531.67,-1.2200167054635145
0,-2114.26,-1184.95,-2120.58,-2532.47,-1.2150166369984987
0,-2113.35,-1180.53,-2119.0,-2527.47,-1.210016568533483
0,-2105.46,-1175.99,-2113.81,-2520.65,-1.2050165000684707
0,-2108.49,-1166.54,-2108.21,-2516.69,-1.200016431603455
0,-2105.28,-1175.94,-2114.66,-2526.05,-1.1950163631384427
0,-2109.18,-1175.85,-2122.61,-2523.27,-1.190016294673427
0,-2113.56,-1176.85,-2115.94,-2528.35,-1.1850162262084112
0,-2109.9,-1167.98,-2112.57,-2529.48,-1.180016157743399
0,-2108.16,-1171.86,-2112.11,-2529.72,-1.1750160892783832
0,-2112.97,-1180.29,-2120.12,-2535.18,-1.1700160208133674
0,-2110.74,-1185.44,-2119.48,-2535.05,-1.1650159523483552
0,-2106.17,-1183.68,-2117.54,-2535.21,-1.1600158838833394
0,-2115.68,-1165.55,-2121.1,-2529.83,-1.1550158154183272
0,-2113.61,-1177.31,-2117.74,-2529.31,-1.1500157469533114
0,-2113.2,-1178.09,-2117.17,-2531.75,-1.1450156784882957
0,-2113.14,-1179.12,-2118.22,-2533.35,-1.1400156100232834
0,-2119.25,-1186.8,-2125.39,-2536.67,-1.1350155415582677
0,-2122.74,-1184.34,-2131.43,-2541.05,-1.1300154730932555
0,-2116.4,-1185.58,-2118.43,-2535.67,-1.1250154046282397
0,-2127.04,-1185.59,-2124.2,-2536.36,-1.120015336163224
0,-2121.64,-1188.11,-2128.99,-2539.85,-1.1150152676982117
0,-2130.19,-1187.41,-2133.08,-2550.13,-1.110015199233196
0,-2124.48,-1193.03,-2132.92,-2543.26,-1.1050151307681837
0,-2131.36,-1194.79,-2132.31,-2546.48,-1.100015062303168
0,-2122.77,-1178.43,-2122.52,-2540.08,-1.0950149938381522
0,-2120.23,-1183.6,-2121.78,-2536.74,-1.09001492537314
0,-2115.39,-1178.07,-2122.68,-2535.46,-1.0850148569081242
0,-2123.52,-1184.31,-2126.56,-2543.62,-1.0800147884431084
0,-2114.73,-1185.82,-2120.8,-2540.28,-1.0750147199780962
0,-2116.69,-1180.33,-2118.46,-2534.01,-1.0700146515130804
0,-2112.01,-1184.54,-2115.67,-2532.42,-1.0650145830480682
0,-2113.19,-1174.98,-2120.73,-2534.05,-1.0600145145830524
0,-2112.23,-1182.37,-2120.64,-2535.05,-1.0550144461180366
0,-2113.85,-1186.83,-2124.13,-2537.96,-1.0500143776530244
0,-2114.35,-1176.26,-2121.76,-2532.25,-1.0450143091880086
0,-2110.01,-1175.29,-2116.78,-2524.31,-1.0400142407229964
0,-2107.25,-1169.29,-2115.28,-2532.39,-1.0350141722579806
0,-2105.5,-1164.15,-2109.16,-2530.83,-1.0300141037929649
0,-2113.44,-1182.8,-2121.55,-2538.05,-1.0250140353279527
0,-2119.99,-1186.48,-2126.22,-2537.5,-1.0200139668629369
0,-2116.43,-1187.65,-2125.43,-2534.15,-1.015013898397921
0,-2116.3,-1185.87,-2125.61,-2532.28,-1.010013829932909
0,-2108.58,-1180.36,-2121.43,-2528.7,-1.0050137614678931
0,-2111.97,-1182.28,-2114.67,-2533.59,-1.000013693002881
0,-2114.17,-1183.18,-2121.46,-2532.62,-0.9950136245378651
0,-2108.68,-1181.27,-2119.6,-2531.02,-0.9900135560728494
0,-2108.97,-1170.85,-2117.54,-2535.93,-0.9850134876078371
0,-2107.48,-1178.85,-2119.41,-2536.15,-0.9800134191428214
0,-2120.25,-1183.95,-2129.74,-2542.7,-0.9750133506778091
0,-2117.45,-1183.58,-2127.23,-2541.25,-0.9700132822127934
0,-2118.29,-1176.25,-2118.45,-2535.19,-0.9650132137477776
0,-2120.88,-1187.94,-2126.45,-2539.54,-0.9600131452827654
0,-2121.59,-1187.4,-2119.98,-2538.87,-0.9550130768177496
0,-2119.58,-1179.63,-2121.56,-2542.39,-0.9500130083527374
0,-2115.21,-1171.41,-2120.45,-2536.77,-0.9450129398877216
0,-2116.85,-1174.98,-2123.94,-2538.99,-0.9400128714227058
0,-2110.9,-1179.74,-2116.42,-2537.64,-0.9350128029576936
0,-2103.92,-1178.73,-2117.73,-2534.8,-0.9300127344926779
0,-2112.43,-1177.18,-2119.99,-2534.64,-0.9250126660276621
0,-2115.37,-1178.62,-2123.29,-2532.09,-0.9200125975626499
0,-2118.13,-1186.05,-2124.64,-2530.14,-0.9150125290976341
0,-2118.8,-1181.49,-2122.18,-2534.76,-0.9100124606326219
0,-2116.07,-1179.99,-2122.27,-2540.35,-0.9050123921676061
0,-2115.85,-1171.88,-2121.75,-2534.94,-0.9000123237025903
0,-2116.96,-1182.8,-2121.08,-2535.21,-0.8950122552375781
0,-2116.54,-1192.44,-2125.69,-2534.62,-0.8900121867725623
0,-2120.1,-1192.88,-2131.32,-2535.95,-0.8850121183075501
0,-2114.17,-1176.62,-2125.44,-2533.89,-0.8800120498425343
0,-2114.35,-1180.88,-2117.16,-2528.79,-0.8750119813775186
0,-2114.64,-1190.1,-2123.03,-2538.72,-0.8700119129125063
0,-2113.91,-1184.53,-2117.2,-2529.14,-0.8650118444474906
0,-2113.73,-1179.36,-2115.9,-2532.94,-0.8600117759824784
0,-2107.75,-1173.82,-2110.15,-2527.7,-0.8550117075174626
0,-2107.11,-1169.9,-2114.07,-2522.62,-0.8500116390524468
0,-2110.76,-1178.36,-2112.0,-2522.94,-0.8450115705874346
0,-2106.8,-1173.21,-2118.52,-2519.62,-0.8400115021224188
0,-2107.3,-1181.43,-2117.31,-2519.63,-0.835011433657403
0,-2105.03,-1174.58,-2112.59,-2518.65,-0.8300113651923908
0,-2099.17,-1173.61,-2106.7,-2514.19,-0.825011296727375
0,-2105.07,-1176.09,-2114.47,-2516.3,-0.8200112282623628
0,-2106.95,-1176.63,-2112.53,-2518.33,-0.8150111597973471
0,-2110.64,-1179.31,-2120.48,-2524.29,-0.8100110913323313
0,-2113.17,-1176.58,-2118.62,-2529.29,-0.8050110228673191
0,-2120.72,-1179.09,-2120.27,-2527.82,-0.8000109544023033
0,-2114.06,-1180.48,-2124.19,-2524.54,-0.7950108859372911
0,-2112.6,-1186.65,-2125.37,-2527.55,-0.7900108174722753
0,-2113.1,-1179.34,-2117.25,-2529.4,-0.7850107490072595
0,-2112.09,-1187.26,-2119.97,-2534.82,-0.7800106805422473
0,-2111.7,-1183.98,-2120.46,-2530.72,-0.7750106120772315
0,-2115.52,-1178.76,-2117.31,-2532.81,-0.7700105436122158
0,-2106.73,-1177.82,-2113.83,-2530.05,-0.7650104751472036
0,-2112.79,-1172.0,-2121.22,-2528.79,-0.7600104066821878
0,-2116.82,-1182.17,-2116.92,-2533.95,-0.7550103382171756
0,-2108.95,-1171.81,-2118.82,-2532.84,-0.7500102697521598
0,-2113.84,-1179.18,-2118.13,-2537.68,-0.745010201287144
0,-2110.16,-1182.38,-2116.24,-2537.79,-0.7400101328221318
0,-2107.5,-1178.59,-2116.45,-2538.55,-0.735010064357116
0,-2113.97,-1171.38,-2116.38,-2536.77,-0.7300099958921038
0,-2110.64,-1180.19,-2122.61,-2536.71,-0.725009927427088
0,-2112.55,-1184.79,-2122.53,-2545.86,-0.7200098589620723
0,-2111.57,-1185.47,-2119.86,-2539.2,-0.71500979049706
0,-2113.16,-1187.63,-2123.01,-2540.52,-0.7100097220320443
0,-2114.46,-1181.77,-2119.83,-2533.73,-0.705009653567032
0,-2118.4,-1176.29,-2120.73,-2534.39,-0.7000095851020163
0,-2112.48,-1176.01,-2114.36,-2530.31,-0.6950095166370005
0,-2121.6,-1179.38,-2122.73,-2532.29,-0.6900094481719883
0,-2115.73,-1178.3,-2123.2,-2533.06,-0.6850093797069725
0,-2117.67,-1167.42,-2120.0,-2534.05,-0.6800093112419567
0,-2120.13,-1184.8,-2124.94,-2535.89,-0.6750092427769445
0,-2110.17,-1185.02,-2121.08,-2533.74,-0.6700091743119287
0,-2112.0,-1178.58,-2116.36,-2526.96,-0.6650091058469165
0,-2104.17,-1169.07,-2108.42,-2525.43,-0.6600090373819008
0,-2114.31,-1175.66,-2114.7,-2530.15,-0.655008968916885
0,-2115.97,-1179.68,-2123.22,-2539.9,-0.6500089004518728
0,-2122.83,-1182.41,-2123.43,-2544.04,-0.645008831986857
0,-2123.12,-1190.87,-2126.83,-2536.1,-0.6400087635218448
0,-2126.87,-1188.67,-2133.03,-2542.68,-0.635008695056829
0,-2126.77,-1178.48,-2129.64,-2541.7,-0.6300086265918132
0,-2125.36,-1177.27,-2128.79,-2542.72,-0.625008558126801
0,-2129.11,-1189.48,-2130.82,-2543.86,-0.6200084896617852
0,-2119.9,-1183.12,-2127.49,-2540.71,-0.615008421196773
0,-2125.22,-1194.64,-2131.24,-2539.5,-0.6100083527317572
0,-2124.86,-1192.76,-2135.46,-2546.44,-0.6050082842667415
0,-2126.99,-1191.2,-2135.36,-2546.54,-0.6000082158017292
0,-2120.25,-1190.77,-2132.78,-2550.76,-0.5950081473367135
0,-2121.25,-1193.99,-2135.05,-2550.23,-0.5900080788716977
0,-2124.97,-1194.0,-2129.92,-2549.25,-0.5850080104066855
0,-2123.45,-1186.92,-2128.48,-2545.68,-0.5800079419416697
0,-2121.83,-1195.06,-2129.37,-2546.12,-0.5750078734766575
0,-2120.04,-1179.8,-2123.3,-2542.37,-0.5700078050116417
0,-2114.42,-1184.54,-2127.51,-2544.25,-0.565007736546626
0,-2116.61,-1180.78,-2121.62,-2541.53,-0.5600076680816137
0,-2113.38,-1178.43,-2119.72,-2531.99,-0.555007599616598
0,-2112.7,-1178.88,-2113.83,-2531.63,-0.5500075311515857
0,-2102.96,-1180.95,-2109.4,-2527.31,-0.54500746268657
0,-2106.47,-1166.98,-2108.66,-2524.74,-0.5400073942215542
0,-2105.76,-1175.21,-2112.39,-2528.82,-0.535007325756542
0,-2107.61,-1178.85,-2112.29,-2522.14,-0.5300072572915262
0,-2103.99,-1165.89,-2109.07,-2519.27,-0.5250071888265104
0,-2111.19,-1173.67,-2116.53,-2523.97,-0.5200071203614982
0,-2114.07,-1176.46,-2119.6,-2524.84,-0.5150070518964824
0,-2115.16,-1170.43,-2117.74,-2531.33,-0.5100069834314702
0,-2122.32,-1182.64,-2120.55,-2531.17,-0.5050069149664544
0,-2120.86,-1191.16,-2124.01,-2539.15,-0.5000068465014387
0,-2114.68,-1189.28,-2126.38,-2537.74,-0.49500677803642645
0,-2118.48,-1186.94,-2130.52,-2540.21,-0.4900067095714107
0,-2120.79,-1183.38,-2125.43,-2540.49,-0.48500664110639846
0,-2123.17,-1188.15,-2124.79,-2530.91,-0.4800065726413827
0,-2114.36,-1185.0,-2121.34,-2526.69,-0.4750065041763669
0,-2119.15,-1186.17,-2126.16,-2537.68,-0.4700064357113547
0,-2120.1,-1191.0,-2132.98,-2545.24,-0.4650063672463389
0,-2117.79,-1182.08,-2125.11,-2543.21,-0.4600062987813267
0,-2122.87,-1196.05,-2125.34,-2540.94,-0.45500623031631093
0,-2114.73,-1182.17,-2123.36,-2534.78,-0.45000616185129516
0,-2116.53,-1180.61,-2118.17,-2532.45,-0.44500609338628294
0,-2111.09,-1176.2,-2119.63,-2530.44,-0.44000602492126717
0,-2114.67,-1174.74,-2118.76,-2536.3,-0.4350059564562514
0,-2123.87,-1191.23,-2128.38,-2540.68,-0.4300058879912392
0,-2118.24,-1184.77,-2124.2,-2534.32,-0.4250058195262234
0,-2117.94,-1185.92,-2130.78,-2535.37,-0.4200057510612112
0,-2121.55,-1188.42,-2130.63,-2545.35,-0.4150056825961954
0,-2122.74,-1188.95,-2133.84,-2543.21,-0.41000561413117964
0,-2119.6,-1186.73,-2126.76,-2539.81,-0.4050055456661674
0,-2116.65,-1180.19,-2128.84,-2539.34,-0.40000547720115165
0,-2123.29,-1182.45,-2127.28,-2541.73,-0.39500540873613943
0,-2122.5,-1190.56,-2124.34,-2544.16,-0.39000534027112366
0,-2122.69,-1186.23,-2130.23,-2542.12,-0.3850052718061079
0,-2118.87,-1184.96,-2136.4,-2539.44,-0.38000520334109567
0,-2117.49,-1191.52,-2128.35,-2535.34,-0.3750051348760799
0,-2115.03,-1194.02,-2126.08,-2534.78,-0.3700050664110677
0,-2116.99,-1184.69,-2126.98,-2536.07,-0.3650049979460519
0,-2116.69,-1185.25,-2120.41,-2534.03,-0.36000492948103613
0,-2110.91,-1180.2,-2111.81,-2526.78,-0.3550048610160239
0,-2108.45,-1170.37,-2109.02,-2521.63,-0.35000479255100814
0,-2104.17,-1178.78,-2112.19,-2525.89,-0.34500472408599236
0,-2105.63,-1171.1,-2115.32,-2523.79,-0.34000465562098015
0,-2104.27,-1164.84,-2107.95,-2525.38,-0.3350045871559644
0,-2104.52,-1181.01,-2116.05,-2522.62,-0.33000451869095215
0,-2110.36,-1179.42,-2117.63,-2526.44,-0.3250044502259364
0,-2116.05,-1181.28,-2123.25,-2535.5,-0.3200043817609206
0,-2115.72,-1172.95,-2122.36,-2533.99,-0.3150043132959084
0,-2119.9,-1185.86,-2117.89,-2542.38,-0.3100042448308926
0,-2113.89,-1183.05,-2121.9,-2535.96,-0.3050041763658804
0,-2116.31,-1186.28,-2129.03,-2540.1,-0.3000041079008646
0,-2112.78,-1187.62,-2123.1,-2538.46,-0.29500403943584885
0,-2113.65,-1184.33,-2122.95,-2538.12,-0.29000397097083663
0,-2118.34,-1186.39,-2122.64,-2540.77,-0.28500390250582086
0,-2112.58,-1180.2,-2121.45,-2537.41,-0.2800038340408051
0,-2113.36,-1173.52,-2118.16,-2530.08,-0.27500376557579287
0,-2112.78,-1168.14,-2110.86,-2522.17,-0.2700036971107771
0,-2105.67,-1172.97,-2110.02,-2522.66,-0.2650036286457649
0,-2108.07,-1175.69,-2113.17,-2526.55,-0.2600035601807491
0,-2111.94,-1177.35,-2115.52,-2523.71,-0.25500349171573333
0,-2114.02,-1178.6,-2120.56,-2534.45,-0.2500034232507211
0,-2111.77,-1183.0,-2120.42,-2534.79,-0.24500335478570534
0,-2117.13,-1177.96,-2123.69,-2540.16,-0.24000328632069312
0,-2118.64,-1191.41,-2126.85,-2539.71,-0.23500321785567735
0,-2121.73,-1184.96,-2124.34,-2537.45,-0.23000314939066158
0,-2120.46,-1180.73,-2123.63,-2534.55,-0.22500308092564936
0,-2123.62,-1188.97,-2123.69,-2543.59,-0.22000301246063358
0,-2117.28,-1186.2,-2131.78,-2534.92,-0.21500294399562137
0,-2116.66,-1176.5,-2124.52,-2539.08,-0.2100028755306056
0,-2119.27,-1173.81,-2126.18,-2544.65,-0.20500280706558982
0,-2116.39,-1177.77,-2123.83,-2543.2,-0.2000027386005776
0,-2122.7,-1179.12,-2125.99,-2537.15,-0.19500267013556183
0,-2110.6,-1171.07,-2117.18,-2531.21,-0.19000260167054606
0,-2112.75,-1171.08,-2116.36,-2528.82,-0.18500253320553384
0,-2109.8,-1166.22,-2114.96,-2527.41,-0.18000246474051806
0,-2111.04,-1182.35,-2116.09,-2530.77,-0.17500239627550584
0,-2109.85,-1176.46,-2117.1,-2529.23,-0.17000232781049007
0,-2108.54,-1169.38,-2113.84,-2530.69,-0.1650022593454743
0,-2105.75,-1162.36,-2110.64,-2526.74,-0.16000219088046208
0,-2103.96,-1164.44,-2105.56,-2522.46,-0.1550021224154463
0,-2106.31,-1176.02,-2114.03,-2527.33,-0.1500020539504341
0,-2109.05,-1167.18,-2115.51,-2525.94,-0.14500198548541832
0,-2112.6,-1187.91,-2123.12,-2533.18,-0.14000191702040254
0,-2109.59,-1181.13,-2118.08,-2527.24,-0.13500184855539032
0,-2106.68,-1173.92,-2114.73,-2528.11,-0.13000178009037455
0,-2108.29,-1175.77,-2112.86,-2527.23,-0.12500171162536233
0,-2112.35,-1176.68,-2118.48,-2526.45,-0.12000164316034656
0,-2121.8,-1186.15,-2126.65,-2529.98,-0.11500157469533079
0,-2120.27,-1173.81,-2127.72,-2537.11,-0.11000150623031857
0,-2122.96,-1181.35,-2129.97,-2537.87,-0.1050014377653028
0,-2125.13,-1175.19,-2129.85,-2539.69,-0.10000136930028702
0,-2115.81,-1179.73,-2120.43,-2540.77,-0.0950013008352748
0,-2127.69,-1193.32,-2129.46,-2545.56,-0.09000123237025903
0,-2123.93,-1196.04,-2128.81,-2545.15,-0.08500116390524681
0,-2121.53,-1184.2,-2127.05,-2544.88,-0.08000109544023104
0,-2117.11,-1179.97,-2122.36,-2543.78,-0.07500102697521527
0,-2111.44,-1170.31,-2114.6,-2538.89,-0.07000095851020305
0,-2103.1,-1162.32,-2107.25,-2525.4,-0.06500089004518728
0,-2103.62,-1163.85,-2103.61,-2530.52,-0.06000082158017506
0,-2109.06,-1173.29,-2111.62,-2536.05,-0.055000753115159284
0,-2112.58,-1179.22,-2118.23,-2530.43,-0.05000068465014351
0,-2111.89,-1173.14,-2117.14,-2530.87,-0.04500061618513129
0,-2108.56,-1181.63,-2116.95,-2531.72,-0.04000054772011552
0,-2108.94,-1173.63,-2114.36,-2533.31,-0.03500047925509975
0,-2114.79,-1178.19,-2119.29,-2530.39,-0.03000041079008753
0,-2115.78,-1167.71,-2117.91,-2533.73,-0.025000342325071756
0,-2119.86,-1178.46,-2112.34,-2536.5,-0.020000273860059536
0,-2118.73,-1190.3,-2126.05,-2536.7,-0.015000205395043764
0,-2120.4,-1195.05,-2131.97,-2545.21,-0.010000136930027992
0,-2123.41,-1200.42,-2130.61,-2545.68,-0.005000068465015772
0,-2125.55,-1191.21,-2129.18,-2543.23,0.0
0,-2118.07,-1174.94,-2121.59,-2532.37,0.00500006846501222
0,-2111.96,-1170.28,-2118.48,-2533.89,0.010000136930027992
0,-2115.85,-1186.21,-2125.59,-2537.82,0.015000205395043764
0,-2113.81,-1181.68,-2120.68,-2537.67,0.020000273860055984
0,-2114.39,-1183.71,-2122.41,-2541.81,0.025000342325071756
0,-2113.79,-1173.18,-2122.4,-2539.41,0.030000410790083976
0,-2114.92,-1178.54,-2119.38,-2537.41,0.03500047925509975
0,-2113.23,-1175.95,-2118.78,-2532.26,0.04000054772011552
0,-2114.4,-1182.11,-2124.69,-2534.23,0.04500061618512774
0,-2113.73,-1177.81,-2115.86,-2533.19,0.05000068465014351
0,-2107.13,-1183.96,-2116.28,-2534.76,0.055000753115159284
0,-2106.15,-1178.56,-2112.48,-2530.76,0.060000821580171504
0,-2109.72,-1174.92,-2120.66,-2533.55,0.06500089004518728
0,-2115.23,-1174.97,-2116.1,-2534.1,0.0700009585101995
0,-2112.57,-1178.7,-2122.01,-2534.82,0.07500102697521527
0,-2117.61,-1182.66,-2124.73,-2531.27,0.08000109544023104
0,-2122.19,-1182.19,-2125.47,-2534.68,0.08500116390524326
0,-2121.34,-1176.02,-2123.22,-2538.17,0.09000123237025903
0,-2117.52,-1173.03,-2123.56,-2538.5,0.09500130083527125
0,-2117.33,-1178.63,-2120.58,-2534.9,0.10000136930028702
0,-2112.01,-1180.0,-2120.51,-2527.74,0.1050014377653028
0,-2119.15,-1188.36,-2121.34,-2532.24,0.11000150623031502
0,-2117.97,-1183.66,-2124.37,-2535.55,0.11500157469533079
0,-2122.73,-1179.45,-2127.34,-2532.14,0.12000164316034301
0,-2124.22,-1188.74,-2128.55,-2535.52,0.12500171162535878
0,-2115.61,-1175.66,-2121.82,-2531.51,0.13000178009037455
0,-2116.36,-1181.15,-2122.65,-2530.96,0.13500184855538677
0,-2114.4,-1173.63,-2118.82,-2528.07,0.14000191702040254
0,-2106.52,-1164.72,-2107.42,-2525.78,0.14500198548541832
0,-2113.72,-1180.12,-2117.11,-2533.23,0.15000205395043054
0,-2111.0,-1183.94,-2117.78,-2531.24,0.1550021224154463
0,-2112.38,-1179.08,-2119.54,-2533.0,0.16000219088045853
0,-2115.09,-1183.03,-2121.66,-2533.91,0.1650022593454743
0,-2112.79,-1172.55,-2118.58,-2533.04,0.17000232781049007
0,-2114.05,-1171.72,-2118.92,-2536.37,0.1750023962755023
0,-2118.27,-1179.17,-2117.54,-2536.43,0.18000246474051806
0,-2118.56,-1191.07,-2126.88,-2532.53,0.18500253320553028
0,-2122.89,-1187.17,-2129.22,-2537.96,0.19000260167054606
0,-2124.95,-1192.48,-2129.01,-2535.09,0.19500267013556183
0,-2119.25,-1191.72,-2129.5,-2539.4,0.20000273860057405
0,-2112.88,-1183.16,-2122.0,-2529.05,0.20500280706558982
0,-2114.65,-1172.27,-2121.6,-2532.17,0.2100028755306056
0,-2108.16,-1174.43,-2113.96,-2527.89,0.2150029439956178
0,-2113.23,-1168.09,-2114.18,-2530.26,0.22000301246063358
0,-2115.97,-1180.73,-2120.96,-2535.55,0.2250030809256458
0,-2110.02,-1180.56,-2116.5,-2531.15,0.23000314939066158
0,-2115.88,-1183.51,-2124.23,-2533.55,0.23500321785567735
0,-2115.29,-1185.57,-2115.24,-2534.61,0.24000328632068957
0,-2113.35,-1171.69,-2120.26,-2531.72,0.24500335478570534
0,-2109.32,-1173.88,-2114.23,-2529.5,0.25000342325071756
0,-2107.38,-1166.39,-2114.53,-2526.68,0.25500349171573333
0,-2107.26,-1171.35,-2115.19,-2523.56,0.2600035601807491
0,-2109.81,-1170.78,-2110.16,-2519.71,0.2650036286457613
0,-2114.55,-1180.57,-2118.61,-2522.61,0.2700036971107771
0,-2123.44,-1185.13,-2121.79,-2527.8,0.2750037655757893
0,-2120.59,-1189.97,-2126.08,-2532.76,0.2800038340408051
0,-2119.32,-1187.93,-2131.06,-2535.05,0.28500390250582086
0,-2118.43,-1185.33,-2123.34,-2535.87,0.2900039709708331
0,-2125.93,-1186.58,-2135.88,-2538.27,0.29500403943584885
0,-2123.46,-1190.17,-2128.67,-2541.68,0.3000041079008646
0,-2122.03,-1190.88,-2128.42,-2536.63,0.30500417636587684
0,-2113.98,-1184.2,-2126.27,-2536.83,0.3100042448308926
0,-2115.24,-1184.73,-2123.81,-2540.94,0.31500431329590484
0,-2113.32,-1177.0,-2118.74,-2537.72,0.3200043817609206
0,-2114.42,-1183.71,-2119.16,-2540.91,0.3250044502259364
0,-2116.09,-1184.34,-2124.58,-2542.64,0.3300045186909486
0,-2124.69,-1189.87,-2127.41,-2538.74,0.3350045871559644
0,-2120.71,-1180.71,-2127.97,-2539.49,0.3400046556209766
0,-2124.42,-1193.11,-2126.9,-2538.58,0.34500472408599236
0,-2119.86,-1188.7,-2129.36,-2536.47,0.35000479255100814
0,-2122.97,-1189.33,-2130.93,-2539.55,0.35500486101602036
0,-2122.02,-1191.49,-2128.18,-2536.98,0.36000492948103613
0,-2125.6,-1183.92,-2131.08,-2543.05,0.36500499794604835
0,-2128.45,-1198.39,-2137.11,-2543.4,0.3700050664110641
0,-2128.4,-1187.88,-2130.34,-2539.69,0.3750051348760799
0,-2125.48,-1193.44,-2133.1,-2534.19,0.3800052033410921
0,-2127.11,-1191.1,-2137.23,-2547.17,0.3850052718061079
0,-2123.0,-1188.43,-2128.32,-2540.71,0.39000534027112366
0,-2122.68,-1192.25,-2128.18,-2538.17,0.3950054087361359
0,-2110.82,-1185.24,-2122.01,-2538.54,0.40000547720115165
0,-2107.58,-1182.31,-2115.1,-2535.32,0.40500554566616387
0,-2097.45,-1171.2,-2111.53,-2530.07,0.41000561413117964
0,-2108.57,-1176.47,-2113.9,-2529.48,0.4150056825961954
0,-2106.16,-1179.04,-2118.16,-2531.3,0.42000575106120763
0,-2097.65,-1170.78,-2109.87,-2525.95,0.4250058195262234
0,-2099.9,-1168.91,-2112.67,-2526.49,0.4300058879912356
0,-2100.13,-1166.34,-2112.91,-2527.05,0.4350059564562514
0,-2093.05,-1157.09,-2111.63,-2527.51,0.44000602492126717
0,-2101.96,-1175.16,-2118.62,-2528.84,0.4450060933862794
0,-2105.53,-1180.97,-2117.51,-2530.67,0.45000616185129516
0,-2112.54,-1178.38,-2121.64,-2525.17,0.45500623031631093
0,-2108.19,-1176.94,-2114.94,-2526.96,0.46000629878132315
0,-2107.87,-1180.7,-2120.21,-2525.67,0.4650063672463389
0,-2104.81,-1180.59,-2118.15,-2522.76,0.47000643571135114
0,-2112.57,-1183.88,-2113.71,-2531.64,0.4750065041763669
0,-2113.5,-1182.14,-2120.2,-2531.87,0.4800065726413827
0,-2110.93,-1166.47,-2110.36,-2527.35,0.4850066411063949
0,-2101.03,-1170.45,-2108.51,-2527.6,0.4900067095714107
0,-2108.62,-1162.37,-2105.43,-2524.2,0.4950067780364229
0,-2107.54,-1171.79,-2111.38,-2524.32,0.5000068465014387
0,-2101.42,-1181.6,-2110.81,-2522.09,0.5050069149664544
0,-2098.89,-1176.13,-2106.95,-2519.68,0.5100069834314667
0,-2117.53,-1170.64,-2113.48,-2527.61,0.5150070518964824
0,-2107.32,-1170.28,-2110.87,-2522.15,0.5200071203614947
0,-2105.92,-1166.95,-2107.85,-2524.37,0.5250071888265104
0,-2115.66,-1175.61,-2121.27,-2529.31,0.5300072572915262
0,-2116.59,-1183.98,-2127.81,-2533.45,0.5350073257565384
0,-2118.2,-1179.51,-2124.58,-2536.36,0.5400073942215542
0,-2122.95,-1165.87,-2120.44,-2534.57,0.54500746268657
0,-2122.27,-1184.74,-2125.19,-2535.27,0.5500075311515822
0,-2113.72,-1186.93,-2122.05,-2525.09,0.555007599616598
0,-2117.62,-1178.1,-2118.89,-2519.87,0.5600076680816102
0,-2134.91,-1195.3,-2137.65,-2544.69,0.565007736546626
0,-2138.44,-1199.8,-2144.98,-2561.21,0.5700078050116417
0,-2127.81,-1187.36,-2134.82,-2543.05,0.5750078734766539
0,-2124.1,-1190.01,-2130.95,-2540.51,0.5800079419416697
0,-2122.75,-1188.17,-2129.88,-2543.41,0.5850080104066819
0,-2121.47,-1180.45,-2122.16,-2542.11,0.5900080788716977
0,-2109.22,-1179.11,-2116.34,-2535.98,0.5950081473367135
0,-2110.72,-1179.58,-2117.85,-2529.36,0.6000082158017257
0,-2114.31,-1181.85,-2123.33,-2534.43,0.6050082842667415
0,-2109.73,-1178.53,-2120.43,-2532.11,0.6100083527317537
0,-2111.24,-1167.02,-2118.9,-2529.25,0.6150084211967695
0,-2116.68,-1170.61,-2122.19,-2531.34,0.6200084896617852
0,-2110.79,-1174.38,-2113.49,-2531.37,0.6250085581267975
0,-2111.97,-1178.26,-2117.82,-2536.76,0.6300086265918132
0,-2117.67,-1175.05,-2122.33,-2537.8,0.635008695056829
0,-2118.65,-1171.78,-2122.59,-2542.57,0.6400087635218412
0,-2127.24,-1183.98,-2119.91,-2541.81,0.645008831986857
0,-2129.92,-1182.64,-2132.52,-2543.51,0.6500089004518692
0,-2131.14,-1175.88,-2128.0,-2541.65,0.655008968916885
0,-2129.46,-1187.03,-2124.0,-2543.04,0.6600090373819008
0,-2123.76,-1185.1,-2132.81,-2545.66,0.665009105846913
0,-2118.79,-1199.03,-2137.48,-2547.67,0.6700091743119287
0,-2126.05,-1200.9,-2136.19,-2551.45,0.675009242776941
0,-2121.04,-1188.74,-2130.62,-2544.52,0.6800093112419567
0,-2116.0,-1178.3,-2121.17,-2534.96,0.6850093797069725
0,-2105.87,-1172.4,-2115.36,-2531.74,0.6900094481719847
0,-2108.42,-1185.96,-2116.08,-2527.27,0.6950095166370005
0,-2112.86,-1182.57,-2119.19,-2532.37,0.7000095851020127
0,-2107.05,-1174.38,-2113.61,-2527.68,0.7050096535670285
0,-2108.96,-1177.16,-2117.21,-2530.0,0.7100097220320443
0,-2106.12,-1189.2,-2123.84,-2534.39,0.7150097904970565
0,-2110.96,-1179.14,-2121.52,-2532.48,0.7200098589620723
0,-2121.43,-1185.62,-2123.74,-2531.0,0.725009927427088
0,-2116.46,-1185.02,-2120.9,-2525.59,0.7300099958921002
0,-2109.46,-1169.55,-2110.22,-2528.51,0.735010064357116
0,-2116.37,-1174.61,-2112.87,-2528.55,0.7400101328221282
0,-2118.77,-1179.41,-2120.36,-2534.15,0.745010201287144
0,-2117.65,-1183.09,-2121.18,-2529.74,0.7500102697521598
0,-2118.68,-1177.83,-2123.63,-2529.2,0.755010338217172
0,-2114.03,-1174.66,-2123.85,-2539.19,0.7600104066821878
0,-2112.92,-1174.67,-2117.29,-2534.52,0.7650104751472036
0,-2102.65,-1176.07,-2111.72,-2530.65,0.7700105436122193
0,-2098.06,-1166.96,-2103.72,-2526.92,0.775010612077228
0,-2099.78,-1161.65,-2103.91,-2522.69,0.7800106805422438
0,-2095.57,-1155.94,-2100.83,-2524.05,0.7850107490072595
0,-2093.49,-1158.98,-2101.64,-2526.62,0.7900108174722753
0,-2092.83,-1172.44,-2105.09,-2526.75,0.7950108859372911
0,-2095.21,-1175.85,-2110.79,-2529.33,0.8000109544022997
0,-2104.84,-1176.81,-2108.58,-2527.57,0.8050110228673155
0,-2117.55,-1181.92,-2120.89,-2537.18,0.8100110913323313
0,-2112.68,-1184.79,-2120.72,-2535.08,0.8150111597973471
0,-2112.01,-1179.07,-2116.53,-2537.71,0.8200112282623628
0,-2118.47,-1186.46,-2124.45,-2542.97,0.8250112967273715
0,-2121.01,-1192.29,-2131.99,-2548.65,0.8300113651923873
0,-2121.37,-1189.51,-2134.68,-2551.09,0.835011433657403
0,-2130.4,-1187.55,-2130.19,-2549.61,0.8400115021224188
0,-2117.4,-1189.97,-2127.42,-2547.62,0.8450115705874346
0,-2123.73,-1179.37,-2129.13,-2547.0,0.8500116390524433
0,-2120.85,-1186.98,-2128.84,-2539.1,0.855011707517459
0,-2123.58,-1192.62,-2125.24,-2538.93,0.8600117759824748
0,-2123.75,-1192.45,-2131.02,-2541.82,0.8650118444474906
0,-2116.95,-1182.29,-2124.77,-2536.48,0.8700119129125063
0,-2115.58,-1179.51,-2121.99,-2527.7,0.875011981377515
0,-2111.55,-1174.82,-2123.43,-2523.31,0.8800120498425308
0,-2114.75,-1180.92,-2120.52,-2526.41,0.8850121183075466
0,-2115.65,-1180.76,-2119.45,-2530.17,0.8900121867725623
0,-2115.75,-1183.77,-2124.55,-2535.92,0.8950122552375781
0,-2108.98,-1182.86,-2118.27,-2532.25,0.9000123237025868
0,-2107.73,-1179.44,-2117.27,-2524.14,0.9050123921676025
0,-2102.68,-1167.91,-2112.5,-2523.15,0.9100124606326183
0,-2110.33,-1181.4,-2116.59,-2531.65,0.9150125290976341
0,-2108.24,-1174.4,-2114.67,-2521.9,0.9200125975626499
0,-2108.98,-1168.15,-2107.98,-2521.01,0.9250126660276656
0,-2108.51,-1172.49,-2118.2,-2527.63,0.9300127344926743
0,-2106.26,-1178.65,-2114.6,-2530.62,0.9350128029576901
0,-2107.08,-1179.43,-2115.18,-2528.32,0.9400128714227058
0,-2101.61,-1173.86,-2114.51,-2527.67,0.9450129398877216
0,-2109.42,-1174.79,-2117.33,-2537.71,0.9500130083527374
0,-2111.02,-1177.52,-2122.78,-2532.94,0.955013076817746
0,-2109.96,-1174.5,-2118.89,-2531.06,0.9600131452827618
0,-2107.03,-1174.47,-2119.14,-2530.06,0.9650132137477776
0,-2105.56,-1175.36,-2112.85,-2530.0,0.9700132822127934
0,-2113.25,-1180.06,-2114.76,-2537.61,0.9750133506778091
0,-2109.51,-1178.87,-2123.83,-2532.69,0.9800134191428178
0,-2112.31,-1180.07,-2116.15,-2534.32,0.9850134876078336
0,-2108.27,-1172.15,-2119.8,-2533.9,0.9900135560728494
0,-2112.2,-1172.01,-2118.56,-2535.49,0.9950136245378651
0,-2115.29,-1177.38,-2117.97,-2536.94,1.000013693002881
0,-2101.51,-1168.12,-2106.13,-2525.07,1.0050137614678896
0,-2101.93,-1162.23,-2112.73,-2524.99,1.0100138299329053
0,-2107.11,-1171.19,-2104.87,-2521.02,1.015013898397921
0,-2106.1,-1179.4,-2114.31,-2522.82,1.0200139668629369
0,-2103.29,-1176.68,-2115.37,-2523.37,1.0250140353279527
0,-2108.49,-1171.65,-2114.77,-2518.89,1.0300141037929613
0,-2114.0,-1170.95,-2109.41,-2523.43,1.035014172257977
0,-2113.54,-1177.94,-2124.5,-2537.62,1.0400142407229929
0,-2119.7,-1186.73,-2134.88,-2550.48,1.0450143091880086
0,-2125.78,-1194.21,-2135.89,-2553.51,1.0500143776530244
0,-2128.87,-1193.77,-2131.44,-2547.16,1.055014446118033
0,-2129.1,-1189.11,-2138.4,-2551.66,1.0600145145830489
0,-2130.18,-1193.04,-2138.73,-2549.85,1.0650145830480646
0,-2127.5,-1190.26,-2140.78,-2549.68,1.0700146515130804
0,-2127.31,-1190.9,-2128.02,-2547.81,1.0750147199780962
0,-2125.93,-1188.97,-2124.46,-2546.94,1.080014788443112
0,-2129.91,-1188.33,-2131.4,-2539.5,1.0850148569081206
0,-2126.13,-1179.53,-2130.62,-2538.83,1.0900149253731364
0,-2123.27,-1186.27,-2127.06,-2542.16,1.0950149938381522
0,-2132.3,-1189.36,-2134.8,-2544.63,1.100015062303168
0,-2122.05,-1186.17,-2129.57,-2535.41,1.1050151307681837
0,-2123.81,-1185.09,-2129.33,-2536.73,1.1100151992331924
0,-2124.22,-1175.97,-2129.84,-2538.83,1.1150152676982081
0,-2120.25,-1180.09,-2122.01,-2536.75,1.120015336163224
0,-2120.13,-1186.17,-2122.18,-2536.65,1.1250154046282397
0,-2124.01,-1197.53,-2126.01,-2538.88,1.1300154730932555
0,-2126.94,-1192.5,-2134.45,-2540.65,1.1350155415582641
0,-2127.25,-1188.57,-2131.13,-2541.36,1.14001561002328
0,-2125.83,-1187.58,-2131.33,-2544.83,1.1450156784882957
0,-2126.44,-1191.03,-2133.24,-2541.94,1.1500157469533114
0,-2120.02,-1186.72,-2129.25,-2542.54,1.1550158154183272
0,-2115.61,-1194.42,-2123.46,-2535.66,1.1600158838833359
0,-2118.7,-1185.33,-2118.74,-2531.7,1.1650159523483516
0,-2112.69,-1177.79,-2111.18,-2530.43,1.1700160208133674
0,-2100.46,-1175.7,-2114.27,-2525.74,1.1750160892783832
0,-2108.47,-1169.96,-2104.45,-2521.09,1.180016157743399
0,-2114.62,-1184.97,-2119.37,-2530.21,1.1850162262084076
0,-2118.51,-1183.28,-2120.76,-2528.79,1.1900162946734234
0,-2109.36,-1176.07,-2115.06,-2526.15,1.1950163631384392
0,-2104.36,-1176.45,-2116.38,-2523.08,1.200016431603455
0,-2100.95,-1175.09,-2111.81,-2525.27,1.2050165000684707
0,-2103.37,-1169.82,-2111.27,-2528.13,1.2100165685334794
0,-2104.71,-1165.92,-2110.84,-2529.75,1.2150166369984952
0,-2112.82,-1175.92,-2113.19,-2535.56,1.220016705463511
0,-2102.57,-1177.88,-2110.28,-2530.0,1.2250167739285267
0,-2116.87,-1180.66,-2122.02,-2535.24,1.2300168423935425
0,-2121.68,-1185.59,-2125.66,-2540.55,1.2350169108585582
0,-2117.35,-1186.43,-2131.65,-2543.24,1.240016979323567
0,-2119.89,-1184.27,-2132.06,-2548.87,1.2450170477885827
0,-2120.26,-1180.95,-2124.95,-2544.27,1.2500171162535985
0,-2116.12,-1173.08,-2122.45,-2540.17,1.2550171847186142
0,-2115.77,-1175.71,-2122.92,-2540.13,1.26001725318363
0,-2119.23,-1184.3,-2129.39,-2541.13,1.2650173216486387
0,-2118.35,-1186.29,-2128.8,-2535.9,1.2700173901136544
0,-2114.69,-1182.89,-2122.48,-2536.31,1.2750174585786702
0,-2113.88,-1180.5,-2118.1,-2537.78,1.280017527043686
0,-2117.8,-1180.39,-2122.86,-2540.04,1.2850175955087018
0,-2112.19,-1176.12,-2121.38,-2534.88,1.2900176639737104
0,-2113.09,-1169.26,-2112.42,-2527.38,1.2950177324387262
0,-2111.94,-1178.77,-2120.44,-2531.37,1.300017800903742
0,-2109.83,-1175.18,-2120.56,-2533.38,1.3050178693687577
0,-2108.86,-1173.34,-2115.02,-2522.26,1.3100179378337735
0,-2114.44,-1183.44,-2119.0,-2530.52,1.3150180062987822
0,-2120.87,-1180.46,-2119.13,-2534.66,1.320018074763798
0,-2118.08,-1172.54,-2117.19,-2521.9,1.3250181432288137
0,-2112.31,-1166.83,-2115.55,-2522.82,1.3300182116938295
0,-2105.88,-1171.36,-2108.67,-2525.7,1.3350182801588453
0,-2107.18,-1174.91,-2114.37,-2530.49,1.340018348623854
0,-2112.89,-1180.44,-2120.04,-2533.52,1.3450184170888697
0,-2117.57,-1184.33,-2122.44,-2538.49,1.3500184855538855
0,-2117.66,-1188.07,-2122.21,-2539.67,1.3550185540189013
0,-2117.4,-1178.27,-2123.07,-2542.86,1.360018622483917
0,-2118.33,-1187.91,-2128.84,-2539.09,1.3650186909489257
0,-2126.01,-1181.68,-2126.61,-2540.83,1.3700187594139415
0,-2121.16,-1172.79,-2117.95,-2536.79,1.3750188278789572
0,-2119.48,-1176.76,-2121.51,-2541.14,1.380018896343973
0,-2119.57,-1182.28,-2127.61,-2539.92,1.3850189648089888
0,-2119.28,-1181.56,-2121.77,-2536.38,1.3900190332739975
0,-2116.78,-1174.52,-2119.74,-2528.79,1.3950191017390132
0,-2113.8,-1178.22,-2117.01,-2535.25,1.400019170204029
0,-2114.03,-1180.7,-2121.25,-2532.72,1.4050192386690448
0,-2120.5,-1184.52,-2118.71,-2536.85,1.4100193071340605
0,-2117.13,-1182.33,-2124.48,-2537.36,1.4150193755990763
0,-2114.23,-1174.21,-2117.29,-2535.35,1.420019444064085
0,-2121.25,-1177.09,-2122.58,-2543.2,1.4250195125291008
0,-2118.73,-1179.85,-2122.46,-2534.87,1.4300195809941165
0,-2118.82,-1184.89,-2127.84,-2535.24,1.4350196494591323
0,-2117.77,-1182.52,-2124.53,-2528.89,1.440019717924148
0,-2115.54,-1173.87,-2126.26,-2526.25,1.4450197863891567
0,-2118.96,-1188.87,-2122.08,-2529.64,1.4500198548541725
0,-2117.27,-1184.45,-2126.94,-2531.62,1.4550199233191883
0,-2117.27,-1187.34,-2123.32,-2532.96,1.460019991784204
0,-2119.51,-1175.03,-2120.59,-2527.49,1.4650200602492198
0,-2121.91,-1177.82,-2125.83,-2530.78,1.4700201287142285
0,-2123.17,-1184.81,-2126.84,-2537.17,1.4750201971792443
0,-2116.71,-1183.85,-2130.54,-2533.66,1.48002026564426
0,-2116.1,-1171.48,-2118.68,-2525.13,1.4850203341092758
0,-2114.4,-1188.54,-2118.22,-2531.16,1.4900204025742916
0,-2118.88,-1182.25,-2127.7,-2541.19,1.4950204710393002
0,-2114.36,-1189.68,-2120.2,-2535.24,1.500020539504316
0,-2112.13,-1188.1,-2119.7,-2533.07,1.5050206079693318
0,-2106.83,-1187.19,-2122.85,-2539.48,1.5100206764343476
0,-2112.48,-1185.3,-2121.14,-2538.17,1.5150207448993633
0,-2111.9,-1176.62,-2120.84,-2536.01,1.520020813364372
0,-2109.79,-1177.52,-2115.29,-2539.1,1.5250208818293878
0,-2104.25,-1179.35,-2114.11,-2536.24,1.5300209502944035
0,-2101.62,-1176.81,-2114.15,-2528.23,1.5350210187594193
0,-2103.67,-1176.9,-2112.08,-2530.97,1.540021087224435
0,-2102.44,-1178.59,-2111.47,-2532.03,1.5450211556894438
0,-2106.21,-1179.45,-2112.9,-2529.33,1.5500212241544595
0,-2110.34,-1178.31,-2115.5,-2534.11,1.5550212926194753
0,-2110.09,-1178.58,-2113.88,-2538.45,1.560021361084491
0,-2112.46,-1184.93,-2123.96,-2538.88,1.5650214295495068
0,-2119.92,-1179.31,-2128.26,-2543.57,1.5700214980145226
0,-2124.64,-1181.9,-2131.54,-2541.74,1.5750215664795313
0,-2121.67,-1187.29,-2128.1,-2539.34,1.580021634944547
0,-2119.99,-1191.73,-2130.09,-2539.38,1.5850217034095628
0,-2125.84,-1192.77,-2132.2,-2543.13,1.5900217718745786
0,-2123.36,-1182.47,-2127.26,-2540.98,1.5950218403395944
0,-2122.0,-1171.71,-2125.12,-2542.91,1.600021908804603
0,-2114.27,-1176.48,-2120.91,-2540.73,1.6050219772696188
0,-2117.79,-1185.58,-2127.09,-2535.7,1.6100220457346346
0,-2117.18,-1184.11,-2127.79,-2533.73,1.6150221141996504
0,-2115.26,-1175.18,-2121.75,-2528.84,1.6200221826646661
0,-2120.66,-1178.22,-2121.29,-2531.32,1.6250222511296748
0,-2115.85,-1186.34,-2126.03,-2536.73,1.6300223195946906
0,-2121.82,-1180.52,-2125.43,-2536.56,1.6350223880597063
0,-2117.16,-1172.36,-2120.52,-2531.64,1.6400224565247221
0,-2122.7,-1173.52,-2127.17,-2532.87,1.6450225249897379
0,-2126.05,-1187.42,-2126.04,-2533.54,1.6500225934547466
0,-2112.33,-1184.84,-2123.05,-2527.01,1.6550226619197623
0,-2118.05,-1180.69,-2117.0,-2530.19,1.660022730384778
0,-2120.08,-1178.08,-2120.41,-2530.01,1.6650227988497939
0,-2120.09,-1185.29,-2123.89,-2539.7,1.6700228673148096
0,-2121.56,-1181.83,-2123.79,-2543.58,1.6750229357798183
0,-2118.42,-1180.98,-2120.06,-2541.54,1.680023004244834
0,-2114.77,-1179.02,-2118.7,-2541.44,1.6850230727098499
0,-2115.45,-1166.71,-2115.2,-2532.42,1.6900231411748656
0,-2113.02,-1159.22,-2116.21,-2535.52,1.6950232096398814
0,-2108.04,-1177.65,-2115.12,-2532.85,1.70002327810489
0,-2116.04,-1186.02,-2120.24,-2532.05,1.7050233465699058
0,-2111.57,-1183.96,-2120.82,-2529.63,1.7100234150349216
0,-2115.52,-1190.08,-2125.22,-2532.66,1.7150234834999374
0,-2119.16,-1192.96,-2123.85,-2543.09,1.7200235519649532
0,-2116.36,-1184.21,-2125.23,-2541.25,1.725023620429969
0,-2120.53,-1184.41,-2126.45,-2536.47,1.7300236888949776
0,-2118.83,-1182.53,-2126.09,-2535.84,1.7350237573599934
0,-2105.13,-1174.42,-2119.18,-2529.94,1.7400238258250091
0,-2112.45,-1170.66,-2116.38,-2530.1,1.745023894290025
0,-2118.41,-1179.7,-2119.3,-2529.51,1.7500239627550407
0,-2113.12,-1174.37,-2116.23,-2527.71,1.7550240312200494
0,-2110.85,-1185.51,-2117.16,-2529.13,1.7600240996850651
0,-2119.96,-1180.69,-2116.19,-2526.71,1.765024168150081
0,-2119.61,-1182.77,-2122.02,-2537.49,1.7700242366150967
0,-2117.34,-1189.86,-2127.34,-2540.1,1.7750243050801124
0,-2114.27,-1180.67,-2124.85,-2533.49,1.780024373545121
0,-2111.39,-1179.1,-2122.0,-2534.92,1.7850244420101369
0,-2104.74,-1175.43,-2110.51,-2525.22,1.7900245104751527
0,-2107.14,-1159.36,-2110.84,-2526.86,1.7950245789401684
0,-2108.11,-1171.46,-2116.71,-2535.08,1.8000246474051842
0,-2106.39,-1175.26,-2114.6,-2532.51,1.8050247158701929
0,-2113.6,-1172.86,-2118.43,-2532.45,1.8100247843352086
0,-2112.54,-1174.59,-2123.11,-2534.94,1.8150248528002244
0,-2113.09,-1174.6,-2117.29,-2532.72,1.8200249212652402
0,-2108.6,-1179.45,-2116.88,-2536.57,1.825024989730256
0,-2109.57,-1179.25,-2118.55,-2542.62,1.8300250581952646
0,-2112.65,-1176.09,-2115.47,-2540.74,1.8350251266602804
0,-2105.52,-1168.53,-2110.78,-2531.99,1.8400251951252962
0,-2103.9,-1165.35,-2108.77,-2530.23,1.845025263590312
0,-2109.21,-1175.89,-2116.46,-2531.86,1.8500253320553277
0,-2101.2,-1172.51,-2111.1,-2529.28,1.8550254005203364
0,-2105.43,-1171.76,-2119.42,-2534.46,1.8600254689853521
0,-2113.02,-1185.7,-2128.11,-2533.89,1.865025537450368
0,-2124.91,-1194.77,-2125.3,-2534.74,1.8700256059153837
0,-2117.51,-1178.33,-2116.32,-2530.39,1.8750256743803995
0,-2119.66,-1179.99,-2130.34,-2538.35,1.8800257428454081
0,-2121.61,-1189.16,-2123.18,-2539.75,1.885025811310424
0,-2112.85,-1178.75,-2116.22,-2536.3,1.8900258797754397
0,-2115.21,-1169.53,-2120.73,-2535.43,1.8950259482404554
0,-2112.37,-1171.27,-2117.12,-2532.2,1.9000260167054712
0,-2116.93,-1176.13,-2122.45,-2529.84,1.905026085170487
0,-2117.48,-1180.63,-2124.4,-2534.67,1.9100261536354957
0,-2115.44,-1190.94,-2126.75,-2541.45,1.9150262221005114
0,-2113.34,-1175.95,-2124.06,-2540.36,1.9200262905655272
0,-2112.22,-1179.17,-2123.93,-2536.79,1.925026359030543
0,-2114.22,-1178.0,-2124.18,-2537.58,1.9300264274955587
0,-2115.43,-1176.63,-2118.8,-2531.9,1.9350264959605674
0,-2109.91,-1176.43,-2117.25,-2529.77,1.9400265644255832
0,-2112.27,-1176.3,-2120.01,-2537.95,1.945026632890599
0,-2110.99,-1176.14,-2120.98,-2540.53,1.9500267013556147
0,-2115.18,-1183.05,-2118.3,-2533.4,1.9550267698206305
0,-2109.74,-1191.54,-2122.72,-2536.8,1.9600268382856392
0,-2114.69,-1187.9,-2126.78,-2537.79,1.965026906750655
0,-2112.8,-1180.77,-2120.82,-2531.74,1.9700269752156707
0,-2117.76,-1181.25,-2117.53,-2528.91,1.9750270436806865
0,-2115.8,-1173.8,-2116.72,-2538.66,1.9800271121457023
0,-2112.84,-1175.71,-2119.05,-2533.86,1.985027180610711
0,-2116.58,-1185.61,-2122.89,-2529.69,1.9900272490757267
0,-2111.95,-1183.7,-2122.35,-2534.07,1.9950273175407425
0,-2116.58,-1179.99,-2120.33,-2534.02,2.0000273860057582
0,-2116.37,-1173.34,-2109.87,-2530.08,2.005027454470774
0,-2111.54,-1174.75,-2122.5,-2535.28,2.0100275229357827
0,-2114.33,-1183.16,-2117.65,-2531.7,2.0150275914007985
0,-2109.76,-1178.99,-2118.03,-2530.02,2.0200276598658142
0,-2119.64,-1191.74,-2127.57,-2532.96,2.02502772833083
0,-2125.55,-1193.03,-2133.27,-2543.88,2.0300277967958458
0,-2125.01,-1188.24,-2130.87,-2543.74,2.0350278652608544
0,-2120.37,-1190.92,-2130.39,-2539.5,2.04002793372587
0,-2126.2,-1199.63,-2138.24,-2542.83,2.045028002190886
0,-2128.69,-1201.3,-2136.57,-2543.93,2.0500280706559018
0,-2125.0,-1191.87,-2132.86,-2544.7,2.0550281391209175
0,-2126.18,-1190.13,-2135.36,-2542.94,2.0600282075859333
0,-2131.32,-1198.14,-2133.34,-2547.09,2.065028276050942
0,-2133.78,-1195.88,-2143.35,-2552.08,2.0700283445159577
0,-2130.18,-1185.73,-2141.48,-2541.48,2.0750284129809735
0,-2125.4,-1184.63,-2129.86,-2541.89,2.0800284814459893
0,-2120.77,-1179.09,-2121.99,-2532.47,2.085028549911005
0,-2116.39,-1174.02,-2117.82,-2531.55,2.0900286183760137
0,-2115.0,-1169.33,-2115.15,-2523.76,2.0950286868410295
0,-2113.38,-1176.57,-2118.55,-2530.07,2.1000287553060453
0,-2112.07,-1174.42,-2109.93,-2525.33,2.105028823771061
0,-2114.23,-1180.71,-2117.88,-2527.27,2.110028892236077
0,-2112.23,-1178.67,-2116.1,-2526.15,2.1150289607010855
0,-2114.1,-1172.56,-2111.65,-2521.44,2.1200290291661013
0,-2113.52,-1160.09,-2109.78,-2522.27,2.125029097631117
0,-2117.7,-1182.33,-2122.09,-2529.2,2.130029166096133
0,-2120.04,-1180.91,-2122.07,-2536.49,2.1350292345611486
0,-2118.72,-1183.3,-2125.49,-2543.46,2.1400293030261572
0,-2125.24,-1192.85,-2128.26,-2544.75,2.145029371491173
0,-2122.17,-1195.09,-2129.84,-2545.02,2.150029439956189
0,-2122.98,-1185.55,-2131.89,-2539.75,2.1550295084212046
0,-2120.92,-1186.97,-2126.01,-2542.53,2.1600295768862203
0,-2116.95,-1185.46,-2129.39,-2542.17,2.165029645351229
0,-2122.51,-1181.89,-2127.65,-2545.42,2.1700297138162448
0,-2121.01,-1183.53,-2125.33,-2546.47,2.1750297822812605
0,-2121.49,-1183.49,-2134.98,-2553.03,2.1800298507462763
0,-2119.8,-1186.68,-2133.44,-2547.89,2.185029919211292
0,-2112.96,-1177.96,-2123.47,-2538.43,2.1900299876763007
0,-2119.18,-1185.42,-2125.68,-2540.77,2.1950300561413165
0,-2114.22,-1174.87,-2118.25,-2536.08,2.2000301246063323
0,-2108.06,-1165.73,-2117.83,-2532.67,2.205030193071348
0,-2109.25,-1180.63,-2116.01,-2532.18,2.210030261536364
0,-2115.52,-1183.9,-2120.13,-2536.73,2.2150303300013796
0,-2110.72,-1178.24,-2113.65,-2527.53,2.2200303984663883
0,-2106.23,-1173.3,-2110.3,-2530.57,2.225030466931404
0,-2115.3,-1177.6,-2123.48,-2531.83,2.23003053539642
0,-2118.75,-1178.76,-2126.75,-2539.83,2.2350306038614356
0,-2118.15,-1176.12,-2126.64,-2533.57,2.2400306723264514
0,-2124.43,-1190.03,-2129.07,-2536.36,2.24503074079146
0,-2126.63,-1197.65,-2131.23,-2543.86,2.250030809256476
0,-2125.37,-1184.28,-2133.43,-2544.0,2.2550308777214916
0,-2123.62,-1187.94,-2135.29,-2546.62,2.2600309461865074
0,-2129.03,-1183.29,-2133.65,-2541.06,2.265031014651523
0,-2118.05,-1179.01,-2125.49,-2538.73,2.270031083116532
0,-2117.42,-1166.23,-2116.63,-2535.16,2.2750311515815476
0,-2118.16,-1183.41,-2125.0,-2534.02,2.2800312200465633
0,-2111.81,-1179.58,-2107.46,-2531.37,2.285031288511579
0,-2105.56,-1169.28,-2108.22,-2526.74,2.290031356976595
0,-2100.37,-1171.4,-2114.54,-2528.95,2.2950314254416035
0,-2103.53,-1180.74,-2117.02,-2531.96,2.3000314939066193
0,-2109.22,-1171.33,-2108.36,-2533.0,2.305031562371635
0,-2109.15,-1177.78,-2113.39,-2527.23,2.310031630836651
0,-2102.08,-1169.36,-2106.68,-2520.53,2.3150316993016666
0,-2106.09,-1172.94,-2109.71,-2523.01,2.3200317677666753
0,-2102.52,-1163.47,-2104.44,-2519.29,2.325031836231691
0,-2112.18,-1172.39,-2114.85,-2526.37,2.330031904696707
0,-2114.84,-1173.54,-2119.93,-2530.29,2.3350319731617226
0,-2117.93,-1185.28,-2123.76,-2536.1,2.3400320416267384
0,-2123.58,-1194.79,-2125.56,-2539.31,2.345032110091747
0,-2126.73,-1189.85,-2125.97,-2542.75,2.350032178556763
0,-2123.23,-1187.55,-2131.31,-2541.88,2.3550322470217786
0,-2125.88,-1193.19,-2128.87,-2545.21,2.3600323154867944
0,-2130.4,-1193.94,-2139.4,-2549.67,2.36503238395181
0,-2121.76,-1178.06,-2128.54,-2543.85,2.370032452416819
0,-2119.88,-1174.99,-2123.12,-2537.83,2.3750325208818346
0,-2117.72,-1172.24,-2120.0,-2542.19,2.3800325893468504
0,-2118.43,-1184.66,-2125.68,-2539.23,2.385032657811866
0,-2117.21,-1176.84,-2119.53,-2525.66,2.390032726276882
0,-2113.02,-1182.08,-2120.48,-2531.14,2.3950327947418977
0,-2108.17,-1183.03,-2120.13,-2525.11,2.4000328632069063
0,-2106.7,-1173.82,-2115.12,-2519.77,2.405032931671922
0,-2101.47,-1166.0,-2110.02,-2512.96,2.410033000136938
0,-2111.65,-1182.56,-2118.15,-2521.71,2.4150330686019537
0,-2114.18,-1180.48,-2116.99,-2524.08,2.4200331370669694
0,-2108.01,-1175.62,-2122.28,-2525.4,2.425033205531978
0,-2113.03,-1170.68,-2117.05,-2526.09,2.430033273996994
0,-2106.67,-1172.46,-2113.67,-2526.21,2.4350333424620096
0,-2113.32,-1169.43,-2112.51,-2533.43,2.4400334109270254
0,-2110.92,-1179.99,-2121.54,-2536.24,2.445033479392041
0,-2117.16,-1183.76,-2118.06,-2541.01,2.45003354785705
0,-2103.98,-1179.06,-2111.61,-2529.28,2.4550336163220656
0,-2105.21,-1172.99,-2112.8,-2533.18,2.4600336847870814
0,-2106.17,-1169.77,-2111.18,-2526.86,2.465033753252097
0,-2099.27,-1166.61,-2103.19,-2526.38,2.470033821717113
0,-2106.7,-1172.84,-2109.44,-2519.82,2.4750338901821216
0,-2104.49,-1179.99,-2113.77,-2530.66,2.4800339586471374
0,-2096.44,-1171.66,-2106.13,-2525.53,2.485034027112153
0,-2103.07,-1178.56,-2108.53,-2519.8,2.490034095577169
0,-2108.13,-1177.67,-2117.04,-2523.56,2.4950341640421847
0,-2113.03,-1184.5,-2123.79,-2531.37,2.5000342325071934
0,-2108.72,-1179.2,-2115.23,-2528.41,2.505034300972209
0,-2107.39,-1174.83,-2122.31,-2528.34,2.510034369437225
0,-2120.35,-1185.66,-2126.94,-2538.05,2.5150344379022407
0,-2122.23,-1194.23,-2132.35,-2535.77,2.5200345063672565
0,-2131.15,-1190.94,-2129.23,-2538.66,2.525034574832265
0,-2130.98,-1184.96,-2135.72,-2545.09,2.530034643297281
0,-2131.36,-1196.85,-2141.28,-2550.04,2.5350347117622967
0,-2128.79,-1186.8,-2136.62,-2552.48,2.5400347802273124
0,-2126.05,-1191.61,-2131.67,-2546.58,2.545034848692328
0,-2124.14,-1189.42,-2132.6,-2545.71,2.550034917157344
0,-2126.86,-1190.51,-2126.72,-2543.0,2.5550349856223527
0,-2116.37,-1180.02,-2123.99,-2540.19,2.5600350540873684
0,-2117.87,-1183.87,-2124.75,-2536.39,2.565035122552384
0,-2108.66,-1168.08,-2116.42,-2536.21,2.5700351910174
0,-2106.51,-1179.04,-2112.12,-2530.79,2.5750352594824157
0,-2110.71,-1173.14,-2112.86,-2526.62,2.5800353279474244
0,-2111.82,-1172.74,-2114.87,-2528.1,2.58503539641244
0,-2110.39,-1171.73,-2108.98,-2524.92,2.590035464877456
0,-2108.79,-1170.87,-2107.72,-2526.97,2.5950355333424717
0,-2108.41,-1176.35,-2112.04,-2530.08,2.6000356018074875
0,-2110.74,-1179.32,-2115.16,-2525.89,2.605035670272496
0,-2113.96,-1174.86,-2119.33,-2527.46,2.610035738737512
0,-2119.93,-1186.87,-2124.97,-2535.48,2.6150358072025277
0,-2122.51,-1194.54,-2125.34,-2537.95,2.6200358756675435
0,-2117.02,-1177.37,-2122.54,-2535.79,2.6250359441325593
0,-2120.52,-1180.21,-2123.71,-2538.33,2.630036012597568
0,-2120.76,-1184.46,-2133.71,-2543.27,2.6350360810625837
0,-2119.19,-1192.27,-2132.46,-2542.38,2.6400361495275995
0,-2125.26,-1189.72,-2129.49,-2543.84,2.6450362179926152
0,-2113.65,-1173.87,-2118.25,-2538.97,2.650036286457631
0,-2112.22,-1172.12,-2116.39,-2540.11,2.6550363549226397
0,-2116.4,-1182.28,-2122.0,-2536.21,2.6600364233876554
0,-2110.71,-1180.65,-2120.03,-2531.4,2.665036491852671
0,-2114.26,-1181.96,-2118.46,-2534.66,2.670036560317687
0,-2114.65,-1186.86,-2126.0,-2539.92,2.6750366287827028
0,-2122.47,-1191.23,-2130.28,-2540.0,2.6800366972477114
0,-2120.42,-1189.16,-2132.77,-2539.14,2.685036765712727
0,-2119.76,-1188.54,-2127.12,-2539.06,2.690036834177743
0,-2117.47,-1189.41,-2125.44,-2535.9,2.6950369026427587
0,-2117.39,-1176.99,-2112.64,-2536.53,2.7000369711077745
0,-2118.41,-1180.65,-2120.67,-2533.57,2.7050370395727903
0,-2119.18,-1185.77,-2121.63,-2534.28,2.710037108037799
0,-2124.57,-1183.43,-2132.0,-2540.25,2.7150371765028147
0,-2120.87,-1184.54,-2125.38,-2535.07,2.7200372449678305
0,-2119.29,-1187.91,-2123.16,-2536.05,2.7250373134328463
0,-2121.75,-1183.58,-2129.0,-2542.04,2.730037381897862
0,-2122.95,-1182.65,-2125.08,-2543.55,2.7350374503628707
0,-2113.64,-1176.0,-2119.91,-2534.34,2.7400375188278865
0,-2112.19,-1175.96,-2114.78,-2526.91,2.7450375872929023
0,-2105.51,-1175.64,-2115.92,-2522.89,2.750037655757918
0,-2108.19,-1174.06,-2111.55,-2526.81,2.755037724222934
0,-2107.37,-1179.79,-2113.06,-2535.35,2.7600377926879425
0,-2102.62,-1186.24,-2114.69,-2536.43,2.7650378611529582
0,-2103.67,-1176.16,-2117.97,-2531.99,2.770037929617974
0,-2095.59,-1173.2,-2114.2,-2529.28,2.77503799808299
0,-2100.99,-1178.07,-2112.9,-2527.61,2.7800380665480056
0,-2105.41,-1182.65,-2124.39,-2537.09,2.7850381350130142
0,-2107.85,-1180.81,-2118.55,-2535.38,2.79003820347803
0,-2110.65,-1184.95,-2121.73,-2539.55,2.7950382719430458
0,-2107.11,-1178.96,-2119.65,-2529.98,2.8000383404080615
0,-2101.21,-1175.25,-2117.91,-2531.1,2.8050384088730773
0,-2108.64,-1173.18,-2118.57,-2531.51,2.810038477338086
0,-2112.45,-1177.74,-2118.58,-2533.31,2.8150385458031018
0,-2109.26,-1171.62,-2113.92,-2527.97,2.8200386142681175
0,-2113.44,-1179.06,-2121.53,-2536.37,2.8250386827331333
0,-2117.9,-1185.86,-2122.06,-2531.16,2.830038751198149
0,-2116.16,-1180.17,-2117.82,-2529.9,2.8350388196631577
0,-2114.39,-1179.07,-2117.15,-2530.73,2.8400388881281735
0,-2112.87,-1181.41,-2119.91,-2536.22,2.8450389565931893
0,-2117.61,-1186.13,-2118.67,-2537.6,2.850039025058205
0,-2118.25,-1174.55,-2117.54,-2532.12,2.855039093523221
0,-2117.13,-1174.49,-2115.54,-2535.65,2.8600391619882295
0,-2116.32,-1177.9,-2128.31,-2540.15,2.8650392304532453
0,-2109.92,-1169.2,-2121.44,-2534.66,2.870039298918261
0,-2108.49,-1171.67,-2112.72,-2535.35,2.875039367383277
0,-2108.76,-1180.33,-2116.03,-2533.29,2.8800394358482926
0,-2111.35,-1186.0,-2119.52,-2541.33,2.8850395043133084
0,-2112.96,-1180.27,-2117.24,-2534.92,2.890039572778317
0,-2114.11,-1173.78,-2120.12,-2533.87,2.895039641243333
0,-2110.44,-1174.12,-2119.79,-2534.42,2.9000397097083486
0,-2108.16,-1178.72,-2120.21,-2534.09,2.9050397781733643
0,-2111.0,-1181.81,-2120.58,-2536.43,2.91003984663838
0,-2116.38,-1174.99,-2125.42,-2542.52,2.915039915103389
0,-2118.31,-1167.73,-2120.31,-2541.72,2.9200399835684046
0,-2111.87,-1178.73,-2121.84,-2534.49,2.9250400520334203
0,-2110.24,-1186.59,-2130.59,-2533.82,2.930040120498436
0,-2112.88,-1180.46,-2121.73,-2530.02,2.935040188963452
0,-2113.38,-1176.11,-2123.39,-2533.71,2.9400402574284605
0,-2113.65,-1181.66,-2124.49,-2537.63,2.9450403258934763
0,-2123.25,-1189.99,-2126.3,-2540.27,2.950040394358492
0,-2116.65,-1182.3,-2126.87,-2536.82,2.955040462823508
0,-2110.69,-1178.33,-2122.46,-2539.77,2.9600405312885236
0,-2114.93,-1173.8,-2120.56,-2539.5,2.9650405997535323
0,-2118.93,-1189.32,-2125.08,-2540.06,2.970040668218548
0,-2119.58,-1180.19,-2125.26,-2544.26,2.975040736683564
0,-2116.37,-1183.74,-2125.81,-2540.57,2.9800408051485796
0,-2126.65,-1196.69,-2131.72,-2539.33,2.9850408736135954
0,-2120.25,-1192.79,-2128.85,-2536.81,2.990040942078604
0,-2120.12,-1187.58,-2133.49,-2540.1,2.99504101054362
0,-2117.26,-1179.94,-2121.08,-2535.42,3.0000410790086356
0,-2117.39,-1177.15,-2121.25,-2531.38,3.0050411474736514
0,-2113.56,-1177.79,-2120.45,-2538.98,3.010041215938667
0,-2119.29,-1181.94,-2120.14,-2535.84,3.015041284403676
0,-2115.47,-1185.56,-2123.77,-2535.77,3.0200413528686916
0,-2117.11,-1183.83,-2125.21,-2533.76,3.0250414213337073
0,-2118.35,-1181.45,-2120.67,-2530.11,3.030041489798723
0,-2123.19,-1184.15,-2125.63,-2541.55,3.035041558263739
0,-2112.84,-1180.02,-2121.34,-2535.8,3.0400416267287547
0,-2104.28,-1172.32,-2116.66,-2531.08,3.0450416951937633
0,-2107.02,-1169.64,-2115.01,-2530.35,3.050041763658779
0,-2109.49,-1172.92,-2114.03,-2532.28,3.055041832123795
0,-2112.04,-1169.72,-2112.67,-2530.84,3.0600419005888106
0,-2114.46,-1173.2,-2120.57,-2538.0,3.0650419690538264
0,-2119.85,-1183.16,-2126.07,-2539.24,3.070042037518835
0,-2117.22,-1181.24,-2119.24,-2537.19,3.075042105983851
0,-2114.98,-1184.93,-2126.7,-2536.88,3.0800421744488666
0,-2113.11,-1184.62,-2121.14,-2538.8,3.0850422429138824
0,-2117.19,-1183.23,-2120.71,-2536.36,3.090042311378898
0,-2122.94,-1182.7,-2125.62,-2533.9,3.095042379843907
0,-2122.76,-1184.04,-2128.61,-2540.39,3.1000424483089226
0,-2125.07,-1182.92,-2127.01,-2543.15,3.1050425167739384
0,-2130.31,-1191.7,-2129.42,-2539.14,3.110042585238954
0,-2131.04,-1177.62,-2131.14,-2539.32,3.11504265370397
0,-2131.55,-1195.12,-2134.39,-2537.75,3.1200427221689786
0,-2131.66,-1202.95,-2129.86,-2535.62,3.1250427906339944
0,-2134.28,-1188.81,-2135.81,-2540.1,3.13004285909901
0,-2124.32,-1184.61,-2129.7,-2540.0,3.135042927564026
0,-2123.52,-1185.04,-2124.57,-2537.19,3.1400429960290417
0,-2123.52,-1184.08,-2119.34,-2535.71,3.1450430644940504
0,-2124.81,-1185.28,-2131.85,-2539.99,3.150043132959066
0,-2125.36,-1186.71,-2130.61,-2547.0,3.155043201424082
0,-2118.39,-1182.65,-2119.81,-2539.82,3.1600432698890977
0,-2117.86,-1174.56,-2120.01,-2537.9,3.1650433383541134
0,-2106.52,-1173.1,-2113.84,-2533.59,3.170043406819122
0,-2110.35,-1171.35,-2116.79,-2534.81,3.175043475284138
0,-2111.09,-1172.66,-2116.24,-2534.5,3.1800435437491537
0,-2107.61,-1179.88,-2114.69,-2525.98,3.1850436122141694
0,-2110.63,-1173.13,-2117.11,-2529.89,3.190043680679185
0,-2113.42,-1181.59,-2117.53,-2528.09,3.195043749144194
0,-2115.71,-1179.04,-2116.33,-2531.03,3.2000438176092096
0,-2113.21,-1178.76,-2123.66,-2535.82,3.2050438860742254
0,-2108.28,-1173.78,-2115.28,-2537.9,3.210043954539241
0,-2111.69,-1185.66,-2118.54,-2535.43,3.215044023004257
0,-2106.86,-1167.16,-2113.66,-2521.46,3.2200440914692727
0,-2113.84,-1169.57,-2115.97,-2541.25,3.2250441599342814
0,-2116.43,-1187.39,-2131.87,-2542.64,3.230044228399297
0,-2112.33,-1193.79,-2124.8,-2535.15,3.235044296864313
0,-2109.95,-1178.5,-2118.52,-2521.23,3.2400443653293287
0,-2110.61,-1174.3,-2119.71,-2524.36,3.2450444337943445
0,-2110.43,-1171.32,-2118.67,-2529.51,3.250044502259353
0,-2110.29,-1176.29,-2114.38,-2526.78,3.255044570724369
0,-2109.68,-1168.03,-2112.48,-2527.59,3.2600446391893847
0,-2106.86,-1166.2,-2113.58,-2522.94,3.2650447076544005
0,-2112.6,-1172.1,-2113.25,-2528.77,3.2700447761194162
0,-2110.19,-1172.11,-2114.15,-2526.81,3.275044844584425
0,-2112.65,-1172.09,-2113.02,-2529.13,3.2800449130494407
0,-2113.83,-1169.64,-2110.48,-2531.69,3.2850449815144565
0,-2112.75,-1177.36,-2111.26,-2531.99,3.2900450499794722
0,-2109.74,-1180.57,-2115.16,-2532.09,3.295045118444488
0,-2110.06,-1186.61,-2118.57,-2532.08,3.3000451869094967
0,-2116.55,-1185.14,-2120.74,-2534.43,3.3050452553745124
0,-2116.87,-1189.59,-2125.32,-2538.44,3.310045323839528
0,-2115.71,-1186.33,-2125.63,-2541.31,3.315045392304544
0,-2114.7,-1183.64,-2120.21,-2536.1,3.3200454607695598
0,-2119.32,-1182.73,-2125.74,-2533.58,3.3250455292345684
0,-2118.03,-1180.6,-2116.88,-2530.6,3.330045597699584
0,-2125.16,-1182.07,-2125.46,-2541.47,3.3350456661646
0,-2116.94,-1189.17,-2122.6,-2536.95,3.3400457346296157
0,-2115.9,-1184.29,-2124.74,-2535.78,3.3450458030946315
0,-2119.64,-1179.54,-2124.22,-2538.8,3.35004587155964
0,-2123.24,-1183.82,-2129.74,-2534.03,3.355045940024656
0,-2114.98,-1174.56,-2120.75,-2534.04,3.3600460084896717
0,-2116.36,-1185.72,-2120.03,-2534.55,3.3650460769546875
0,-2108.97,-1186.06,-2124.01,-2530.87,3.3700461454197033
0,-2123.29,-1183.92,-2126.71,-2536.09,3.375046213884719
0,-2115.54,-1180.72,-2123.42,-2532.26,3.3800462823497277
0,-2118.25,-1178.57,-2119.91,-2535.58,3.3850463508147435
0,-2121.41,-1180.81,-2130.71,-2536.66,3.3900464192797592
0,-2119.9,-1180.85,-2123.92,-2535.54,3.395046487744775
0,-2119.86,-1191.2,-2131.44,-2538.56,3.400046556209791
0,-2118.03,-1175.83,-2124.57,-2538.11,3.4050466246747995
0,-2117.49,-1167.0,-2117.02,-2530.31,3.4100466931398152
0,-2115.06,-1183.55,-2121.62,-2538.18,3.415046761604831
0,-2114.14,-1184.12,-2129.84,-2539.48,3.4200468300698468
0,-2116.13,-1186.12,-2122.78,-2539.6,3.4250468985348625
0,-2115.21,-1174.85,-2122.86,-2538.94,3.430046966999871
0,-2116.56,-1191.29,-2130.2,-2535.64,3.435047035464887
0,-2117.37,-1182.46,-2123.86,-2540.47,3.4400471039299028
0,-2113.47,-1180.19,-2123.95,-2545.22,3.4450471723949185
0,-2120.18,-1188.03,-2132.95,-2550.69,3.4500472408599343
0,-2118.85,-1190.95,-2131.47,-2536.89,3.455047309324943
0,-2123.18,-1193.33,-2132.87,-2544.04,3.4600473777899587
0,-2131.72,-1200.15,-2139.49,-2541.2,3.4650474462549745
0,-2121.51,-1193.68,-2134.35,-2536.35,3.4700475147199903
0,-2114.66,-1184.19,-2118.61,-2530.63,3.475047583185006
0,-2117.65,-1184.82,-2124.41,-2532.16,3.4800476516500147
0,-2114.79,-1179.54,-2121.53,-2534.19,3.4850477201150305
0,-2112.71,-1182.23,-2126.69,-2537.91,3.4900477885800463
0,-2111.21,-1186.91,-2120.76,-2533.58,3.495047857045062
0,-2111.75,-1182.52,-2119.31,-2534.52,3.500047925510078
0,-2113.81,-1192.18,-2125.77,-2534.36,3.5050479939750865
0,-2120.13,-1189.15,-2124.7,-2538.23,3.5100480624401023
0,-2118.63,-1183.35,-2129.53,-2534.76,3.515048130905118
0,-2113.21,-1178.85,-2122.04,-2529.69,3.520048199370134
0,-2111.7,-1161.94,-2112.36,-2527.06,3.5250482678351496
0,-2112.19,-1176.97,-2113.18,-2528.18,3.5300483363001653
0,-2118.13,-1174.19,-2114.54,-2522.11,3.535048404765174
0,-2121.71,-1179.47,-2123.03,-2533.1,3.54004847323019
0,-2115.73,-1193.82,-2128.12,-2543.73,3.5450485416952056
0,-2110.42,-1185.97,-2120.61,-2545.43,3.5500486101602213
0,-2107.51,-1175.26,-2119.06,-2531.05,3.555048678625237
0,-2107.82,-1176.43,-2117.52,-2533.83,3.5600487470902458
0,-2110.59,-1174.23,-2116.78,-2534.74,3.5650488155552615
0,-2114.93,-1178.25,-2115.79,-2537.06,3.5700488840202773
0,-2111.74,-1183.28,-2121.54,-2532.59,3.575048952485293
0,-2113.34,-1170.08,-2113.42,-2527.05,3.580049020950309
0,-2109.4,-1159.79,-2105.97,-2527.76,3.5850490894153175
0,-2106.11,-1164.25,-2109.11,-2527.84,3.5900491578803333
0,-2113.62,-1177.17,-2112.53,-2527.38,3.595049226345349
0,-2113.72,-1176.48,-2118.7,-2527.96,3.600049294810365
0,-2112.67,-1171.72,-2117.53,-2531.88,3.6050493632753806
0,-2110.32,-1173.77,-2117.97,-2527.5,3.6100494317403893
0,-2118.67,-1186.22,-2122.26,-2532.89,3.615049500205405
0,-2118.89,-1192.64,-2131.36,-2536.25,3.620049568670421
0,-2109.76,-1177.2,-2117.96,-2535.25,3.6250496371354366
0,-2120.36,-1181.49,-2120.07,-2540.54,3.6300497056004524
0,-2116.58,-1190.09,-2125.97,-2536.87,3.635049774065461
0,-2123.3,-1177.49,-2124.73,-2541.62,3.640049842530477
0,-2121.55,-1181.63,-2121.18,-2531.81,3.6450499109954926
0,-2117.62,-1180.94,-2124.12,-2538.29,3.6500499794605084
0,-2109.42,-1174.57,-2115.39,-2533.94,3.655050047925524
0,-2112.87,-1176.16,-2112.85,-2530.95,3.660050116390533
0,-2115.32,-1174.27,-2117.45,-2533.34,3.6650501848555486
0,-2112.81,-1179.65,-2120.26,-2531.88,3.6700502533205643
0,-2112.13,-1179.11,-2120.58,-2533.21,3.67505032178558
0,-2122.32,-1176.89,-2128.04,-2536.76,3.680050390250596
0,-2121.29,-1185.75,-2125.7,-2538.17,3.6850504587156045
0,-2118.9,-1181.57,-2123.38,-2538.67,3.6900505271806203
0,-2109.9,-1173.23,-2120.91,-2537.05,3.695050595645636
0,-2114.47,-1177.71,-2113.16,-2535.66,3.700050664110652
0,-2108.0,-1179.18,-2122.52,-2532.98,3.7050507325756676
0,-2110.78,-1182.68,-2128.69,-2532.12,3.7100508010406834
0,-2114.97,-1186.89,-2132.78,-2537.75,3.715050869505692
0,-2125.24,-1186.26,-2129.15,-2541.12,3.720050937970708
0,-2118.67,-1179.41,-2122.78,-2538.47,3.7250510064357236
0,-2107.96,-1173.96,-2117.01,-2530.49,3.7300510749007394
0,-2118.28,-1175.83,-2118.51,-2534.95,3.735051143365755
0,-2120.74,-1181.22,-2127.87,-2535.72,3.740051211830764
0,-2117.01,-1184.08,-2122.68,-2532.74,3.7450512802957796
0,-2112.77,-1183.01,-2121.94,-2534.73,3.7500513487607954
0,-2105.97,-1173.74,-2112.97,-2531.01,3.755051417225811
0,-2106.99,-1179.96,-2110.63,-2533.6,3.760051485690827
0,-2112.42,-1179.18,-2116.09,-2534.15,3.7650515541558356
0,-2111.55,-1178.22,-2119.32,-2534.8,3.7700516226208514
0,-2112.98,-1175.8,-2119.39,-2531.97,3.775051691085867
0,-2111.4,-1175.12,-2119.94,-2532.44,3.780051759550883
0,-2116.57,-1179.56,-2120.93,-2531.27,3.7850518280158987
0,-2110.7,-1169.52,-2118.14,-2536.43,3.7900518964809073
0,-2111.79,-1188.88,-2120.94,-2541.39,3.795051964945923
0,-2117.35,-1187.9,-2125.28,-2534.02,3.800052033410939
0,-2122.62,-1179.24,-2122.85,-2536.51,3.8050521018759547
0,-2122.94,-1177.53,-2125.21,-2539.71,3.8100521703409704
0,-2122.4,-1181.04,-2121.53,-2539.67,3.815052238805979
0,-2119.7,-1177.99,-2123.28,-2532.96,3.820052307270995
0,-2122.95,-1182.14,-2128.93,-2542.29,3.8250523757360106
0,-2123.82,-1187.93,-2127.11,-2543.14,3.8300524442010264
0,-2119.21,-1183.14,-2124.02,-2534.22,3.835052512666042
0,-2117.93,-1181.79,-2129.12,-2537.2,3.840052581131051
0,-2124.69,-1189.96,-2127.25,-2538.03,3.8450526495960666
0,-2120.01,-1192.57,-2125.45,-2538.25,3.8500527180610824
0,-2120.28,-1177.27,-2123.32,-2537.94,3.855052786526098
0,-2109.76,-1169.44,-2116.99,-2532.2,3.860052854991114
0,-2114.57,-1172.6,-2116.04,-2537.81,3.8650529234561297
0,-2111.97,-1175.56,-2119.22,-2535.13,3.8700529919211384
0,-2108.87,-1170.38,-2118.92,-2526.68,3.875053060386154
0,-2109.65,-1179.38,-2111.55,-2531.39,3.88005312885117
0,-2114.36,-1187.6,-2121.27,-2533.19,3.8850531973161857
0,-2111.15,-1185.28,-2117.27,-2526.75,3.8900532657812015
0,-2108.35,-1176.46,-2116.42,-2529.15,3.89505333424621
0,-2108.89,-1170.2,-2113.76,-2537.19,3.900053402711226
0,-2104.56,-1174.18,-2113.22,-2531.3,3.9050534711762417
0,-2104.44,-1162.93,-2114.77,-2521.88,3.9100535396412575
0,-2110.09,-1183.24,-2117.78,-2535.99,3.9150536081062732
0,-2118.98,-1185.34,-2125.47,-2536.74,3.920053676571282
0,-2113.14,-1178.88,-2120.29,-2535.14,3.9250537450362977
0,-2116.04,-1168.74,-2114.51,-2530.62,3.9300538135013134
0,-2115.8,-1172.37,-2112.23,-2530.06,3.935053881966329
0,-2113.44,-1167.99,-2114.59,-2530.63,3.940053950431345
0,-2113.15,-1175.07,-2117.64,-2533.46,3.9450540188963537
0,-2107.46,-1177.75,-2116.69,-2534.06,3.9500540873613694
0,-2114.59,-1178.31,-2120.74,-2536.8,3.955054155826385
0,-2125.59,-1184.87,-2133.13,-2540.47,3.960054224291401
0,-2125.01,-1189.5,-2130.16,-2540.07,3.9650542927564167
0,-2119.36,-1180.79,-2129.0,-2542.76,3.9700543612214254
0,-2125.9,-1183.44,-2131.37,-2540.33,3.975054429686441
0,-2129.04,-1187.08,-2129.89,-2534.05,3.980054498151457
0,-2121.36,-1192.01,-2130.24,-2540.67,3.9850545666164727
0,-2115.89,-1190.28,-2127.3,-2543.82,3.9900546350814885
0,-2118.78,-1197.31,-2130.83,-2540.65,3.995054703546497
0,-2119.1,-1200.78,-2133.74,-2541.85,4.000054772011513
0,-2113.76,-1186.99,-2129.32,-2536.19,4.005054840476529
0,-2102.61,-1183.07,-2118.1,-2532.96,4.0100549089415445
0,-2107.84,-1176.89,-2119.13,-2535.43,4.01505497740656
0,-2107.41,-1183.59,-2122.61,-2537.56,4.020055045871576
0,-2100.87,-1178.63,-2115.55,-2523.76,4.025055114336585
0,-2106.09,-1168.23,-2113.01,-2524.37,4.0300551828016005
0,-2103.31,-1173.44,-2109.5,-2526.26,4.035055251266616
0,-2107.67,-1174.73,-2115.75,-2533.6,4.040055319731632
0,-2105.07,-1176.19,-2115.82,-2526.48,4.045055388196648
0,-2113.13,-1182.28,-2117.21,-2535.56,4.0500554566616565
0,-2109.13,-1182.26,-2120.13,-2532.56,4.055055525126672
0,-2108.53,-1180.95,-2119.45,-2533.1,4.060055593591688
0,-2106.15,-1170.14,-2111.1,-2531.93,4.065055662056704
0,-2110.9,-1174.95,-2114.0,-2529.16,4.0700557305217195
0,-2104.71,-1170.21,-2110.45,-2530.98,4.075055798986728
0,-2117.21,-1170.37,-2124.72,-2538.64,4.080055867451744
0,-2115.61,-1173.66,-2120.24,-2538.9,4.08505593591676
0,-2108.66,-1177.11,-2121.94,-2535.59,4.0900560043817755
0,-2118.42,-1189.47,-2122.69,-2535.87,4.095056072846791
0,-2120.86,-1192.84,-2127.37,-2540.21,4.1000561413118
0,-2116.19,-1184.17,-2121.08,-2534.68,4.105056209776816
0,-2114.88,-1185.05,-2124.36,-2530.33,4.1100562782418315
0,-2110.33,-1175.62,-2116.17,-2533.64,4.115056346706847
0,-2111.18,-1181.23,-2119.46,-2522.96,4.120056415171863
0,-2117.85,-1177.01,-2118.19,-2525.04,4.125056483636872
0,-2112.03,-1174.14,-2113.1,-2527.17,4.1300565521018875
0,-2116.48,-1177.63,-2116.73,-2520.86,4.135056620566903
0,-2114.14,-1179.95,-2119.32,-2533.69,4.140056689031919
0,-2118.42,-1176.1,-2122.19,-2533.57,4.145056757496935
0,-2115.06,-1174.24,-2115.14,-2530.72,4.1500568259619435
0,-2120.66,-1172.69,-2118.4,-2533.58,4.155056894426959
0,-2113.51,-1176.61,-2125.98,-2532.56,4.160056962891975
0,-2107.68,-1180.96,-2121.56,-2527.93,4.165057031356991
0,-2110.22,-1176.54,-2119.9,-2534.54,4.170057099822007
0,-2112.35,-1174.57,-2119.41,-2532.43,4.175057168287015
0,-2114.55,-1171.59,-2122.22,-2531.87,4.180057236752031
0,-2121.59,-1185.28,-2126.25,-2539.0,4.185057305217047
0,-2119.84,-1188.73,-2128.85,-2542.2,4.1900573736820625
0,-2118.8,-1181.19,-2127.83,-2545.87,4.195057442147078
0,-2119.48,-1184.67,-2124.74,-2543.87,4.200057510612094
0,-2127.76,-1180.45,-2127.8,-2541.36,4.205057579077103
0,-2124.69,-1187.23,-2131.85,-2540.43,4.2100576475421185
0,-2125.07,-1190.97,-2128.8,-2539.93,4.215057716007134
0,-2117.88,-1185.8,-2124.74,-2541.3,4.22005778447215
0,-2110.2,-1183.27,-2119.17,-2528.71,4.225057852937166
0,-2116.56,-1183.72,-2119.85,-2516.87,4.2300579214021745
0,-2135.26,-1188.74,-2136.56,-2545.71,4.23505798986719
0,-2132.38,-1194.71,-2137.69,-2553.73,4.240058058332206
0,-2127.98,-1188.03,-2134.73,-2550.6,4.245058126797222
0,-2124.42,-1183.37,-2126.45,-2545.34,4.250058195262238
0,-2125.31,-1177.56,-2125.89,-2544.63,4.255058263727246
0,-2120.42,-1177.39,-2128.78,-2539.72,4.260058332192262
0,-2118.46,-1175.22,-2119.42,-2531.66,4.265058400657278
0,-2117.54,-1173.11,-2118.01,-2528.62,4.270058469122294
0,-2117.33,-1172.84,-2117.08,-2529.67,4.275058537587309
0,-2122.31,-1170.62,-2118.16,-2535.04,4.280058606052318
0,-2117.49,-1177.02,-2118.44,-2534.73,4.285058674517334
0,-2112.77,-1182.48,-2118.49,-2535.72,4.29005874298235
0,-2115.49,-1189.97,-2121.39,-2535.39,4.295058811447365
0,-2120.32,-1183.89,-2123.16,-2535.95,4.300058879912381
0,-2113.39,-1172.18,-2112.8,-2533.13,4.30505894837739
0,-2108.97,-1175.3,-2115.61,-2530.29,4.3100590168424056
0,-2113.96,-1173.27,-2118.0,-2533.64,4.315059085307421
0,-2116.46,-1178.81,-2123.72,-2535.41,4.320059153772437
0,-2111.0,-1173.48,-2124.41,-2537.93,4.325059222237453
0,-2111.27,-1178.48,-2119.23,-2533.56,4.3300592907024615
0,-2117.27,-1187.83,-2128.78,-2541.12,4.335059359167477
0,-2120.51,-1186.43,-2125.99,-2537.02,4.340059427632493
0,-2116.9,-1183.67,-2125.89,-2539.17,4.345059496097509
0,-2119.88,-1189.91,-2125.65,-2535.06,4.350059564562525
0,-2120.29,-1187.21,-2125.44,-2538.83,4.35505963302754
0,-2118.4,-1182.57,-2127.54,-2540.39,4.360059701492549
0,-2126.24,-1185.0,-2126.78,-2540.55,4.365059769957565
0,-2113.41,-1165.31,-2116.87,-2539.87,4.370059838422581
0,-2113.13,-1173.69,-2117.37,-2531.93,4.375059906887596
0,-2106.63,-1181.54,-2118.43,-2533.81,4.380059975352612
0,-2108.85,-1183.54,-2119.45,-2531.71,4.385060043817621
0,-2114.72,-1179.56,-2118.4,-2534.72,4.390060112282637
0,-2115.88,-1180.13,-2119.46,-2531.85,4.395060180747652
0,-2116.57,-1181.23,-2121.0,-2538.91,4.400060249212668
0,-2113.25,-1180.55,-2120.12,-2539.11,4.405060317677684
0,-2115.9,-1179.25,-2118.87,-2533.14,4.410060386142693
0,-2123.55,-1179.42,-2122.84,-2540.18,4.415060454607708
0,-2121.3,-1180.89,-2129.5,-2542.52,4.420060523072724
0,-2121.98,-1182.63,-2133.53,-2541.35,4.42506059153774
0,-2120.36,-1180.84,-2127.63,-2540.5,4.430060660002756
0,-2116.09,-1175.87,-2120.77,-2540.26,4.435060728467764
0,-2112.74,-1181.32,-2121.64,-2536.08,4.44006079693278
0,-2115.86,-1181.99,-2122.47,-2537.2,4.445060865397796
0,-2119.65,-1186.95,-2126.14,-2532.92,4.450060933862812
0,-2117.77,-1181.17,-2123.62,-2536.02,4.455061002327827
0,-2113.99,-1179.91,-2122.61,-2536.23,4.460061070792836
0,-2114.78,-1182.48,-2114.5,-2537.42,4.465061139257852
0,-2112.55,-1181.11,-2125.58,-2535.05,4.470061207722868
0,-2111.61,-1177.69,-2121.1,-2525.6,4.475061276187883
0,-2116.14,-1171.81,-2106.83,-2520.91,4.480061344652899
0,-2120.7,-1181.95,-2128.81,-2544.56,4.485061413117908
0,-2114.31,-1188.59,-2126.81,-2535.68,4.490061481582924
0,-2113.14,-1183.37,-2122.18,-2535.7,4.495061550047939
0,-2116.01,-1185.06,-2120.71,-2537.18,4.500061618512955
0,-2116.46,-1181.89,-2128.55,-2539.46,4.505061686977971
0,-2119.71,-1183.69,-2128.84,-2537.81,4.510061755442987
0,-2117.63,-1184.45,-2126.91,-2543.83,4.515061823907995
0,-2114.41,-1179.01,-2121.49,-2546.43,4.520061892373011
0,-2115.15,-1177.93,-2120.76,-2540.66,4.525061960838027
0,-2121.4,-1180.86,-2124.02,-2538.94,4.530062029303043
0,-2123.15,-1183.81,-2128.27,-2538.88,4.5350620977680585
0,-2117.37,-1174.76,-2124.88,-2536.15,4.540062166233067
0,-2117.36,-1178.4,-2115.04,-2533.72,4.545062234698083
0,-2115.22,-1183.18,-2120.32,-2534.36,4.550062303163099
0,-2109.56,-1181.28,-2119.17,-2530.84,4.5550623716281144
0,-2107.52,-1184.77,-2118.01,-2529.8,4.56006244009313
0,-2117.19,-1182.71,-2119.67,-2527.44,4.565062508558139
0,-2110.87,-1185.61,-2123.27,-2526.74,4.570062577023155
0,-2114.58,-1183.94,-2121.27,-2529.48,4.57506264548817
0,-2111.28,-1178.03,-2115.79,-2527.69,4.580062713953186
0,-2110.99,-1172.69,-2117.55,-2526.83,4.585062782418202
0,-2119.42,-1176.77,-2118.59,-2532.02,4.590062850883211
0,-2117.45,-1189.17,-2123.52,-2530.3,4.595062919348226
0,-2119.57,-1184.28,-2119.73,-2536.01,4.600062987813242
0,-2117.4,-1188.3,-2123.15,-2535.08,4.605063056278258
0,-2115.45,-1187.85,-2123.57,-2538.45,4.610063124743274
0,-2115.7,-1185.56,-2123.2,-2536.68,4.615063193208282
0,-2119.24,-1180.89,-2129.43,-2534.81,4.620063261673298
0,-2118.21,-1177.24,-2123.65,-2535.8,4.625063330138314
0,-2115.06,-1175.1,-2124.39,-2530.62,4.63006339860333
0,-2118.5,-1173.66,-2124.92,-2531.19,4.6350634670683455
0,-2118.23,-1188.12,-2120.58,-2537.04,4.640063535533354
0,-2110.67,-1180.66,-2119.89,-2537.78,4.64506360399837
0,-2116.09,-1182.47,-2126.49,-2535.38,4.650063672463386
0,-2114.8,-1184.1,-2124.6,-2543.09,4.6550637409284015
0,-2114.26,-1176.31,-2124.12,-2541.12,4.660063809393417
0,-2115.65,-1184.43,-2123.66,-2535.97,4.665063877858426
0,-2118.96,-1182.81,-2125.34,-2544.7,4.670063946323442
0,-2121.39,-1183.08,-2125.69,-2540.02,4.6750640147884575
0,-2114.72,-1185.68,-2126.95,-2538.11,4.680064083253473
0,-2121.03,-1182.45,-2127.88,-2536.27,4.685064151718489
0,-2119.97,-1190.21,-2130.44,-2536.85,4.690064220183505
0,-2121.15,-1186.89,-2125.94,-2540.29,4.695064288648513
0,-2121.26,-1179.61,-2121.42,-2533.79,4.700064357113529
0,-2121.33,-1176.33,-2116.97,-2527.07,4.705064425578545
0,-2118.67,-1177.75,-2121.38,-2533.8,4.710064494043561
0,-2121.28,-1185.58,-2122.15,-2536.51,4.7150645625085765
0,-2115.52,-1178.5,-2125.88,-2532.92,4.720064630973585
0,-2119.42,-1184.01,-2120.61,-2528.49,4.725064699438601
0,-2116.86,-1184.93,-2123.65,-2532.45,4.730064767903617
0,-2116.32,-1177.57,-2120.85,-2535.63,4.7350648363686325
0,-2109.53,-1182.1,-2119.25,-2529.21,4.740064904833648
0,-2108.75,-1174.45,-2118.92,-2527.91,4.745064973298657
0,-2117.41,-1178.38,-2120.82,-2528.23,4.750065041763673
0,-2116.3,-1174.2,-2122.64,-2529.8,4.7550651102286885
0,-2111.4,-1176.29,-2115.33,-2534.95,4.760065178693704
0,-2109.61,-1179.4,-2122.66,-2538.87,4.76506524715872
0,-2112.13,-1182.54,-2126.63,-2534.94,4.770065315623729
0,-2119.57,-1188.77,-2127.4,-2540.04,4.7750653840887445
0,-2122.76,-1194.41,-2131.96,-2548.32,4.78006545255376
0,-2120.47,-1187.58,-2124.81,-2542.35,4.785065521018776
0,-2111.33,-1178.76,-2126.35,-2536.34,4.790065589483792
0,-2110.96,-1167.99,-2115.28,-2535.08,4.7950656579488005
0,-2108.94,-1175.38,-2113.93,-2534.94,4.800065726413816
0,-2113.64,-1178.96,-2116.37,-2534.72,4.805065794878832
0,-2115.78,-1181.68,-2115.28,-2530.86,4.810065863343848
0,-2110.86,-1171.45,-2115.89,-2522.55,4.8150659318088636
0,-2106.99,-1173.56,-2109.15,-2525.67,4.820066000273872
0,-2110.63,-1167.66,-2114.78,-2524.54,4.825066068738888
0,-2103.46,-1172.23,-2105.82,-2525.57,4.830066137203904
0,-2105.83,-1180.98,-2113.68,-2527.27,4.8350662056689195
0,-2108.14,-1184.74,-2115.76,-2525.52,4.840066274133935
0,-2116.72,-1177.4,-2120.04,-2529.72,4.845066342598951
0,-2122.85,-1179.45,-2120.91,-2535.74,4.85006641106396
0,-2123.73,-1183.41,-2122.88,-2537.16,4.8550664795289755
0,-2121.85,-1186.94,-2124.37,-2537.74,4.860066547993991
0,-2126.82,-1201.05,-2138.03,-2540.0,4.865066616459007
0,-2127.45,-1196.37,-2140.04,-2541.2,4.870066684924023
0,-2122.56,-1192.54,-2138.14,-2540.62,4.8750667533890315
0,-2126.66,-1194.36,-2136.25,-2544.82,4.880066821854047
0,-2131.35,-1190.43,-2135.92,-2541.71,4.885066890319063
0,-2127.93,-1178.47,-2131.85,-2539.44,4.890066958784079
0,-2125.55,-1194.18,-2129.5,-2534.54,4.895067027249095
0,-2129.55,-1193.94,-2132.07,-2537.84,4.900067095714103
0,-2122.78,-1191.4,-2132.0,-2550.04,4.905067164179119
0,-2127.26,-1193.74,-2135.74,-2549.88,4.910067232644135
0,-2126.9,-1195.25,-2137.48,-2546.76,4.915067301109151
0,-2129.32,-1194.13,-2135.68,-2549.69,4.920067369574166
0,-2127.82,-1187.94,-2135.38,-2552.29,4.925067438039175
0,-2123.85,-1179.11,-2124.61,-2539.98,4.930067506504191
0,-2120.68,-1174.84,-2117.02,-2540.07,4.935067574969207
0,-2116.06,-1158.44,-2114.82,-2530.01,4.940067643434222
0,-2110.41,-1177.69,-2124.27,-2532.42,4.945067711899238
0,-2115.3,-1183.63,-2124.55,-2541.25,4.950067780364247
0,-2120.16,-1178.06,-2125.32,-2540.23,4.9550678488292625
0,-2121.86,-1182.18,-2126.7,-2540.1,4.960067917294278
0,-2117.1,-1186.2,-2130.56,-2542.94,4.965067985759294
0,-2111.81,-1180.36,-2117.32,-2533.72,4.97006805422431
0,-2108.25,-1174.38,-2115.88,-2534.37,4.9750681226893185
0,-2111.17,-1176.42,-2116.03,-2531.7,4.980068191154334
0,-2113.89,-1182.35,-2121.18,-2533.55,4.98506825961935
0,-2114.11,-1179.83,-2118.07,-2530.3,4.990068328084366
0,-2110.19,-1177.06,-2112.94,-2525.76,4.995068396549382
0,-2108.92,-1182.69,-2112.62,-2529.09,5.000068465014397
0,-2100.78,-1178.44,-2112.37,-2530.84,5.005068533479406
0,-2098.91,-1170.15,-2105.51,-2522.27,5.010068601944422
0,-2098.79,-1171.39,-2107.51,-2526.22,5.015068670409438
0,-2103.75,-1174.81,-2111.26,-2536.05,5.020068738874453
0,-2110.12,-1178.42,-2117.93,-2541.97,5.025068807339469
0,-2108.03,-1183.74,-2116.84,-2541.28,5.030068875804478
0,-2110.85,-1172.58,-2122.29,-2538.61,5.035068944269494
0,-2120.56,-1180.35,-2126.73,-2539.77,5.040069012734509
0,-2125.1,-1188.78,-2135.5,-2541.77,5.045069081199525
0,-2126.14,-1193.08,-2134.37,-2544.78,5.050069149664541
0,-2121.17,-1193.26,-2130.08,-2541.82,5.05506921812955
0,-2115.93,-1185.2,-2126.87,-2536.75,5.060069286594565
0,-2123.71,-1184.63,-2128.38,-2538.14,5.065069355059581
0,-2119.22,-1181.46,-2125.59,-2538.09,5.070069423524597
0,-2119.58,-1172.78,-2121.11,-2535.58,5.075069491989613
0,-2112.45,-1188.16,-2124.17,-2533.16,5.080069560454621
0,-2114.97,-1187.67,-2127.34,-2539.18,5.085069628919637
0,-2117.89,-1180.8,-2127.17,-2537.69,5.090069697384653
0,-2122.28,-1184.87,-2130.91,-2541.09,5.095069765849669
0,-2121.34,-1179.96,-2119.45,-2546.99,5.100069834314684
0,-2117.69,-1195.72,-2123.49,-2541.97,5.105069902779693
0,-2125.72,-1185.17,-2129.75,-2539.35,5.110069971244709
0,-2127.66,-1185.66,-2127.67,-2546.59,5.115070039709725
0,-2115.11,-1170.63,-2114.71,-2535.46,5.12007010817474
0,-2116.49,-1172.7,-2122.63,-2538.65,5.125070176639756
0,-2117.95,-1179.04,-2123.51,-2535.63,5.130070245104765
0,-2119.51,-1171.56,-2121.32,-2531.7,5.135070313569781
0,-2113.61,-1179.03,-2115.92,-2535.4,5.140070382034796
0,-2114.74,-1178.66,-2117.05,-2525.64,5.145070450499812
0,-2110.54,-1184.53,-2125.82,-2536.14,5.150070518964828
0,-2112.92,-1181.0,-2121.78,-2538.73,5.155070587429837
0,-2109.44,-1175.19,-2115.02,-2530.66,5.160070655894852
0,-2096.74,-1168.6,-2104.01,-2529.84,5.165070724359868
0,-2092.97,-1161.61,-2103.32,-2515.48,5.170070792824884
0,-2100.64,-1165.39,-2108.04,-2520.81,5.1750708612899
0,-2106.29,-1174.15,-2114.62,-2531.77,5.1800709297549155
0,-2111.1,-1171.39,-2115.79,-2530.43,5.185070998219924
0,-2109.49,-1174.07,-2113.7,-2532.9,5.19007106668494
0,-2110.44,-1167.13,-2111.33,-2534.45,5.195071135149956
0,-2108.54,-1162.54,-2104.22,-2530.5,5.200071203614971
0,-2113.59,-1182.51,-2120.06,-2529.42,5.205071272079987
0,-2112.48,-1180.74,-2121.65,-2529.02,5.210071340544996
0,-2114.55,-1191.73,-2129.27,-2532.06,5.215071409010012
0,-2113.23,-1186.31,-2122.97,-2533.77,5.220071477475027
0,-2116.16,-1189.58,-2124.61,-2536.39,5.225071545940043
0,-2118.55,-1183.89,-2127.94,-2538.85,5.230071614405059
0,-2117.03,-1180.32,-2126.24,-2537.28,5.235071682870068
0,-2116.28,-1170.25,-2122.43,-2539.31,5.240071751335083
0,-2114.66,-1189.67,-2129.93,-2539.68,5.245071819800099
0,-2118.82,-1202.96,-2137.16,-2549.43,5.250071888265115
0,-2113.21,-1192.52,-2132.86,-2542.64,5.255071956730131
0,-2113.86,-1180.1,-2124.54,-2537.93,5.260072025195139
0,-2113.13,-1173.63,-2118.22,-2533.8,5.265072093660155
0,-2111.72,-1184.82,-2117.04,-2536.82,5.270072162125171
0,-2119.94,-1182.58,-2124.36,-2531.82,5.275072230590187
0,-2118.15,-1175.59,-2119.97,-2524.63,5.2800722990552025
0,-2112.01,-1174.65,-2115.43,-2525.84,5.285072367520211
0,-2109.36,-1168.05,-2109.98,-2521.47,5.290072435985227
0,-2107.87,-1173.97,-2111.67,-2518.05,5.295072504450243
0,-2106.64,-1174.58,-2114.44,-2517.91,5.3000725729152585
0,-2113.15,-1169.31,-2111.28,-2511.77,5.305072641380274
0,-2111.97,-1160.72,-2112.46,-2520.98,5.310072709845283
0,-2115.63,-1177.08,-2118.02,-2524.0,5.315072778310299
0,-2116.51,-1178.8,-2119.69,-2527.96,5.3200728467753144
0,-2117.32,-1173.87,-2118.32,-2528.64,5.32507291524033
0,-2116.53,-1166.54,-2115.53,-2531.07,5.330072983705346
0,-2115.01,-1166.16,-2110.07,-2528.94,5.335073052170362
0,-2114.91,-1167.24,-2110.55,-2526.41,5.34007312063537
0,-2113.97,-1171.7,-2113.3,-2532.71,5.345073189100386
0,-2117.8,-1179.63,-2118.98,-2535.71,5.350073257565402
0,-2116.1,-1181.05,-2122.34,-2535.93,5.355073326030418
0,-2115.06,-1180.04,-2118.63,-2531.41,5.3600733944954335
0,-2111.83,-1176.2,-2120.43,-2541.71,5.365073462960442
0,-2114.79,-1179.91,-2123.74,-2540.7,5.370073531425458
0,-2113.83,-1182.26,-2116.95,-2530.98,5.375073599890474
0,-2113.65,-1179.6,-2116.84,-2534.15,5.3800736683554895
0,-2114.39,-1178.39,-2121.44,-2532.12,5.385073736820505
0,-2111.48,-1179.64,-2119.88,-2536.19,5.390073805285514
0,-2110.05,-1166.95,-2122.76,-2537.7,5.39507387375053
0,-2108.1,-1173.97,-2119.08,-2539.15,5.4000739422155455
0,-2115.7,-1173.01,-2117.33,-2535.15,5.405074010680561
0,-2121.21,-1191.83,-2130.75,-2540.32,5.410074079145577
0,-2113.71,-1180.4,-2123.67,-2536.7,5.415074147610586
0,-2112.18,-1182.48,-2122.53,-2534.16,5.4200742160756015
0,-2114.09,-1184.2,-2125.75,-2537.97,5.425074284540617
0,-2110.01,-1178.11,-2124.98,-2533.54,5.430074353005633
0,-2118.94,-1188.88,-2126.23,-2537.85,5.435074421470649
0,-2118.58,-1191.29,-2129.48,-2538.77,5.4400744899356575
0,-2121.23,-1186.35,-2126.66,-2537.45,5.445074558400673
0,-2116.01,-1174.26,-2121.0,-2542.68,5.450074626865689
0,-2111.48,-1165.45,-2111.76,-2535.67,5.455074695330705
0,-2108.95,-1178.54,-2116.27,-2530.97,5.4600747637957205
0,-2110.59,-1178.92,-2122.45,-2531.96,5.465074832260729
0,-2110.85,-1175.14,-2116.58,-2525.43,5.470074900725745
0,-2105.78,-1172.24,-2113.7,-2522.41,5.475074969190761
0,-2108.26,-1175.4,-2111.4,-2526.7,5.4800750376557765
0,-2116.04,-1171.62,-2121.66,-2532.63,5.485075106120792
0,-2110.41,-1181.62,-2115.45,-2527.32,5.490075174585808
0,-2108.86,-1177.59,-2117.73,-2531.93,5.495075243050817
0,-2115.91,-1181.76,-2116.98,-2531.67,5.5000753115158325
0,-2115.68,-1184.38,-2124.15,-2535.49,5.505075379980848
0,-2118.29,-1180.32,-2125.96,-2536.46,5.510075448445864
0,-2115.63,-1177.71,-2128.65,-2541.62,5.51507551691088
0,-2112.13,-1167.23,-2118.12,-2541.63,5.5200755853758885
0,-2118.66,-1173.11,-2120.27,-2544.86,5.525075653840904
0,-2114.1,-1176.25,-2118.28,-2538.54,5.53007572230592
0,-2117.72,-1188.29,-2128.7,-2546.5,5.535075790770936
0,-2117.64,-1184.15,-2125.11,-2541.39,5.540075859235952
0,-2124.86,-1198.06,-2132.95,-2546.45,5.54507592770096
0,-2120.52,-1189.7,-2126.72,-2540.9,5.550075996165976
0,-2116.91,-1180.6,-2124.18,-2539.22,5.555076064630992
0,-2123.38,-1188.6,-2129.68,-2544.3,5.560076133096008
0,-2120.19,-1189.44,-2123.7,-2544.95,5.565076201561023
0,-2124.92,-1183.99,-2130.73,-2537.69,5.570076270026032
0,-2119.49,-1180.87,-2130.62,-2538.44,5.575076338491048
0,-2122.15,-1184.37,-2125.96,-2537.24,5.5800764069560636
0,-2118.68,-1183.58,-2123.15,-2534.88,5.585076475421079
0,-2110.09,-1178.24,-2115.97,-2533.24,5.590076543886095
0,-2112.9,-1178.8,-2118.57,-2535.26,5.595076612351104
0,-2111.86,-1175.22,-2114.81,-2533.02,5.6000766808161195
0,-2117.49,-1171.43,-2116.44,-2533.12,5.605076749281135
0,-2115.63,-1177.43,-2115.95,-2524.85,5.610076817746151
0,-2120.66,-1183.7,-2123.68,-2540.13,5.615076886211167
0,-2117.71,-1191.25,-2127.46,-2543.44,5.6200769546761755
0,-2110.87,-1184.96,-2125.68,-2536.35,5.625077023141191
0,-2117.13,-1176.77,-2121.33,-2538.66,5.630077091606207
0,-2112.26,-1179.7,-2119.66,-2534.76,5.635077160071223
0,-2114.37,-1169.92,-2110.96,-2531.17,5.640077228536239
0,-2107.61,-1175.86,-2114.33,-2533.63,5.645077297001247
0,-2108.53,-1180.24,-2115.93,-2534.83,5.650077365466263
0,-2116.04,-1182.23,-2122.76,-2535.09,5.655077433931279
0,-2116.74,-1181.15,-2118.98,-2533.58,5.660077502396295
0,-2119.34,-1176.73,-2122.22,-2527.22,5.66507757086131
0,-2120.67,-1178.33,-2128.05,-2533.2,5.670077639326326
0,-2120.36,-1183.47,-2124.87,-2535.81,5.675077707791335
0,-2118.6,-1176.89,-2124.69,-2533.29,5.680077776256351
0,-2113.3,-1166.5,-2121.96,-2530.27,5.685077844721366
0,-2115.17,-1178.53,-2117.05,-2527.26,5.690077913186382
0,-2113.13,-1185.45,-2118.78,-2533.86,5.695077981651398
0,-2115.68,-1182.6,-2123.84,-2535.05,5.700078050116407
0,-2116.37,-1182.66,-2122.97,-2534.59,5.705078118581422
0,-2125.27,-1182.97,-2125.24,-2533.37,5.710078187046438
0,-2124.2,-1182.09,-2121.49,-2535.96,5.715078255511454
0,-2117.91,-1184.78,-2124.28,-2539.58,5.72007832397647
0,-2108.25,-1176.41,-2120.9,-2526.11,5.725078392441478
0,-2120.24,-1183.26,-2125.62,-2530.06,5.730078460906494
0,-2120.96,-1184.01,-2118.66,-2531.14,5.73507852937151
0,-2113.68,-1167.25,-2118.85,-2532.93,5.740078597836526
0,-2122.79,-1177.5,-2121.89,-2530.98,5.745078666301541
0,-2116.76,-1181.62,-2118.96,-2533.78,5.75007873476655
0,-2117.63,-1176.44,-2111.07,-2530.12,5.755078803231566
0,-2115.4,-1174.25,-2122.85,-2533.79,5.760078871696582
0,-2113.07,-1175.5,-2120.63,-2530.82,5.765078940161597
0,-2114.02,-1180.56,-2119.36,-2536.03,5.770079008626613
0,-2109.42,-1172.66,-2117.51,-2528.87,5.775079077091622
0,-2114.75,-1176.85,-2115.67,-2528.52,5.780079145556638
0,-2118.73,-1177.9,-2122.05,-2531.81,5.785079214021653
0,-2115.57,-1179.78,-2116.9,-2531.64,5.790079282486669
0,-2111.45,-1179.64,-2117.26,-2531.19,5.795079350951685
0,-2111.85,-1181.22,-2115.81,-2528.7,5.800079419416694
0,-2107.45,-1178.15,-2112.04,-2530.93,5.805079487881709
0,-2105.43,-1168.78,-2107.92,-2526.29,5.810079556346725
0,-2113.83,-1178.11,-2125.78,-2532.62,5.815079624811741
0,-2118.04,-1182.45,-2117.1,-2533.87,5.820079693276757
0,-2110.5,-1178.28,-2117.52,-2528.12,5.825079761741772
0,-2111.31,-1180.32,-2124.05,-2537.0,5.830079830206781
0,-2115.04,-1187.4,-2125.24,-2536.72,5.835079898671797
0,-2116.36,-1184.24,-2126.4,-2535.21,5.840079967136813
0,-2119.22,-1174.6,-2122.57,-2530.0,5.845080035601828
0,-2113.48,-1180.28,-2122.01,-2533.94,5.850080104066844
0,-2112.51,-1180.63,-2127.18,-2533.73,5.855080172531853
0,-2108.13,-1172.45,-2113.8,-2528.08,5.860080240996869
0,-2115.96,-1176.01,-2119.97,-2528.26,5.865080309461884
0,-2117.42,-1191.89,-2127.84,-2537.56,5.8700803779269
0,-2122.79,-1190.71,-2132.36,-2543.06,5.875080446391916
0,-2125.37,-1191.79,-2133.51,-2543.53,5.880080514856925
0,-2123.76,-1186.59,-2136.28,-2539.12,5.88508058332194
0,-2117.07,-1186.02,-2128.04,-2535.2,5.890080651786956
0,-2113.95,-1176.2,-2117.9,-2531.17,5.895080720251972
0,-2119.84,-1181.21,-2125.3,-2531.39,5.900080788716988
0,-2115.59,-1185.65,-2126.76,-2539.72,5.905080857181996
0,-2119.71,-1185.08,-2128.77,-2539.09,5.910080925647012
0,-2122.16,-1189.78,-2125.59,-2538.87,5.915080994112028
0,-2119.92,-1188.21,-2124.55,-2536.08,5.920081062577044
0,-2122.45,-1181.39,-2127.79,-2538.69,5.9250811310420595
0,-2120.81,-1178.09,-2118.71,-2535.64,5.930081199507068
0,-2114.97,-1179.76,-2117.96,-2534.69,5.935081267972084
0,-2115.81,-1184.65,-2126.42,-2540.54,5.9400813364371
0,-2117.62,-1185.1,-2122.63,-2539.29,5.9450814049021155
0,-2120.41,-1190.13,-2135.34,-2540.58,5.950081473367131
0,-2120.24,-1182.95,-2125.75,-2537.02,5.95508154183214
0,-2113.79,-1171.71,-2126.1,-2535.76,5.960081610297156
0,-2114.2,-1182.23,-2115.78,-2541.86,5.965081678762171
0,-2115.24,-1180.96,-2120.34,-2544.24,5.970081747227187
0,-2112.59,-1182.88,-2120.68,-2543.19,5.975081815692203
0,-2109.75,-1185.31,-2118.96,-2536.1,5.980081884157219
0,-2114.97,-1178.53,-2123.42,-2537.82,5.985081952622227
0,-2120.59,-1184.79,-2127.71,-2541.27,5.990082021087243
0,-2112.45,-1173.54,-2116.66,-2534.09,5.995082089552259
0,-2105.72,-1170.3,-2114.4,-2518.23,6.000082158017275
0,-2107.1,-1172.96,-2112.1,-2527.85,6.0050822264822905
0,-2112.0,-1174.09,-2122.25,-2538.69,6.010082294947299
0,-2116.18,-1170.77,-2124.17,-2540.15,6.015082363412315
0,-2108.94,-1179.95,-2126.69,-2537.29,6.020082431877331
0,-2114.4,-1178.32,-2120.11,-2534.64,6.0250825003423465
0,-2115.76,-1177.04,-2125.9,-2540.26,6.030082568807362
0,-2115.84,-1182.64,-2133.71,-2540.31,6.035082637272371
0,-2117.42,-1189.85,-2128.68,-2538.36,6.040082705737387
0,-2124.6,-1188.53,-2132.15,-2540.26,6.0450827742024025
0,-2126.7,-1194.3,-2133.25,-2544.42,6.050082842667418
0,-2118.02,-1189.92,-2128.47,-2539.29,6.055082911132434
0,-2117.79,-1179.5,-2122.82,-2541.82,6.060082979597443
0,-2123.25,-1186.35,-2125.18,-2540.94,6.0650830480624585
0,-2117.84,-1178.43,-2119.4,-2537.56,6.070083116527474
0,-2116.4,-1176.81,-2113.94,-2530.07,6.07508318499249
0,-2107.01,-1178.52,-2114.87,-2527.56,6.080083253457506
0,-2112.51,-1185.38,-2118.45,-2535.01,6.085083321922514
0,-2109.96,-1185.49,-2121.16,-2532.81,6.09008339038753
0,-2115.71,-1187.41,-2131.23,-2535.54,6.095083458852546
0,-2121.16,-1187.11,-2121.68,-2535.03,6.100083527317562
0,-2112.91,-1175.39,-2117.81,-2527.04,6.1050835957825775
0,-2116.51,-1175.21,-2116.25,-2529.71,6.110083664247586
0,-2116.66,-1182.79,-2120.43,-2532.95,6.115083732712602
0,-2116.78,-1177.71,-2115.35,-2528.46,6.120083801177618
0,-2111.56,-1173.84,-2116.51,-2529.13,6.1250838696426335
0,-2105.28,-1167.45,-2113.28,-2525.4,6.130083938107649
0,-2102.69,-1173.19,-2109.18,-2529.03,6.135084006572658
0,-2103.49,-1174.13,-2108.95,-2525.9,6.140084075037674
0,-2104.89,-1175.31,-2112.57,-2531.81,6.1450841435026895
0,-2106.77,-1174.13,-2112.96,-2531.81,6.150084211967705
0,-2109.41,-1174.79,-2115.96,-2530.2,6.155084280432721
0,-2110.59,-1181.73,-2112.11,-2533.03,6.160084348897737
0,-2116.15,-1183.47,-2121.21,-2535.59,6.1650844173627455
0,-2120.15,-1180.8,-2129.01,-2532.9,6.170084485827761
0,-2122.44,-1180.15,-2124.37,-2537.73,6.175084554292777
0,-2118.33,-1178.56,-2120.18,-2535.08,6.180084622757793
0,-2119.7,-1185.22,-2124.57,-2534.58,6.185084691222809
0,-2116.8,-1183.55,-2126.98,-2533.3,6.190084759687817
0,-2112.82,-1185.95,-2116.5,-2536.92,6.195084828152833
0,-2124.28,-1187.87,-2129.22,-2540.91,6.200084896617849
0,-2122.05,-1181.2,-2127.2,-2542.55,6.205084965082865
0,-2116.61,-1177.42,-2126.68,-2539.48,6.21008503354788
0,-2110.7,-1175.79,-2124.45,-2538.14,6.215085102012889
0,-2123.84,-1188.21,-2131.62,-2546.44,6.220085170477905
0,-2121.16,-1186.9,-2131.6,-2540.24,6.2250852389429205
0,-2116.42,-1175.47,-2126.94,-2537.93,6.230085307407936
0,-2120.09,-1181.03,-2126.73,-2541.31,6.235085375872952
0,-2116.36,-1175.63,-2120.13,-2532.99,6.240085444337961
0,-2118.58,-1183.9,-2120.23,-2531.01,6.2450855128029765
0,-2116.47,-1182.53,-2123.23,-2537.66,6.250085581267992
0,-2118.97,-1187.67,-2120.87,-2535.61,6.255085649733008
0,-2118.56,-1178.95,-2126.25,-2535.52,6.260085718198024
0,-2122.56,-1179.99,-2123.4,-2535.75,6.2650857866630325
0,-2125.35,-1184.33,-2126.57,-2539.35,6.270085855128048
0,-2123.97,-1186.68,-2130.97,-2540.76,6.275085923593064
0,-2114.79,-1183.26,-2123.81,-2532.72,6.28008599205808
0,-2115.59,-1178.57,-2122.68,-2528.54,6.285086060523096
0,-2114.56,-1174.94,-2116.41,-2543.22,6.290086128988104
0,-2116.66,-1182.39,-2119.43,-2545.58,6.29508619745312
0,-2105.06,-1178.18,-2116.01,-2533.77,6.300086265918136
0,-2112.15,-1185.71,-2121.91,-2533.33,6.305086334383152
0,-2103.94,-1168.89,-2110.42,-2527.23,6.310086402848167
0,-2104.91,-1169.8,-2110.28,-2532.18,6.315086471313183
0,-2105.37,-1174.92,-2113.43,-2532.83,6.320086539778192
0,-2105.83,-1175.09,-2116.41,-2532.11,6.325086608243208
0,-2113.27,-1177.89,-2120.95,-2533.29,6.330086676708223
0,-2110.88,-1171.64,-2115.24,-2534.28,6.335086745173239
0,-2110.06,-1172.44,-2111.76,-2524.18,6.340086813638255
0,-2107.76,-1170.45,-2117.05,-2530.18,6.3450868821032635
0,-2112.36,-1183.34,-2119.53,-2529.86,6.350086950568279
0,-2106.65,-1189.02,-2120.16,-2532.68,6.355087019033295
0,-2113.92,-1177.34,-2121.06,-2531.17,6.360087087498311
0,-2115.0,-1179.72,-2128.04,-2542.55,6.365087155963327
0,-2117.67,-1183.14,-2125.71,-2536.46,6.370087224428335
0,-2113.29,-1171.93,-2118.85,-2536.58,6.375087292893351
0,-2118.28,-1191.48,-2122.65,-2537.6,6.380087361358367
0,-2116.33,-1184.73,-2122.8,-2536.16,6.385087429823383
0,-2114.11,-1169.55,-2117.14,-2527.41,6.390087498288398
0,-2113.19,-1177.73,-2113.25,-2533.21,6.395087566753407
0,-2112.68,-1175.0,-2116.3,-2525.13,6.400087635218423
0,-2114.39,-1172.38,-2115.42,-2527.9,6.405087703683439
0,-2114.19,-1167.22,-2111.02,-2529.62,6.410087772148454
0,-2113.74,-1164.13,-2104.1,-2529.1,6.41508784061347
0,-2122.11,-1169.9,-2115.34,-2532.07,6.420087909078479
0,-2119.64,-1184.87,-2122.92,-2536.79,6.425087977543495
0,-2124.37,-1197.59,-2130.19,-2538.0,6.43008804600851
0,-2126.75,-1187.81,-2128.1,-2541.14,6.435088114473526
0,-2119.38,-1180.47,-2123.38,-2531.8,6.440088182938542
0,-2116.51,-1180.6,-2128.32,-2537.43,6.445088251403551
0,-2114.46,-1177.01,-2124.21,-2538.6,6.450088319868566
0,-2113.45,-1185.54,-2120.64,-2535.39,6.455088388333582
0,-2117.47,-1184.51,-2123.27,-2532.22,6.460088456798598
0,-2119.48,-1181.53,-2125.73,-2542.34,6.465088525263614
0,-2112.69,-1175.67,-2117.29,-2534.8,6.470088593728629
0,-2112.97,-1181.39,-2120.51,-2532.66,6.475088662193638
0,-2111.77,-1181.91,-2125.22,-2534.29,6.480088730658654
0,-2112.91,-1178.39,-2125.73,-2535.77,6.48508879912367
0,-2107.48,-1172.34,-2110.23,-2525.28,6.490088867588685
0,-2108.55,-1173.5,-2123.05,-2530.85,6.495088936053701
0,-2118.73,-1178.9,-2124.21,-2537.01,6.50008900451871
0,-2113.15,-1180.54,-2122.49,-2533.57,6.505089072983726
0,-2111.71,-1183.42,-2128.5,-2531.02,6.510089141448741
0,-2115.19,-1182.14,-2124.07,-2536.25,6.515089209913757
0,-2114.65,-1179.49,-2122.41,-2535.25,6.520089278378773
0,-2107.37,-1173.69,-2120.82,-2530.58,6.525089346843782
0,-2107.9,-1171.32,-2116.49,-2529.17,6.530089415308797
0,-2105.08,-1172.95,-2117.32,-2532.34,6.535089483773813
0,-2112.61,-1185.97,-2120.35,-2535.44,6.540089552238829
0,-2116.6,-1189.65,-2131.08,-2535.27,6.545089620703845
0,-2121.07,-1188.42,-2127.9,-2540.85,6.550089689168853
0,-2122.95,-1183.62,-2125.8,-2537.51,6.555089757633869
0,-2119.56,-1186.44,-2127.2,-2536.43,6.560089826098885
0,-2117.8,-1177.28,-2121.4,-2539.39,6.565089894563901
0,-2118.99,-1180.44,-2120.38,-2539.7,6.5700899630289165
0,-2118.33,-1185.67,-2118.72,-2540.63,6.575090031493925
0,-2116.71,-1176.22,-2123.23,-2540.12,6.580090099958941
0,-2123.15,-1188.1,-2128.25,-2543.15,6.585090168423957
0,-2121.66,-1190.57,-2130.17,-2546.32,6.590090236888972
0,-2127.06,-1186.25,-2133.14,-2543.76,6.595090305353988
0,-2124.12,-1201.37,-2130.75,-2548.88,6.600090373818997
0,-2118.69,-1185.41,-2120.67,-2537.92,6.605090442284013
0,-2116.77,-1180.84,-2122.03,-2537.14,6.610090510749028
0,-2118.16,-1182.79,-2128.08,-2536.16,6.615090579214044
0,-2121.55,-1187.42,-2134.61,-2543.15,6.62009064767906
0,-2117.42,-1183.95,-2119.07,-2538.54,6.625090716144069
0,-2118.17,-1176.04,-2122.96,-2538.08,6.630090784609084
0,-2116.09,-1179.76,-2121.69,-2536.13,6.6350908530741
0,-2109.85,-1174.04,-2114.92,-2532.85,6.640090921539116
0,-2112.11,-1172.09,-2121.49,-2529.86,6.645090990004132
0,-2111.21,-1177.46,-2124.08,-2532.29,6.6500910584691475
0,-2106.54,-1176.16,-2121.51,-2533.38,6.655091126934156
0,-2110.84,-1173.97,-2118.27,-2535.41,6.660091195399172
0,-2113.26,-1168.44,-2110.43,-2532.03,6.665091263864188
0,-2114.07,-1175.02,-2116.45,-2530.49,6.6700913323292035
0,-2120.39,-1181.86,-2121.68,-2543.2,6.675091400794219
0,-2114.27,-1181.38,-2117.81,-2538.62,6.680091469259228
0,-2123.88,-1180.36,-2125.74,-2542.49,6.685091537724244
0,-2120.3,-1186.09,-2125.7,-2538.3,6.6900916061892595
0,-2124.73,-1188.37,-2125.97,-2541.37,6.695091674654275
0,-2131.31,-1199.98,-2136.0,-2544.49,6.700091743119291
0,-2128.6,-1196.51,-2131.63,-2544.64,6.7050918115843
0,-2123.14,-1188.29,-2128.84,-2543.64,6.7100918800493154
0,-2130.16,-1196.41,-2134.49,-2546.65,6.715091948514331
0,-2129.76,-1188.91,-2129.34,-2545.84,6.720092016979347
0,-2120.96,-1183.95,-2131.53,-2536.22,6.725092085444363
0,-2115.67,-1182.23,-2124.51,-2539.43,6.730092153909371
0,-2116.59,-1184.1,-2124.18,-2537.77,6.735092222374387
0,-2115.92,-1186.29,-2127.27,-2539.33,6.740092290839403
0,-2109.31,-1176.57,-2119.25,-2537.4,6.745092359304419
0,-2115.26,-1181.05,-2119.05,-2535.7,6.7500924277694345
0,-2116.89,-1175.37,-2115.86,-2526.97,6.755092496234443
0,-2110.66,-1180.67,-2118.57,-2527.99,6.760092564699459
0,-2108.88,-1178.73,-2115.25,-2525.55,6.765092633164475
0,-2103.63,-1160.55,-2108.46,-2524.88,6.7700927016294905
0,-2113.11,-1157.9,-2117.26,-2532.88,6.775092770094506
0,-2108.78,-1167.93,-2108.19,-2528.28,6.780092838559515
0,-2112.1,-1174.3,-2119.4,-2530.57,6.785092907024531
0,-2116.75,-1188.26,-2123.31,-2526.2,6.7900929754895465
0,-2112.06,-1189.83,-2123.65,-2536.23,6.795093043954562
0,-2123.16,-1189.42,-2123.9,-2536.82,6.800093112419578
0,-2120.26,-1189.65,-2127.76,-2536.05,6.805093180884594
0,-2122.79,-1196.27,-2131.21,-2540.19,6.8100932493496025
0,-2123.8,-1182.8,-2129.7,-2538.69,6.815093317814618
0,-2126.23,-1188.3,-2132.18,-2539.89,6.820093386279634
0,-2119.71,-1187.14,-2123.67,-2535.24,6.82509345474465
0,-2118.82,-1187.22,-2120.68,-2535.55,6.830093523209666
0,-2123.01,-1185.81,-2125.09,-2542.29,6.835093591674674
0,-2123.6,-1188.47,-2128.93,-2536.43,6.84009366013969
0,-2120.51,-1191.97,-2122.6,-2535.9,6.845093728604706
0,-2119.03,-1188.36,-2128.63,-2534.83,6.8500937970697215
0,-2106.84,-1179.41,-2116.63,-2532.58,6.855093865534737
0,-2115.6,-1174.59,-2113.13,-2532.87,6.860093933999746
0,-2114.23,-1168.37,-2118.46,-2526.28,6.865094002464762
0,-2115.51,-1179.57,-2120.33,-2530.5,6.8700940709297775
0,-2115.19,-1180.14,-2125.21,-2535.74,6.875094139394793
0,-2122.5,-1185.09,-2123.24,-2540.18,6.880094207859809
0,-2119.83,-1188.2,-2121.43,-2534.33,6.885094276324818
0,-2116.58,-1187.79,-2128.41,-2543.28,6.8900943447898335
0,-2116.53,-1187.34,-2129.14,-2545.24,6.895094413254849
0,-2121.5,-1188.76,-2130.12,-2546.81,6.900094481719865
0,-2120.88,-1186.6,-2131.69,-2547.08,6.905094550184881
0,-2118.2,-1179.1,-2120.94,-2545.93,6.9100946186498895
0,-2113.56,-1178.06,-2122.97,-2538.35,6.915094687114905
0,-2115.74,-1167.41,-2118.29,-2536.02,6.920094755579921
0,-2114.36,-1177.71,-2122.35,-2532.85,6.925094824044937
0,-2122.01,-1180.4,-2124.42,-2537.71,6.930094892509953
0,-2119.97,-1188.25,-2131.89,-2544.78,6.935094960974961
0,-2122.92,-1187.36,-2130.3,-2536.68,6.940095029439977
0,-2124.18,-1182.95,-2133.04,-2536.61,6.945095097904993
0,-2125.34,-1180.78,-2130.25,-2535.53,6.950095166370009
0,-2122.2,-1181.4,-2117.97,-2534.65,6.955095234835024
0,-2122.51,-1182.29,-2128.49,-2538.6,6.96009530330004
0,-2128.07,-1188.54,-2131.24,-2536.84,6.965095371765049
0,-2123.47,-1193.78,-2133.28,-2537.23,6.9700954402300646
0,-2122.06,-1184.45,-2131.43,-2547.59,6.97509550869508
0,-2119.74,-1178.82,-2126.42,-2539.55,6.980095577160096
0,-2118.49,-1180.72,-2125.38,-2538.22,6.985095645625112
0,-2121.48,-1180.62,-2123.42,-2544.85,6.9900957140901205
0,-2116.23,-1179.87,-2122.97,-2541.81,6.995095782555136
0,-2114.86,-1183.12,-2120.98,-2544.93,7.000095851020152
0,-2114.94,-1188.84,-2128.69,-2544.97,7.005095919485168
0,-2114.0,-1184.32,-2123.38,-2534.31,7.010095987950184
0,-2117.94,-1181.62,-2122.74,-2537.78,7.015096056415192
0,-2110.89,-1175.5,-2122.32,-2539.07,7.020096124880208
0,-2109.4,-1181.67,-2115.64,-2537.09,7.025096193345224
0,-2112.06,-1175.67,-2118.59,-2534.21,7.03009626181024
0,-2111.16,-1173.54,-2113.64,-2535.83,7.035096330275255
0,-2111.51,-1175.33,-2116.33,-2538.39,7.040096398740264
0,-2115.09,-1184.73,-2122.88,-2533.83,7.04509646720528
0,-2112.2,-1191.98,-2125.66,-2537.65,7.050096535670296
0,-2123.23,-1185.53,-2125.6,-2545.65,7.055096604135311
0,-2116.54,-1182.12,-2124.04,-2545.6,7.060096672600327
0,-2113.9,-1182.01,-2119.57,-2540.12,7.065096741065336
0,-2111.97,-1184.58,-2127.71,-2540.35,7.070096809530352
0,-2119.44,-1182.42,-2125.8,-2535.84,7.075096877995367
0,-2122.39,-1184.69,-2127.68,-2538.83,7.080096946460383
0,-2114.69,-1171.85,-2115.8,-2533.29,7.085097014925399
0,-2108.1,-1170.28,-2115.99,-2534.36,7.090097083390408
0,-2105.0,-1174.68,-2112.42,-2528.36,7.095097151855423
0,-2103.85,-1177.49,-2112.43,-2528.97,7.100097220320439
0,-2113.99,-1192.28,-2130.33,-2536.01,7.105097288785455
0,-2118.05,-1196.84,-2134.67,-2540.75,7.110097357250471
0,-2121.56,-1198.08,-2138.4,-2541.72,7.115097425715479
0,-2121.35,-1190.97,-2135.12,-2537.46,7.120097494180495
0,-2117.73,-1185.03,-2125.35,-2531.15,7.125097562645511
0,-2125.5,-1184.19,-2125.03,-2536.88,7.130097631110527
0,-2119.75,-1189.17,-2126.6,-2535.35,7.135097699575542
0,-2116.74,-1180.58,-2121.97,-2532.36,7.140097768040558
0,-2113.98,-1175.77,-2120.49,-2530.57,7.145097836505567
0,-2115.7,-1178.64,-2122.57,-2536.01,7.150097904970583
0,-2117.75,-1181.42,-2121.11,-2533.21,7.155097973435598
0,-2115.55,-1179.11,-2118.66,-2533.27,7.160098041900614
0,-2111.26,-1174.84,-2124.64,-2534.9,7.16509811036563
0,-2111.95,-1170.21,-2119.24,-2533.05,7.170098178830639
0,-2109.89,-1173.98,-2115.43,-2531.28,7.175098247295654
0,-2110.53,-1177.53,-2116.13,-2527.18,7.18009831576067
0,-2110.77,-1173.55,-2112.37,-2531.32,7.185098384225686
0,-2111.2,-1184.3,-2122.09,-2529.13,7.190098452690702
0,-2115.31,-1190.44,-2121.02,-2536.86,7.19509852115571
0,-2117.0,-1185.62,-2129.69,-2538.21,7.200098589620726
0,-2114.01,-1181.31,-2124.27,-2534.18,7.205098658085742
0,-2119.41,-1177.72,-2127.63,-2532.33,7.210098726550758
0,-2121.95,-1178.43,-2124.34,-2532.9,7.2150987950157734
0,-2120.98,-1185.79,-2121.38,-2532.61,7.220098863480782
0,-2119.09,-1179.21,-2121.74,-2542.71,7.225098931945798
0,-2123.67,-1175.74,-2125.21,-2541.47,7.230099000410814
0,-2117.88,-1187.72,-2127.67,-2537.29,7.235099068875829
0,-2114.95,-1177.02,-2122.7,-2535.67,7.240099137340845
0,-2110.59,-1178.17,-2118.14,-2532.27,7.245099205805854
0,-2112.07,-1172.88,-2118.69,-2531.99,7.25009927427087
0,-2113.97,-1179.05,-2123.36,-2535.32,7.255099342735885
0,-2113.01,-1174.24,-2119.11,-2533.69,7.260099411200901
0,-2121.12,-1175.68,-2121.59,-2534.72,7.265099479665917
0,-2119.95,-1185.3,-2121.4,-2536.83,7.270099548130926
0,-2116.43,-1181.65,-2123.53,-2537.94,7.275099616595941
0,-2125.14,-1182.18,-2125.9,-2541.97,7.280099685060957
0,-2126.03,-1183.48,-2126.51,-2541.67,7.285099753525973
0,-2120.04,-1177.06,-2130.42,-2541.35,7.290099821990989
0,-2114.98,-1176.98,-2120.1,-2541.54,7.2950998904560045
0,-2120.68,-1184.23,-2125.42,-2545.12,7.300099958921013
0,-2116.54,-1181.2,-2125.25,-2536.47,7.305100027386029
0,-2114.46,-1181.48,-2115.47,-2531.77,7.310100095851045
0,-2117.16,-1183.29,-2120.2,-2539.51,7.3151001643160605
0,-2119.38,-1179.89,-2120.42,-2535.17,7.320100232781076
0,-2116.23,-1178.32,-2123.09,-2535.67,7.325100301246085
0,-2113.09,-1183.37,-2119.9,-2531.56,7.330100369711101
0,-2115.59,-1182.09,-2120.06,-2532.92,7.3351004381761165
0,-2113.85,-1172.13,-2119.39,-2531.79,7.340100506641132
0,-2117.98,-1176.61,-2124.84,-2535.34,7.345100575106148
0,-2112.66,-1176.38,-2120.49,-2532.63,7.350100643571157
0,-2111.63,-1170.15,-2114.11,-2526.36,7.355100712036172
0,-2112.62,-1163.75,-2108.7,-2522.89,7.360100780501188
0,-2113.44,-1180.75,-2117.1,-2521.39,7.365100848966204
0,-2113.95,-1183.38,-2118.62,-2529.94,7.37010091743122
0,-2112.4,-1171.55,-2114.48,-2525.88,7.375100985896228
0,-2117.46,-1171.82,-2111.33,-2530.28,7.380101054361244
0,-2113.93,-1171.33,-2111.17,-2531.8,7.38510112282626
0,-2113.6,-1179.29,-2121.45,-2536.69,7.390101191291276
0,-2118.02,-1181.3,-2119.73,-2542.22,7.3951012597562915
0,-2122.28,-1183.17,-2126.0,-2537.63,7.4001013282213
0,-2118.5,-1186.64,-2124.58,-2542.02,7.405101396686316
0,-2120.45,-1183.1,-2127.98,-2543.45,7.410101465151332
0,-2118.0,-1186.88,-2124.71,-2543.36,7.4151015336163475
0,-2116.16,-1173.34,-2121.19,-2534.2,7.420101602081363
0,-2113.46,-1181.65,-2123.66,-2532.59,7.425101670546372
0,-2123.55,-1182.28,-2127.79,-2531.02,7.430101739011388
0,-2114.39,-1184.03,-2126.09,-2532.3,7.4351018074764035
0,-2118.52,-1180.75,-2122.54,-2538.75,7.440101875941419
0,-2117.09,-1182.69,-2122.59,-2546.08,7.445101944406435
0,-2123.48,-1180.91,-2129.9,-2548.33,7.450102012871451
0,-2119.15,-1184.6,-2127.11,-2547.58,7.4551020813364595
0,-2123.29,-1188.77,-2122.42,-2541.33,7.460102149801475
0,-2120.32,-1182.39,-2128.72,-2547.03,7.465102218266491
0,-2120.04,-1188.92,-2132.87,-2545.85,7.470102286731507
0,-2114.86,-1177.76,-2123.95,-2537.45,7.4751023551965226
0,-2115.39,-1184.17,-2124.81,-2530.35,7.480102423661531
0,-2117.79,-1184.68,-2123.23,-2538.2,7.485102492126547
0,-2118.67,-1177.24,-2120.25,-2539.42,7.490102560591563
0,-2117.34,-1182.57,-2125.93,-2535.92,7.4951026290565785
0,-2121.51,-1183.21,-2123.05,-2528.15,7.500102697521594
0,-2110.61,-1167.19,-2115.7,-2531.08,7.505102765986603
0,-2115.17,-1180.77,-2117.03,-2538.08,7.510102834451619
0,-2120.84,-1179.76,-2122.51,-2540.61,7.5151029029166345
0,-2116.74,-1167.97,-2122.54,-2532.01,7.52010297138165
0,-2114.93,-1174.17,-2118.75,-2536.93,7.525103039846666
0,-2109.11,-1176.96,-2120.87,-2535.47,7.530103108311675
0,-2113.67,-1178.9,-2122.35,-2542.18,7.5351031767766905
0,-2111.52,-1178.92,-2113.0,-2532.63,7.540103245241706
0,-2117.75,-1177.77,-2122.74,-2537.98,7.545103313706722
0,-2120.67,-1180.45,-2125.78,-2538.29,7.550103382171738
0,-2115.47,-1177.26,-2118.57,-2534.31,7.5551034506367465
0,-2112.16,-1184.63,-2124.83,-2535.04,7.560103519101762
0,-2113.47,-1177.55,-2127.63,-2533.78,7.565103587566778
0,-2115.78,-1190.06,-2120.76,-2532.21,7.570103656031794
0,-2121.71,-1186.38,-2123.05,-2532.08,7.57510372449681
0,-2121.79,-1186.54,-2129.52,-2538.14,7.580103792961818
0,-2125.95,-1198.06,-2134.4,-2542.54,7.585103861426834
0,-2129.33,-1204.62,-2134.8,-2547.2,7.59010392989185
0,-2125.66,-1195.81,-2129.73,-2539.69,7.595103998356866
0,-2123.68,-1186.2,-2130.15,-2540.91,7.600104066821881
0,-2120.31,-1186.02,-2119.19,-2533.24,7.60510413528689
0,-2119.16,-1184.68,-2122.15,-2538.3,7.610104203751906
0,-2114.16,-1171.8,-2123.16,-2533.7,7.6151042722169215
0,-2110.5,-1178.55,-2116.14,-2530.65,7.620104340681937
0,-2106.27,-1177.37,-2115.32,-2524.88,7.625104409146953
0,-2111.08,-1170.36,-2110.1,-2527.94,7.630104477611969
0,-2114.66,-1175.54,-2120.74,-2530.03,7.6351045460769775
0,-2113.43,-1176.28,-2117.68,-2533.57,7.640104614541993
0,-2108.88,-1170.79,-2114.39,-2529.95,7.645104683007009
0,-2109.31,-1175.92,-2113.76,-2525.03,7.650104751472025
0,-2108.69,-1175.89,-2109.31,-2520.34,7.655104819937041
0,-2113.5,-1186.23,-2119.22,-2518.79,7.660104888402049
0,-2117.76,-1186.14,-2128.71,-2540.48,7.665104956867065
0,-2113.11,-1194.42,-2126.44,-2548.32,7.670105025332081
0,-2116.45,-1186.34,-2126.58,-2542.26,7.675105093797097
0,-2109.38,-1180.34,-2123.51,-2539.32,7.680105162262112
0,-2103.97,-1181.92,-2114.55,-2534.89,7.685105230727121
0,-2101.45,-1182.38,-2121.27,-2536.67,7.690105299192137
0,-2109.61,-1175.87,-2122.2,-2540.71,7.695105367657153
0,-2113.99,-1181.11,-2123.3,-2537.53,7.700105436122168
0,-2115.16,-1183.45,-2124.44,-2538.94,7.705105504587184
0,-2109.35,-1180.33,-2122.72,-2537.77,7.710105573052193
0,-2122.13,-1183.07,-2131.58,-2549.12,7.715105641517209
0,-2106.12,-1181.71,-2126.82,-2542.74,7.720105709982224
0,-2109.14,-1173.05,-2118.89,-2536.29,7.72510577844724
0,-2114.79,-1186.63,-2120.27,-2531.84,7.730105846912256
0,-2113.67,-1180.92,-2114.76,-2538.35,7.7351059153772646
0,-2112.67,-1179.79,-2121.02,-2540.2,7.74010598384228
0,-2115.58,-1182.43,-2122.61,-2539.23,7.745106052307296
0,-2123.81,-1186.07,-2129.02,-2539.34,7.750106120772312
0,-2114.93,-1185.48,-2127.06,-2538.43,7.755106189237328
0,-2115.29,-1181.6,-2122.34,-2539.87,7.760106257702336
0,-2109.62,-1173.57,-2119.9,-2537.34,7.765106326167352
0,-2108.46,-1165.27,-2113.47,-2533.78,7.770106394632368
0,-2106.74,-1187.04,-2118.62,-2538.18,7.775106463097384
0,-2108.23,-1180.61,-2117.45,-2532.15,7.780106531562399
0,-2116.34,-1178.92,-2118.29,-2530.68,7.785106600027415
0,-2107.46,-1174.29,-2116.34,-2534.05,7.790106668492424
0,-2114.76,-1179.22,-2121.22,-2535.35,7.79510673695744
0,-2118.33,-1178.17,-2119.49,-2533.69,7.800106805422455
0,-2113.11,-1185.05,-2117.81,-2525.53,7.805106873887471
0,-2118.98,-1184.54,-2122.94,-2528.52,7.810106942352487
0,-2116.61,-1185.87,-2128.12,-2533.35,7.815107010817496
0,-2112.93,-1181.01,-2118.35,-2533.45,7.820107079282511
0,-2118.2,-1189.43,-2121.91,-2534.51,7.825107147747527
0,-2122.08,-1189.62,-2130.7,-2538.78,7.830107216212543
0,-2125.88,-1181.33,-2126.06,-2541.77,7.835107284677559
0,-2122.98,-1187.24,-2129.36,-2537.4,7.840107353142567
0,-2124.19,-1186.77,-2133.9,-2540.94,7.845107421607583
0,-2115.44,-1186.45,-2125.71,-2532.68,7.850107490072599
0,-2109.5,-1182.13,-2121.74,-2532.9,7.855107558537615
0,-2112.22,-1174.25,-2114.7,-2524.65,7.86010762700263
0,-2122.13,-1184.48,-2122.99,-2537.09,7.865107695467639
0,-2117.75,-1178.68,-2123.89,-2539.53,7.870107763932655
0,-2116.6,-1180.33,-2119.94,-2539.05,7.875107832397671
0,-2118.42,-1174.6,-2122.19,-2533.94,7.880107900862686
0,-2116.94,-1173.77,-2115.78,-2537.1,7.885107969327702
0,-2119.26,-1175.33,-2123.11,-2536.32,7.890108037792711
0,-2118.34,-1174.65,-2118.55,-2536.59,7.895108106257727
0,-2116.13,-1180.85,-2130.62,-2534.58,7.900108174722742
0,-2118.82,-1186.09,-2131.52,-2534.52,7.905108243187758
0,-2122.77,-1184.85,-2128.49,-2538.74,7.910108311652774
0,-2121.71,-1190.83,-2129.69,-2538.0,7.915108380117783
0,-2126.51,-1184.09,-2126.73,-2533.6,7.920108448582798
0,-2122.37,-1181.99,-2123.16,-2537.27,7.925108517047814
0,-2119.54,-1184.42,-2128.17,-2544.18,7.93010858551283
0,-2118.61,-1182.49,-2126.68,-2539.26,7.935108653977846
0,-2114.54,-1179.88,-2120.83,-2534.42,7.940108722442854
0,-2110.76,-1181.27,-2117.29,-2530.23,7.94510879090787
0,-2106.97,-1181.77,-2118.09,-2529.59,7.950108859372886
0,-2107.06,-1180.96,-2118.53,-2530.51,7.955108927837902
0,-2110.66,-1171.87,-2118.66,-2534.97,7.9601089963029175
0,-2111.7,-1176.71,-2116.64,-2535.5,7.965109064767933
0,-2108.2,-1169.2,-2112.36,-2530.07,7.970109133232942
0,-2102.38,-1167.78,-2116.56,-2527.49,7.975109201697958
0,-2107.61,-1166.38,-2111.67,-2533.38,7.9801092701629734
0,-2107.94,-1169.6,-2115.21,-2528.01,7.985109338627989
0,-2111.07,-1180.9,-2117.02,-2526.5,7.990109407093005
0,-2119.84,-1178.63,-2120.2,-2532.82,7.995109475558014
0,-2115.98,-1182.52,-2122.58,-2535.66,8.00010954402303
0,-2120.52,-1182.89,-2123.23,-2530.66,8.005109612488045
0,-2118.26,-1181.15,-2125.32,-2533.05,8.010109680953061
0,-2113.11,-1179.71,-2118.74,-2530.58,8.015109749418077
0,-2118.94,-1185.55,-2121.97,-2537.27,8.020109817883085
0,-2121.9,-1183.84,-2128.2,-2536.63,8.025109886348101
0,-2116.08,-1182.68,-2121.79,-2535.84,8.030109954813117
0,-2111.99,-1187.54,-2117.95,-2533.66,8.035110023278133
0,-2117.65,-1181.63,-2120.32,-2541.11,8.040110091743149
0,-2122.7,-1183.03,-2125.99,-2539.5,8.045110160208157
0,-2124.93,-1190.25,-2130.27,-2541.49,8.050110228673173
0,-2118.53,-1179.46,-2122.6,-2538.45,8.055110297138189
0,-2110.43,-1174.08,-2114.74,-2536.92,8.060110365603204
0,-2107.62,-1175.55,-2118.03,-2538.57,8.06511043406822
0,-2115.38,-1179.82,-2120.67,-2540.48,8.070110502533229
0,-2120.67,-1184.75,-2128.81,-2540.06,8.075110570998245
0,-2130.84,-1197.53,-2130.07,-2542.52,8.08011063946326
0,-2125.23,-1191.35,-2128.36,-2539.41,8.085110707928276
0,-2113.83,-1187.75,-2128.99,-2541.15,8.090110776393292
0,-2120.54,-1182.02,-2125.9,-2544.56,8.0951108448583
0,-2123.69,-1187.91,-2130.46,-2541.79,8.100110913323316
0,-2122.85,-1188.36,-2129.79,-2543.84,8.105110981788332
0,-2120.67,-1180.36,-2123.88,-2544.69,8.110111050253348
0,-2124.85,-1184.55,-2133.21,-2549.16,8.115111118718364
0,-2124.74,-1191.03,-2131.11,-2536.78,8.12011118718338
0,-2123.75,-1189.11,-2134.18,-2538.8,8.125111255648388
0,-2119.0,-1183.52,-2129.85,-2542.04,8.130111324113404
0,-2118.46,-1171.81,-2122.85,-2538.12,8.13511139257842
0,-2122.82,-1184.6,-2123.76,-2537.82,8.140111461043436
0,-2112.05,-1177.19,-2118.31,-2532.81,8.145111529508451
0,-2120.24,-1176.28,-2118.93,-2537.81,8.15011159797346
0,-2121.36,-1176.41,-2122.45,-2535.33,8.155111666438476
0,-2119.34,-1180.17,-2122.05,-2536.6,8.160111734903492
0,-2124.32,-1181.58,-2127.54,-2534.24,8.165111803368507
0,-2129.89,-1187.62,-2121.96,-2545.96,8.170111871833523
0,-2121.39,-1178.63,-2119.51,-2539.91,8.175111940298532
0,-2126.37,-1182.8,-2125.13,-2543.28,8.180112008763547
0,-2125.07,-1190.58,-2129.96,-2542.94,8.185112077228563
0,-2122.05,-1185.03,-2124.99,-2544.08,8.190112145693579
0,-2120.44,-1182.94,-2134.33,-2541.89,8.195112214158595
0,-2120.04,-1177.0,-2129.8,-2540.4,8.200112282623603
0,-2117.0,-1166.41,-2125.89,-2541.05,8.20511235108862
0,-2118.16,-1186.34,-2123.45,-2541.18,8.210112419553635
0,-2118.37,-1202.35,-2128.97,-2542.99,8.21511248801865
0,-2114.62,-1199.16,-2127.42,-2536.01,8.220112556483667
0,-2110.54,-1185.12,-2119.79,-2527.34,8.225112624948675
0,-2120.12,-1180.48,-2127.54,-2533.23,8.230112693413691
0,-2123.56,-1182.8,-2126.69,-2532.8,8.235112761878707
0,-2119.02,-1178.67,-2122.75,-2529.89,8.240112830343723
0,-2115.53,-1185.64,-2125.37,-2538.94,8.245112898808738
0,-2127.19,-1193.34,-2128.18,-2546.22,8.250112967273747
0,-2129.06,-1186.2,-2130.7,-2544.61,8.255113035738763
0,-2124.33,-1184.8,-2126.14,-2540.06,8.260113104203779
0,-2126.97,-1196.38,-2129.07,-2543.9,8.265113172668794
0,-2120.29,-1189.38,-2123.51,-2533.3,8.27011324113381
0,-2123.26,-1187.79,-2130.61,-2532.59,8.275113309598826
0,-2137.79,-1198.3,-2150.31,-2559.71,8.280113378063835
0,-2143.76,-1203.85,-2154.09,-2561.65,8.28511344652885
0,-2124.59,-1184.19,-2134.32,-2552.67,8.290113514993866
0,-2126.31,-1187.84,-2126.35,-2548.67,8.295113583458882
0,-2122.65,-1194.43,-2136.25,-2551.0,8.300113651923898
0,-2115.63,-1194.26,-2128.86,-2543.18,8.305113720388906
0,-2120.11,-1184.1,-2122.86,-2537.29,8.310113788853922
0,-2117.27,-1173.01,-2122.05,-2537.09,8.315113857318938
0,-2114.44,-1181.37,-2116.38,-2529.21,8.320113925783954
0,-2116.69,-1188.64,-2124.7,-2538.04,8.32511399424897
0,-2118.05,-1186.53,-2133.37,-2537.42,8.330114062713978
0,-2124.61,-1194.42,-2135.2,-2543.75,8.335114131178994
0,-2113.5,-1191.06,-2124.7,-2542.61,8.34011419964401
0,-2110.87,-1177.06,-2117.46,-2537.95,8.345114268109025
0,-2119.13,-1185.25,-2126.85,-2539.76,8.350114336574041
0,-2123.21,-1186.61,-2126.97,-2543.94,8.35511440503905
0,-2117.83,-1188.51,-2126.79,-2544.15,8.360114473504066
0,-2111.33,-1181.0,-2120.66,-2537.46,8.365114541969081
0,-2112.33,-1175.71,-2119.3,-2535.34,8.370114610434097
0,-2103.17,-1168.96,-2110.03,-2527.85,8.375114678899113
0,-2108.42,-1178.56,-2115.24,-2530.29,8.380114747364122
0,-2107.54,-1182.39,-2117.97,-2528.54,8.385114815829137
0,-2107.42,-1178.52,-2119.01,-2528.92,8.390114884294153
0,-2106.15,-1176.46,-2114.99,-2533.68,8.395114952759169
0,-2112.64,-1173.57,-2124.18,-2527.07,8.400115021224185
0,-2115.18,-1178.66,-2124.18,-2534.91,8.405115089689193
0,-2110.9,-1178.52,-2122.21,-2538.8,8.410115158154209
0,-2109.47,-1177.18,-2120.76,-2536.51,8.415115226619225
0,-2109.48,-1176.66,-2119.72,-2536.28,8.42011529508424
0,-2110.36,-1175.21,-2115.07,-2530.07,8.425115363549256
0,-2110.85,-1179.37,-2112.45,-2529.95,8.430115432014265
0,-2110.01,-1177.1,-2119.9,-2531.13,8.43511550047928
0,-2115.67,-1177.51,-2123.03,-2532.99,8.440115568944297
0,-2114.53,-1179.63,-2124.89,-2533.51,8.445115637409312
0,-2117.88,-1178.72,-2115.16,-2532.6,8.450115705874328
0,-2117.23,-1182.13,-2123.18,-2528.41,8.455115774339344
0,-2113.34,-1176.86,-2123.96,-2530.72,8.460115842804353
0,-2111.42,-1174.91,-2123.36,-2529.34,8.465115911269368
0,-2112.82,-1175.04,-2117.83,-2526.09,8.470115979734384
0,-2111.85,-1171.32,-2114.1,-2526.54,8.4751160481994
0,-2113.75,-1179.63,-2118.83,-2535.54,8.480116116664416
0,-2113.48,-1176.57,-2117.0,-2537.57,8.485116185129424
0,-2114.79,-1175.47,-2120.41,-2529.85,8.49011625359444
0,-2108.3,-1171.92,-2115.36,-2526.02,8.495116322059456
0,-2108.16,-1165.21,-2106.95,-2521.41,8.500116390524472
0,-2101.94,-1166.54,-2103.4,-2509.47,8.505116458989487
0,-2100.28,-1168.94,-2106.03,-2522.65,8.510116527454496
0,-2103.32,-1167.82,-2109.32,-2528.59,8.515116595919512
0,-2102.44,-1165.4,-2107.39,-2522.38,8.520116664384528
0,-2110.22,-1175.55,-2116.04,-2523.7,8.525116732849543
0,-2118.16,-1178.59,-2120.77,-2529.19,8.53011680131456
0,-2120.42,-1181.32,-2123.9,-2531.65,8.535116869779568
0,-2113.97,-1178.59,-2118.78,-2526.24,8.540116938244584
0,-2112.87,-1174.54,-2114.75,-2524.61,8.5451170067096
0,-2113.61,-1183.01,-2113.6,-2530.1,8.550117075174615
0,-2119.45,-1184.85,-2122.87,-2530.47,8.555117143639631
0,-2127.27,-1181.25,-2125.58,-2539.14,8.56011721210464
0,-2121.34,-1184.09,-2127.92,-2540.05,8.565117280569655
0,-2120.02,-1182.38,-2137.37,-2538.17,8.570117349034671
0,-2123.3,-1184.94,-2130.16,-2541.34,8.575117417499687
0,-2122.34,-1182.73,-2123.57,-2545.44,8.580117485964703
0,-2123.83,-1186.49,-2128.7,-2546.38,8.585117554429711
0,-2125.56,-1190.32,-2130.5,-2544.16,8.590117622894727
0,-2126.6,-1190.02,-2133.13,-2547.78,8.595117691359743
0,-2114.88,-1188.34,-2124.32,-2539.63,8.600117759824759
0,-2125.96,-1193.81,-2135.52,-2539.24,8.605117828289774
0,-2121.11,-1186.97,-2124.59,-2531.24,8.61011789675479
0,-2119.64,-1187.91,-2126.81,-2536.29,8.615117965219799
0,-2118.38,-1183.64,-2128.99,-2539.52,8.620118033684815
0,-2109.91,-1174.54,-2120.5,-2529.51,8.62511810214983
0,-2115.45,-1182.1,-2123.68,-2535.94,8.630118170614846
0,-2123.17,-1192.72,-2129.39,-2543.08,8.635118239079862
0,-2121.39,-1183.2,-2129.43,-2542.12,8.64011830754487
0,-2120.4,-1182.83,-2130.06,-2538.76,8.645118376009886
0,-2117.54,-1180.17,-2125.17,-2542.99,8.650118444474902
0,-2114.94,-1181.55,-2124.21,-2544.58,8.655118512939918
