labels,F4,F3,Fz,Cz,timestamps
0,8.318923544191133,5.6288458355713,8.258773538600785,8.26865084341873,-2.000027014250019
0,11.25911731374319,11.046914277053727,10.377672982017526,9.256412509413503,-1.9950269467143933
0,8.989311832928962,8.254983552786241,5.896573165451155,10.424174125516242,-1.9900268791787674
0,6.889507109489287,8.893053672947872,6.175474097673931,7.381935717925295,-1.9850268116431415
0,7.179703150300053,7.891124646848116,2.7843757867723036,2.419697311987589,-1.9800267441075192
0,3.519899961501913,1.4291964830025674,1.0332782403263332,-0.5725410675849452,-1.9750266765718933
0,-1.919902451323221,-1.7127308106526362,-3.937818534373129,-3.9947793963739544,-1.9700266090362675
0,-1.749704082881546,-2.0346572264258995,-1.0789145300759304,-0.6370176499428488,-1.9650265415006416
0,3.0004950720857395,1.683417243393542,-2.36000973938953,-0.2992558036924805,-1.9600264739650157
0,2.450695018838915,4.8014926065534596,5.538895845231404,6.218506167069759,-1.9550264064293934
0,6.200895762485425,2.1295688706702367,4.087802231308822,2.5162682869205266,-1.9500263388937675
0,6.831097307788119,4.467646043077265,4.006709426102506,4.804030580129858,-1.9450262713581417
0,4.181299659013655,7.7857241307466625,6.9456174364625145,7.651793070562709,-1.9400262038225158
0,2.52150281989601,3.8938031401930244,3.914526268766304,6.439555781583978,-1.9350261362868935
0,3.801706793727774,4.571883077402147,4.143435928894621,9.267318735933292,-1.9300260687512676
0,2.051911583460972,2.6799639478730244,4.882346422261033,7.225081955630088,-1.9250260012156417
0,5.352117191739322,1.1580457567231883,7.211257753827373,7.61284546192921,-1.9200259336800158
0,7.542323620847415,7.216128508765122,7.14016992803327,8.530609275319765,-1.9150258661443935
0,5.772530872582344,7.9042122084520425,8.509082948685172,10.988373415505414,-1.9100257986087676
0,2.162738948169259,3.762296859713605,6.357996818877426,4.516137901353953,-1.9050257310731418
0,-3.647052151624305,0.7803824659116672,0.1269115410201663,-1.5660972490227283,-1.900025663537516
0,-3.7068424261850903,-0.19153096998365504,-2.1441728829494204,-0.7683320179544295,-1.89502559600189
0,-2.3066318747498635,-3.473443445144653,-1.8152564512421843,-1.840566387860806,-1.8900255284662677
0,-4.67642049626001,-3.3953549566732706,-6.046339161951412,-1.1828003410707892,-1.8850254609306418
0,-0.6962082893416701,-5.257265501430056,-1.4574210128965375,-0.24503385978742642,-1.880025393395016
0,-1.445995252346028,-9.08917507588227,-3.21850200156378,-5.937266926079005,-1.87502532585939
0,0.32421861656247236,-3.441083675959118,1.7504178748399022,-2.2894995218062535,-1.8700252583237678
0,-0.03556668069003371,-8.082991296976093,-0.07066138074478924,-3.711731628521681,-1.8650251907881419
0,0.5246488578479687,-3.5248979336511943,-0.7717397653474132,-2.6539632274413325,-1.860025123252516
0,-1.0551347658763586,-2.5568035801668008,1.0071827239946887,-2.3561942994748435,-1.8550250557168901
0,-3.4549175498892377,-4.538708230268698,-2.043893909748675,0.8715751747214238,-1.8500249881812678
0,-2.05469949209442,-5.0306118773332535,-3.554969663553838,-5.240654785325038,-1.845024920645642
0,-1.3844805901882484,-2.6825145143482456,-1.2660445342480304,-0.462884159914233,-1.840024853110016
0,1.7657391583212174,1.4455838660646991,2.4128814815311888,6.6648870708087955,-1.8350247855743902
0,3.4759597559836917,1.473683271488095,3.571808387210993,3.582658926654233,-1.8300247180387679
0,2.466181205230707,2.6817837094952335,6.320736186057431,7.850431427096873,-1.825024650503142
0,0.6664035082682132,0.8198851875165505,1.2896648809932432,3.058204591111413,-1.8200245829675161
0,-5.1233733328682005,2.2179877128062158,-1.211405525415394,1.2359784371758324,-1.8150245154318903
0,-4.093149316099053,0.36609129245805117,-0.7624750307909685,3.033752983395072,-1.8100244478962644
0,3.6770755608884715,4.064195933414834,3.686456367214529,7.6415282475861215,-1.805024380360642
0,6.107301300550658,10.712301642382776,6.27538867087062,10.14930424715851,-1.8000243128250162
0,6.557527905151671,6.830408425594781,5.804321882149973,7.627080998867788,-1.7950242452893903
0,-4.68224462346326,2.8385162886076363,1.0732560025629954,5.454858518675084,-1.7900241777537644
0,-2.9320162837275436,-1.8333747636149054,-1.837808966782147,-0.28736317816177787,-1.7850241102181421
0,-5.251787073997098,-2.6652647263836196,-1.6488730249412225,-2.7695840768077966,-1.7800240426825162
0,-0.7215569923145604,1.2628464050043606,0.15006382907487673,1.2781958374627143,-1.7750239751468904
0,-4.041326036388296,-2.0890413646414654,-2.000998403637776,-0.8540234205754988,-1.7700239076112645
0,-4.761094203627489,-8.180928030381002,-4.412059721861629,-4.8362418360746515,-1.7650238400756422
0,-6.470861491088583,-9.972813586952366,-5.703120124157493,-5.838459394017036,-1.7600237725400163
0,-3.2806278953738595,-7.28469802846453,-3.6941796087158347,-1.9206760790413466,-1.7550237050043904
0,-1.4003934126203061,-7.116581348229482,-3.1852381732897994,-4.992891875372827,-1.7500236374687645
0,-6.480158038584715,-6.628463538786744,-4.976295815224004,-10.18510676681117,-1.7450235699331387
0,-7.179921768652261,-7.81034459196882,-7.497352531455167,-5.077320736612539,-1.7400235023975164
0,-7.289684597697874,-6.2822244989199865,-5.848408318420023,-4.499533767376967,-1.7350234348618905
0,-7.549446519944397,-5.964103250105167,-5.489463171964986,-6.5717458410906175,-1.7300233673262646
0,-2.2592075289366385,-6.325980835345537,-4.570517087348474,-1.7639569392191259,-1.7250232997906387
0,1.9510323823208777,-2.3678572438752807,-3.3115700593088606,-1.2861670427966865,-1.7200232322550164
0,2.661273221070512,-0.20973246445521845,1.6273779178224865,2.6016238674097285,-1.7150231647193905
0,-0.5184850054771203,-1.161606485557114,-1.9936731500476497,-3.9105841892761983,-1.7100230971837647
0,0.3117577097683102,3.2165207044599233,3.165276743065886,2.0872088064984795,-1.7050230296481388
0,9.182001373775705,6.88464911717836,8.54422760307245,6.445002874084152,-1.7000229621125165
0,7.792245993228047,5.042778763894415,7.0731794355533015,7.572798032631216,-1.6950228945768906
0,6.852491574237295,7.900909655410738,7.642132245493878,5.570594300809287,-1.6900228270412647
0,4.342738122211605,5.549041801932212,5.6510860371733775,6.128391696668779,-1.6850227595056388
0,7.96298564190897,7.727175213028336,6.860040814188224,9.056190237628556,-1.6800226919700165
0,5.663234137486104,9.685309897595591,8.348996579481337,8.753989940428113,-1.6750226244343907
0,-1.496516387467381,-0.13655413617002404,-1.982046664630351,3.361790821059213,-1.6700225568987648
0,-2.806265929735661,0.3915831193526188,-0.4530889162852975,-1.1704071051386933,-1.665022489363139
0,-5.86601448613057,-1.7102783284923135,-6.304130173745239,-0.8526038231835966,-1.660022421827513
0,-3.0657620531978473,-6.282138472350756,-6.865170435062607,-4.604799318137032,-1.6550223542918907
0,-10.88550862705081,-7.5439973046159485,-7.566209697823207,-5.936993574873148,-1.6500222867562648
0,-8.055254203216485,-12.725854817151186,-7.717247958974543,-5.079186577894479,-1.645022219220639
0,-2.334998776503608,-7.287711001026552,0.15171478520483528,0.44862168875161856,-1.640022151685013
0,0.855257658908714,-2.759565846430944,-0.449321461056663,2.416431241350341,-1.6350220841493908
0,-1.374484890823301,-6.591419342824028,-3.4103566932704106,-2.3257579037145506,-1.630022016613765
0,0.7757735805599246,3.7567285208279637,3.0286090931764824,2.0520542699168374,-1.625021949078139
0,-0.12396692065655468,7.204877755775906,4.037575902933192,6.1398677785403155,-1.6200218815425131
0,2.7262936117986545,6.053028373098381,4.716543740496997,4.287682638243064,-1.6150218140068908
0,5.47655518409126,3.5111803833906223,3.4255126100289788,7.155498864704004,-1.610021746471265
0,3.456817802131219,0.8393337967378371,5.364482515285122,0.8033164731045219,-1.605021678935639
0,-1.5429185285119462,-4.252511377088877,0.983453459620172,-3.5888645217748962,-1.6000216114000132
0,3.527346197471092,1.5856448716225275,3.012425446038532,0.278955894702122,-1.5950215438643873
0,2.377611985228262,3.6938025526364453,2.6413984772677237,0.5367777372298617,-1.590021476328765
0,1.307878839729079,-0.6080383243283192,0.32037255580235174,-5.415398979405151,-1.5850214087931391
0,4.018146765723492,3.8701222502904624,4.6893476839248525,3.3024257596908466,-1.5800213412575133
0,4.908415767706683,4.8982842858536495,5.598323863674996,-1.519748030476451,-1.5750212737218874
0,0.5786858498575623,0.13644779145293012,0.15730109676007187,-1.3419203348482935,-1.570021206186265
0,-1.8910429839326355,1.8246127758960449,-0.6437206154331334,-1.5540911383156824,-1.5650211386506392
0,-4.780770729862656,-2.417220752186734,-5.164741271641411,-7.366260425621054,-1.5600210711150133
0,-2.870497383972174,-3.4990527841848356,-1.3157608704821078,-4.208428181203118,-1.5550210035793874
0,1.1997770579787048,5.149116688609219,2.313220589648722,2.579405610901382,-1.5500209360437651
0,4.2100526004079954,7.0772876749100595,5.9422031104403,5.337240966902853,-1.5450208685081392
0,2.6403292476703846,4.6454601831434355,6.721186693375193,6.485077902895358,-1.5400208009725134
0,2.590607003874642,4.173634221233997,4.650171339478604,6.282916434544665,-1.5350207334368875
0,2.50088587284532,3.6218097966093388,5.179157049226674,3.1407565769619694,-1.5300206659012616
0,4.171165858135724,1.8399869162889402,3.4081438225789076,1.148598344754819,-1.5250205983656393
0,1.0814469630208146,0.46816558698237454,1.0771316590619575,-1.003558247798101,-1.5200205308300134
0,-3.278270809460064,-1.7436541847823375,-3.3638794420822196,-6.485713186510927,-1.5150204632943876
0,1.032012543649785,5.1245276074501795,0.015110518316269195,-2.5578664570348004,-1.5100203957587617
0,0.7822970253452199,0.8627109700461807,-3.5558984604755053,-7.29001804465983,-1.5050203282231394
0,-0.5374173613592699,-0.7391040907920154,-1.7269063790185217,-4.132167934215787,-1.5000202606875135
0,-2.707130613453373,-1.5109175689806256,-4.20791323765613,-7.68431611001718,-1.4950201931518876
0,-9.066842727811158,-8.432729458373007,-4.418919036452669,-8.666462555794407,-1.4900201256162617
0,-10.066553700917662,-9.784539752489527,-12.009923775074387,-12.748607254563488,-1.4850200580806394
0,-6.456263528572867,-4.646348444234777,-6.820927452579112,-11.690750188430176,-1.4800199905450135
0,-8.075972205765455,-9.038155525773172,-9.911930067226278,-12.202891338417432,-1.4750199230093877
0,-7.735679726704183,-8.519960988537749,-10.542931616401244,-7.2350306844170325,-1.4700198554737618
0,-4.58538608486794,-7.281764823206997,-7.793932096583858,-6.16716820529853,-1.4650197879381395
0,-5.945091273069345,-4.193567019696756,-7.974931503347615,-5.409303879116176,-1.4600197204025136
0,-6.2347952835329,-1.2553675672847904,-5.165929831438548,-3.7414376832937073,-1.4550196528668877
0,0.965501892038348,5.012833545133684,1.0530729250620128,1.156430405221046,-1.4500195853312619
0,-0.2941997376796001,8.971036328679052,6.292076772439123,4.884300409728181,-1.445019517795636
0,1.4360998361403003,8.899240794072018,3.1610817169412595,5.562172353456832,-1.4400194502600137
0,2.0864006223026257,5.957446951338185,4.890087764486124,3.0100462592986523,-1.4350193827243878
0,-0.38329737048780227,4.1856548097585815,-1.3309050793946657,-1.5020778502481749,-1.430019315188762
0,2.877005866356521,7.213864377979367,2.958103190550969,3.785800047052984,-1.425019247653136
0,4.627310341279,5.182075664087337,1.197112579406095,7.163679973250685,-1.4200191801175137
0,0.7876160624973019,2.230288675627826,0.5561230921158087,7.301561950054618,-1.4150191125818878
0,5.94792303793688,9.068503419646202,8.215134733453988,8.049445998602717,-1.410019045046262
0,1.1982312752122222,3.126719902696329,2.7041475079105166,2.2273321393593353,-1.405018977510636
0,1.2685407816360252,0.5849381308353244,1.8331614195773542,-3.254779607761202,-1.4000189099750138
0,7.0488515642539795,7.483158109711773,8.022176472150756,3.633110776890723,-1.395018842439388
0,-0.4408363701689651,-3.7486201553378655,-0.9288073310455786,-1.5489966870985363,-1.390018774903762
0,-2.850523015135472,0.4696033408048237,-2.2297899870058826,-1.471101980162987,-1.3850187073681361
0,-2.8102083642251032,-3.3421713967818647,-4.850771492813141,-3.213205082693375,-1.3800186398325103
0,-1.1598924108696296,-1.2339443629021154,1.428248154614315,-5.88530597489697,-1.375018572296888
0,3.8404248516785247,4.214284447777773,0.9772689585545637,2.1125953633117613,-1.370018504761262
0,0.9407434301957783,0.9225150406068763,-4.063709077633821,-3.459501047709418,-1.3650184372256362
0,0.12106333134040148,0.4707474208053767,-0.6746859505301775,-3.501595187411734,-1.3600183696900103
0,-4.488615438326257,-4.501018406519464,-3.695661656558941,-2.8736870350328276,-1.355018302154388
0,-1.4082928721754941,2.797217563766911,-0.8766361919315824,0.5542234304556724,-1.3500182346187621
0,-1.0879689633823655,0.7654553368736897,-0.5476095526586677,-0.8578637697150789,-1.3450181670831363
0,-1.997643704923306,-3.4363050819831784,-2.3685817345969458,-3.0299486142031764,-1.3400180995475104
0,-0.21731708962329047,-1.028063687566496,-2.299552733467589,-4.392031081531194,-1.335018032011888
0,-1.8369891101830058,-3.3398204745038162,-7.780522544783233,-7.604111149940155,-1.3300179644762622
0,-7.776659759147733,-11.111575437157102,-8.60149116366965,-7.92618879719819,-1.3250178969406363
0,-6.566329028748811,-4.053328569425188,-5.282458584656353,-5.908264000441114,-1.3200178294050104
0,-1.9559969107156014,-4.035079864589983,-6.19342480158883,-2.890336736142137,-1.3150177618693881
0,1.0243366037041708,-2.2968293153823285,0.5456101922847282,-1.1424069802416887,-1.3100176943337623
0,6.704671523475974,1.0614230858302451,4.044646404085434,2.255525291631411,-1.3050176267981364
0,-2.9649921425300216,-4.720322653110099,-1.4363161589922626,-3.8665398960348023,-1.3000175592625105
0,3.155345614351658,2.4579334757805875,3.8827225101340916,2.3313974812904097,-1.2950174917268846
0,5.285684802616093,0.05619148058652765,4.101762418378074,3.2693374481547552,-1.2900174241912623
0,2.4960254305305223,-1.565548630581159,0.6608035724178679,2.5172800290059234,-1.2850173566556364
0,4.086367506024935,3.502713150372362,1.1198459786731176,0.9652252480720618,-1.2800172891200106
0,1.236711036682783,1.9009768314856652,1.1188896433816966,2.413173129357069,-1.2750172215843847
0,4.00705602979104,1.5492424206516857,2.1779345726590233,3.8011236966668553,-1.2700171540487624
0,4.267402492353291,1.4175099255717134,6.036980772458576,6.249076973549399,-1.2650170865131365
0,9.937750431006988,8.645779353735577,6.716028248432259,13.207032983116685,-1.2600170189775106
0,5.49809985185354,4.814050712292315,6.695077005747334,4.9349917477934815,-1.2550169514418847
0,4.318450760342513,3.1223240078948677,3.2941270489823506,4.372953289200133,-1.2500168839062624
0,1.4688031613408339,3.570599246703364,5.673178382156236,6.33091762827193,-1.2450168163706365
0,-0.34084294067064763,-1.3011235654848925,2.952231008807535,5.14888478539834,-1.2400167488350107
0,3.6495124585827567,4.8771555768934896,7.58128493202852,8.886854780421467,-1.2350166812993848
0,-1.9401306367509537,-1.5345633207659282,0.23034015445939146,-2.9551723673838026,-1.230016613763759
0,-4.279772222584318,-2.6562802531822935,0.849396678346211,-0.7471966391546911,-1.2250165462281366
0,-8.549412294689704,-4.907995215034897,-6.111545494259457,-0.5392180161466691,-1.2200164786925107
0,-0.29905084844785956,-0.3897082007764042,-6.382486361201141,-0.6712364795528872,-1.2150164111568849
0,1.8413121211846777,1.4685807953942296,3.1165740800152477,0.01674798950570111,-1.210016343621259
0,4.641676619423517,2.8468717793750193,4.065635832159921,2.27473540993593,-1.2050162760856367
0,-5.187957348605182,-10.32483524295681,-5.735301101982186,-8.36727419934057,-1.2000162085500108
0,-3.857589777837781,-2.576540265594287,-3.5562367196503484,-6.459280819238827,-1.195016141014385
0,-0.847220663046564,-2.168243282155604,-1.917171017894089,-6.471284430226728,-1.190016073478759
0,-0.5468499987407824,-3.8299442858546726,0.04189600652835994,-5.183285012157356,-1.1850160059431367
0,-1.4964777792506239,-10.57164326954291,-2.439035642935885,-7.535282544266799,-1.1800159384075108
0,-3.3261039987857557,-4.583340225577969,-3.3899659626928447,-0.9672770052158385,-1.175015870871885
0,-5.015728651370872,-10.845035145647318,-9.72089494890707,-8.019268373151778,-1.170015803336259
0,1.0046482692463004,-6.496728020686508,-4.941822597293311,-0.2912566257744173,-1.1650157358006332
0,1.505026769557983,-0.5884188408972223,3.007251096988186,2.886758259568049,-1.160015668265011
0,-0.17459314387347277,-2.620107595921507,1.5163261391326177,2.8447763056519553,-1.155015600729385
0,-7.844211464482805,-7.801794275044384,-7.454597465586718,-4.527202464837887,-1.1500155331937592
0,-7.693828185503289,-9.113478867155866,-9.57551971175517,-5.629178029244449,-1.1450154656581333
0,-6.243443299660895,-4.145161360546254,-5.886440593472042,-0.8511503646898685,-1.140015398122511
0,-3.1330567990375853,0.43315825713110656,0.702639895824533,0.2768805520210669,-1.135015330586885
0,2.147331324810998,5.631479998598993,2.211721763159442,4.20491474424724,-1.1300152630512592
0,-1.4722789194005381,5.089803876552677,5.510805015646141,6.922952235247833,-1.1250151955156333
0,5.158112477082629,7.798129903324895,6.829889660160221,6.860993047916309,-1.120015127980011
0,4.2585055228842155,6.926458090690692,4.6089757031234875,9.039037204567258,-1.1150150604443851
0,-1.2410997736336529,4.074788449788528,3.9380631504243513,1.8770847268389064,-1.1100149929087593
0,1.2992965956412519,2.2031209911702945,0.7671520074824112,-3.034864364197431,-1.1050149253731334
0,2.0996946386867554,3.221455724949691,3.236242279381224,-1.2868100477187903,-1.100014857837511
0,5.460094363353222,6.1797926609023355,3.835333970950221,2.2312476971254123,-1.0950147903018852
0,9.060495777202348,9.858131808397323,8.43442708671317,14.259308891154223,-1.0900147227662593
0,5.570898887282454,7.856473176198136,9.813521630705145,8.017373554758816,-1.0850146552306335
0,7.831303699981948,6.284816772308609,4.792617606271857,4.825441707538505,-1.0800145876950076
0,6.201710221003447,4.69316260398614,9.531715015997046,9.793513368261578,-1.0750145201593853
0,2.82211845540435,4.43151067786604,5.680813861732345,2.6215885549837568,-1.0700144526237594
0,4.742528407693434,3.7998610000801616,8.189914144616566,13.089667285093034,-1.0650143850881335
0,0.6329400819580768,-3.621786423624488,4.009015865095833,1.6477495752851632,-1.0600143175525076
0,0.18335348198972026,-0.7234315876835831,3.9981190229988046,3.2658354415940525,-1.0550142500168853
0,1.3537686114111522,-0.9150744864969099,0.487223617673292,4.013924899554781,-1.0500141824812594
0,2.1741854737478716,0.9632848856437513,3.8563296481382627,4.5520179643379555,-1.0450141149456336
0,0.26460407241325046,1.9516465344843337,1.0854371131725742,0.7301146507625538,-1.0400140474100077
0,0.7150244106961636,3.200010465695229,5.024546011321,4.808214973316666,-1.0350139798743854
0,2.9654464917794163,0.1883766847786099,-1.3863436591221339,0.1663189462083675,-1.0300139123387595
0,5.57587031869363,1.536745197052452,3.56276809991612,0.9544265834146561,-1.0250138448031336
0,6.206295894168562,2.8351160076832693,5.591881286309573,4.622537898733627,-1.0200137772675077
0,4.566723220474909,3.0734891216697626,1.3209958976608558,3.290652905762463,-1.0150137097318819
0,4.35715229936491,7.861864543745619,1.7101119312474253,4.1187716178001725,-1.0100136421962596
0,0.32758313213085155,5.4502422782294,0.8592293840937403,0.8568940478015068,-1.0050135746606337
0,3.368015719728497,4.508622328900028,0.1883482530735154,-0.23497979155689855,-1.0000135071250078
0,4.518450062858104,6.717004698976578,5.7774685349396275,5.043150112224937,-0.9950134395893819
0,-1.251113838040083,9.465389391111637,4.036590226241462,4.621283771458944,-0.9900133720537596
0,3.089324017236934,13.733776407255299,6.905713323167212,6.22942119812263,-0.9850133045181337
0,1.4297636287232536,8.122165748437068,4.014837821423152,6.227562403713684,-0.9800132369825079
0,2.0202049962959796,7.570557414669322,2.6339637162160425,7.975707399158923,-0.975013169446882
0,6.020648119626546,1.6189514050816003,3.7430910023262878,7.64385619473695,-0.9700131019112597
0,8.55109299806039,5.9873477181695725,6.5022196741675256,12.012008799986267,-0.9650130343756338
0,9.701539630397548,2.405746351975489,6.7613497257285875,9.270165223584899,-0.9600129668400079
0,6.551988014690991,-0.2158526958198348,4.230481150463187,8.478325473260215,-0.955012899304382
0,5.7024381481998025,3.0625505722074307,1.179613941286694,7.186489555811669,-0.9500128317687597
0,2.4528900275018453,0.34095615331734586,-0.5612519092695807,1.014657477248801,-0.9450127642331339
0,-2.3366563512975893,-0.41063595535715336,-4.472116408820705,-4.517170756941384,-0.940012696697508
0,-0.20620099230328537,-2.9522257567407633,-2.882979564889294,-1.668995141415325,-0.9350126291618821
0,0.4142561003732625,-2.933813253680549,-6.063841384720956,-4.970815670662131,-0.9300125616262562
0,-0.525285077336727,-5.36539844880349,-3.504701875174693,-7.25263233884095,-0.9250124940906339
0,-4.474824529457862,-8.056981344375508,-4.965561042674987,-8.744445139631164,-0.920012426555008
0,-2.384362259881008,-8.298561942130261,-2.496418893216928,-7.216254066059365,-0.9150123590193822
0,-6.543898272225435,-13.260140243075746,-8.367275432380254,-12.958059110370987,-0.9100122914837563
0,-11.423432569682076,-17.211716247260327,-9.758130665248062,-14.80986026388508,-0.905012223948134
0,-8.342965154788644,-14.77328995348771,-10.988984596202261,-12.401657516782494,-0.9000121564125081
0,-10.942496029221896,-10.184861359137624,-9.999837228720843,-7.903450857993156,-0.8950120888768822
0,-4.752025193740448,-8.206430460252479,-4.300688565322107,-4.795240275332905,-0.8900120213412563
0,-6.411552648275662,-6.077997251801053,-2.881538607709817,-2.257025755806203,-0.885011953805634
0,-4.591078392083935,-3.219561727946827,-2.9823873570318566,-5.448807285886304,-0.8800118862700081
0,-3.450602423872278,-3.061123882272453,-4.8332348140631956,-4.370584851639729,-0.8750118187343823
0,-5.490124741877717,2.047316292017191,-2.0640809792432275,-2.462358438728376,-0.8700117511987564
0,-9.56964534386804,-2.01424119809317,-5.134925852663133,-4.624128032419963,-0.8650116836631305
0,1.0508357729277846,1.5942036544398077,1.6442305659122498,2.414106382345329,-0.8600116161275082
0,-1.7686813882296841,1.6026508566533648,1.5333882769359168,5.962344820787553,-0.8550115485918823
0,-1.558196823799012,2.5811004155083186,3.102547280882235,6.040587297984334,-0.8500114810562565
0,3.472289469874953,1.7995523378065137,1.7217075780747217,2.93883382859975,-0.8450114135206306
0,-2.0772225035305873,-1.1119933698302067,-1.8691308313543595,-0.18291557315290252,-0.8400113459850083
0,-3.6067327403443734,0.8364632991036157,-2.629967947358949,-2.8046608933298436,-0.8350112784493824
0,1.083758763187229,-0.8350776489207933,-2.5408037698060544,0.0035978819796876615,-0.8300112109137565
0,2.6142520109365655,0.9033837925682833,2.9783617016121884,5.631860766740682,-0.8250111433781306
0,-1.8552529932156014,1.591847630027656,-1.5524715326912157,0.7001277748463458,-0.8200110758425083
0,-0.20475624544179805,3.2503138698379432,-1.52330347228707,3.7183989199611998,-0.8150110083068824
0,0.4857422580849048,0.6887825182212649,-1.2041341167021247,2.3366742154823776,-0.8100109407712566
0,1.6762425212061711,1.2372535812124579,-1.7349634653479082,3.694953674540486,-0.8050108732356307
0,-1.2032554522715027,-2.524272935282304,-1.9057915174915798,8.643237309943235,-0.8000108057000084
0,-3.182751658564354,-6.40579702533829,-4.636618272223668,-1.0284748659203515,-0.7950107381643825
0,-8.692246093758312,-8.117318682767412,-7.507443728356905,-8.4501828410046,-0.7900106706287566
0,-4.041738753567701,-2.8888379008783294,-5.448267884261684,-5.011886603223038,-0.7850106030931308
0,3.1287703667752087,-1.5003546724324153,-1.6890907377666564,-4.7635861400569945,-0.7800105355575049
0,-1.9407187276479336,-0.34186898981018654,1.990087713738572,-3.2152814384571675,-0.7750104680218826
0,-1.6102060316611237,2.756619154773964,1.4892674730469757,1.343027515043329,-0.7700104004862567
0,4.8203084599407315,2.5151097690898414,0.7484485429122928,1.2313407341353146,-0.7650103329506308
0,1.8508247523211196,3.8336028607393855,-0.36236907402031515,-1.0503417674557636,-0.7600102654150049
0,-1.5286571495172223,1.7620984370634218,0.026814624827242763,2.8179800239456667,-0.7550101978793826
0,1.5718627592808359,1.5805965051324364,1.3759996420099563,2.206306121933401,-0.7500101303437567
0,3.7123844834908803,3.3790970717845368,4.3151859800263335,6.24463653992487,-0.7450100628081309
0,-1.1970919722258402,1.237600143644242,1.0043736412149742,-2.677028708941541,-0.740009995272505
0,-2.7965666033265997,-1.613894272857046,-4.376437372274629,-4.8086896117315785,-0.7350099277368827
0,-4.0460394052324,-1.8353861713745268,-5.117247058305415,-3.810346155438533,-0.7300098602012568
0,-3.0555103731380826,-4.3268755454840875,-3.2880554144865326,-1.871998326748687,-0.7250097926656309
0,-0.45497950193836095,-4.088362388532556,-2.298862438045711,-3.3636461120097816,-0.720009725130005
0,-1.3044467862814402,-2.439846693539758,-0.3896681258809272,-3.265289497277085,-0.7150096575943792
0,-3.183912220649082,-2.9313284531823562,-2.6604724746692883,-3.8769284683113066,-0.7100095900587569
0,-0.49337579936490694,-0.3028076598488465,-0.011275480932781797,-0.38856301056367193,-0.705009522523131
0,-0.3928375165875073,3.2557156942513092,3.8279228589041967,-0.31019310923245946,-0.7000094549875051
0,0.12770263363703138,-0.6957583830691775,-1.382877451599924,0.24818125061861274,-0.6950093874518792
0,-1.2517553426873245,-4.977229884044004,-2.463676408961443,-1.2534399160282126,-0.6900093199162569
0,-0.3812114395157364,-3.2386988008179824,-3.8044740096560976,-1.2250565941519234,-0.685009252380631
0,-0.4206656507465728,-3.0201651252597443,-2.195270249953277,-2.4066687686452815,-0.6800091848450052
0,0.21988202977428611,-1.6916288489103033,1.2339348741309861,3.0117235757129013,-0.6750091173093793
0,2.3404316082137155,1.9169100369382868,4.363141366711884,6.2001204541581405,-0.670009049773757
0,2.0409830906735884,-0.09454845889697416,-1.427650768161442,2.268521881717159,-0.6650089822381311
0,3.2315364830982314,-0.4660043276044641,-2.1484415265680106,2.456927873061324,-0.6600089147025052
0,-6.457908208740347,-2.7274575603775197,-6.7092309045553105,-4.46466155742277,-0.6550088471668793
0,-0.9373509790891205,-0.078908148334896,-2.930018897902958,-1.406246395414131,-0.6500087796312535
0,-5.79679182199221,-2.070356082469325,-4.820805501983713,-0.8178266264629812,-0.6450087120956312
0,-3.1162307311618016,-1.8518013536396356,-2.7115907117530114,-0.02940223595425498,-0.6400086445600053
0,2.7543323000228663,1.9667560474225625,0.5676254781846513,4.409026790792062,-0.6350085770243794
0,-3.9451027215995698,-1.0646838699371604,-5.2131569265230455,1.297460468370501,-0.6300085094887535
0,-2.704535789067511,-1.5961210963517543,-1.7539379200161496,5.32589881115624,-0.6250084419531312
0,4.946033104712419,1.2724443775791945,-0.34471749619676595,5.054341833209041,-0.6200083744175053
0,3.1766039668718142,0.9810125612914042,-1.4254956487623778,-2.6872104517706137,-0.6150083068818795
0,-0.1828231956245601,3.8795834641719837,2.083727628698612,5.86124196962506,-0.6100082393462536
0,2.52775162395697,4.968157095426144,5.012952342587672,7.229699110559749,-0.6050081718106313
0,-2.141671567799224,1.7367334639543202,1.432178499136184,2.208160983828309,-0.6000081042750054
0,1.918907235624466,3.2853125783125954,2.3014061043014653,0.8366276017760658,-0.5950080367393795
0,-7.300511959238811,-3.686105553208528,-7.519364836156536,-1.4949010235550113,-0.5900079692037536
0,-8.58992914565917,-2.717520922404718,-5.900134316408257,-3.096424880196408,-0.5850079016681313
0,-0.6393443164606903,4.771066479009485,3.339097669709073,0.6020560439132454,-0.5800078341325055
0,5.131242535996838,6.429656659333245,3.178331128642219,2.7605417609479916,-0.5750077665968796
0,4.911831419475656,6.858249626581797,5.957566066791757,5.259032283045298,-0.5700076990612537
0,5.202422341467178,7.136845388225333,2.6068024902358053,5.247527622086001,-0.5650076315256278
0,9.053015308980516,6.665443951083555,1.6260404046637786,6.866027789518247,-0.5600075639900055
0,2.5136103284482405,6.294045321308626,3.9652798154416904,9.664532796227627,-0.5550074964543796
0,0.654207405750264,4.902649504410636,-1.7654792723094423,3.8030426524306193,-0.5500074289187538
0,-1.695193453582929,1.3212565053364747,-2.836236853608593,1.7115573676883902,-0.5450073613831279
0,-2.884592244102329,-4.460133671344825,-2.0069929234354764,-2.829923048878214,-0.5400072938475056
0,-3.0539889602394084,-5.251521021129712,-3.217747476578871,-2.551398588278088,-0.5350072263118797
0,1.2166164037841785,-3.872905539262238,-1.8085005075850458,1.6771307585705015,-0.5300071587762538
0,4.6872238538805,1.5557127793907721,-0.16925201077152136,3.345665000839488,-0.5250070912406279
0,8.167833395845328,9.354333940164203,7.759998019657709,7.244204147593846,-0.5200070237050056
0,9.578445035034978,6.932957948192305,9.919249589319074,6.912748207531925,-0.5150069561693797
0,11.389058776083269,9.941584808024093,14.11850270323319,13.901297188743273,-0.5100068886337539
0,9.619674622710866,10.14021452341414,7.337757365481887,5.759851098494294,-0.505006821098128
0,6.920292577662755,10.2588470972187,5.577013579129832,3.568409943169281,-0.5000067535625021
0,7.920912642780434,11.347482531320392,2.98627134641545,5.236973728442629,-0.4950066860268798
0,10.111534819094386,12.376120826567972,9.195530668980094,8.09554245945671,-0.49000661849125393
0,6.492159106832922,8.314761982732131,6.864791547909812,7.394116140798408,-0.48500655095562806
0,1.0127855054556985,1.9734059985781378,0.9540539836750948,4.522694776402196,-0.4800064834200022
0,2.983414013848055,1.9920528721368993,-0.7466820237651219,2.00127836958106,-0.47500641588437986
0,0.9040446305603314,5.370702601008231,3.2525835252884843,3.999866923180104,-0.470006348348754
0,0.8746773539424336,-1.3306448175022987,1.9618506304063064,0.6684604397150661,-0.4650062808131281
0,3.6953121821885757,-1.791989386302348,5.421119290971538,4.607058921434669,-0.46000621327750224
0,0.17594911332993507,3.026668891631232,3.610389506067033,6.0756623703045065,-0.4550061457418799
0,-1.633411854758587,-0.36466998668477846,-0.9903387255718201,0.7642707879289017,-0.45000607820625405
0,-9.63277072420538,-7.84600602423567,-7.911065405413247,-1.1771158244377966,-0.44500601067062817
0,-9.57212749681304,-6.507339223825551,-8.621790534765013,-2.6884974656999017,-0.4400059431350023
0,-9.221482173704352,-10.608669587758504,-6.692514114393113,-1.2298741347014879,-0.43500587559938
0,-4.86083475515375,-4.579997117621238,-7.943236144338566,-6.0112458300979625,-0.4300058080637541
0,-0.07018524068829618,-3.8913218142716133,0.5260433760504417,-0.06261255028020368,-0.42500574052812823
0,-0.12953362937219154,-1.972643677995404,-0.3946755520790688,3.106025706609468,-0.42000567299250235
0,-4.25887992006345,-4.023962708687562,0.014607072644413369,-2.495331057475854,-0.4150056054568765
0,-0.018224111480263566,-3.7152789059276965,-2.7261087483414013,-4.60668284056921,-0.41000553792125416
0,1.7424337978082456,-2.72659226896972,-0.8968230135210647,-7.068029640533016,-0.4050054703856283
0,-0.9769061906984402,-1.3579027967471182,-1.5775357212460592,-1.55937145483741,-0.4000054028500024
0,1.7537559244751646,0.5107895120511464,0.611753130265878,0.29929171946883765,-0.39500533531437654
0,5.194420144723271,-0.230515341136232,4.181043542852712,5.037959885556201,-0.3900052677787542
0,-0.3549135287348357,-0.5818173548304952,-0.35966448172568394,0.5266330465393669,-0.38500520024312834
0,0.7957549050972708,-4.433116527507399,-0.9203709418530988,-1.1046887946548756,-0.38000513270750247
0,5.53642544703873,-0.6844128575069238,0.17892416401561007,0.9339943647776329,-0.3750050651718766
0,2.147098097708863,0.024293657025070275,2.6382208374220912,5.3926825275825205,-0.3700049976362543
0,-1.8922271425333024,-4.086996981896473,-4.7524809201092815,-2.0586243036239997,-0.3650049301006284
0,-0.11155027350019925,-0.10828477211369641,-2.4231811070187512,-1.0899261263818727,-0.3600048625650025
0,2.459128704966708,4.560430288658981,4.246120278394883,2.258777061720032,-0.35500479502937665
0,-2.3801902069822614,-0.7308517972961345,-4.884576762052709,-4.4525147368782285,-0.3500047274937508
0,-1.749507009203913,0.5278689721788419,-2.6152722264780865,-4.373801519644648,-0.34500465995812846
0,1.7211782985047417,8.916592599090864,3.6340338871334925,1.6349167161634344,-0.3400045924225026
0,0.9018657164064139,5.565319085166691,1.5433415808875195,2.9236399734854555,-0.3350045248868767
0,4.082555244711109,8.324048431612718,5.142650856781286,9.462368255206163,-0.33000445735125084
0,3.1532468834460246,5.982780638972631,6.041961716521088,5.251101563827763,-0.3250043898156285
0,2.7739406323630575,4.181515707124986,4.221274161392849,6.409839901258827,-0.32000432228000264
0,-0.03536350907321584,3.39025363537074,1.4305881922156347,3.3785832687911874,-0.31500425474437677
0,1.585334458389884,2.0389944225668324,-0.04009619055872407,3.807331667191497,-0.3100041872087509
0,3.3860345338605415,1.1077380672516879,1.9792210133186745,1.9360850968105972,-0.30500411967312857
0,0.37673671628796934,0.09648456775365893,-1.9914601959983758,-3.1351564422891944,-0.3000040521375027
0,-1.7725589955388381,-3.214766077692509,-2.1721398183744136,-3.3563929501327765,-0.2950039846018768
0,-0.9118526028881084,-2.33601387080235,0.16718214640268736,-1.2276244266115182,-0.29000391706625095
0,3.7188558930064923,0.002741186873751411,0.8365056986516759,-1.3488508713917775,-0.28500384953062863
0,4.499566490867412,3.571499093926657,3.645830838707675,3.4199277160180235,-0.28000378199500275
0,3.2302791891849685,3.730259848913807,5.685157566760989,3.188711336106142,-0.2750037144593769
0,0.030993986121596095,3.4790234501644184,2.084485882696211,1.147499989191862,-0.270003646923751
0,0.9017108795828929,0.537789895696421,0.39381578604324835,3.6562936753525337,-0.26500357938812513
0,-2.7875701326376183,-1.5034408167158266,2.2831472760717237,-1.7649076055531236,-0.2600035118525028
0,2.9131509472505313,-2.0446686893760377,3.602480351873963,-0.02610385380419733,-0.25500344431687694
0,5.073874117015508,3.064106275463833,2.921815012331092,-1.2872950697030499,-0.25000337678125106
0,7.284599374213504,6.362884075546579,5.46115125603025,0.9715187464955539,-0.2450033092456252
0,5.205326715952462,3.3416647083866757,6.500489081177646,3.080337594552414,-0.24000324171000287
0,-0.26394386119236435,1.470448171113699,2.1298284855156497,-0.9108385258448648,-0.235003174174377
0,1.7367876389518764,2.1492344605126026,4.889169466316771,-0.9820096151090998,-0.23000310663875112
0,2.687521212337769,0.5180235731390781,3.048512020446536,-2.7431756736599513,-0.22500303910312525
0,-6.531743145196474,-5.3831844945657545,-1.2121438555664132,-3.164336701791863,-0.22000297156750293
0,-0.9110054377868781,0.015610253890140646,-3.3927981653866346,-2.925492699574608,-0.21500290403187705
0,2.2797343306014675,-0.11559218483013223,-3.9734509126316357,-2.3466436668040647,-0.21000283649625118
0,-3.2995238438560537,-3.7767918139101395,-4.574102100659399,-3.3477896029981684,-0.2050027689606253
0,-5.088779964894089,-2.6379886363888576,-4.484751732454062,-4.868930507387213,-0.20000270142499943
0,-0.0980340360520503,1.7008173448893604,2.404600189379315,0.7599336211096298,-0.1950026338893771
0,-2.4672860605998057,0.8996261272222419,1.4539536624676397,-3.1611972161523365,-0.19000256635375123
0,-0.07653604159876298,1.2684377079030313,2.8933086844340563,1.0076769823639014,-0.18500249881812536
0,-1.775783981974518,-0.04274791586394161,0.4426652527441778,-1.7234437816916996,-0.1800024312824995
0,0.934970115448562,1.1360692530412186,0.3620233646948923,1.0854404934014767,-0.17500236374687717
0,-7.974273752046257,-3.7051107883014427,-5.008616982490722,-4.19567019057901,-0.1700022962112513
0,-3.5035155869509578,-1.5862880427602908,-7.259255791465002,-2.3167758317431164,-0.16500222867562542
0,-7.432755391347295,-3.447462513036054,-10.919893064465631,-8.637876427954593,-0.16000216113999954
0,-8.611993166767217,-6.5086342015646705,-6.880528803037494,-7.008971976643988,-0.15500209360437722
0,-3.3712289141072236,-3.529803110414949,-4.391163007925054,-2.1600624746603807,-0.15000202606875135
0,4.489537366308157,3.969030758737506,0.9582043207898003,2.808852081662844,-0.14500195853312547
0,5.860305674387302,5.837867404393267,1.897573183384731,4.6877716961979825,-0.1400018909974996
0,3.5210760098451703,-0.4732931751058034,0.47694358020210115,0.8566963726903061,-0.13500182346187373
0,4.421848371980866,-1.6944509816843158,3.9163155114829133,-0.9743738853562505,-0.1300017559262514
0,7.822622759639788,5.084393982594247,6.605688977263101,9.074560925368159,-0.12500168839062553
0,1.5633991711842565,-0.286758284417713,1.5050639772423504,1.9435008079267637,-0.12000162085499966
0,1.4941776045145994,2.2720922149838128,0.854440510738919,-1.4175542349688885,-0.11500155331937378
0,3.3349580572000006,4.510945478316991,4.8438185767810955,2.9113957991235058,-0.11000148578375146
0,3.4757405265666637,2.349801502868845,4.05319817414645,-0.9496490874695616,-0.10500141824812559
0,3.3465250096684787,-3.2413397143295186,-0.3974206986906448,-1.9506888924703802,-0.10000135071249971
0,-1.5826884967300276,-6.592478176337323,-3.478038043496195,-1.4317236135725586,-0.09500128317687384
0,5.928100003910857,4.5163861139528905,6.1513461378974,4.517246751614276,-0.09000121564125152
0,0.6088905079382084,0.19525315384292713,3.030731843601512,4.796222205446829,-0.08500114810562565
0,1.5096830114764055,5.384122940612288,3.5301190714946378,3.2652027500271057,-0.08000108056999977
0,-1.639522489533622,-0.777004528662852,-1.660492180859931,1.124188387094017,-0.0750010130343739
0,-1.418725999208814,-0.7881292571115788,-3.901101916074869,-2.7168208818879234,-0.07000094549875158
0,-1.3979275216032823,-6.709251247906843,-2.4917101366965047,-5.2878250555054676,-0.0650008779631257
0,-2.357127060640465,-5.100370504012139,-3.0123168450306617,-4.708824132136018,-0.06000081042749983
0,2.5836753798937115,1.6585129719919767,3.457077956865276,5.110181890178991,-0.055000742891873955
0,-3.925520203697112,-5.252600822128792,-5.733525732920948,-6.430806986369725,-0.05000067535624808
0,-2.414713815027338,-2.42371188836169,-4.474127916172392,-4.331790759448581,-0.04500060782062576
0,-6.603905457517605,-1.6848202284421627,-4.434728594392645,-3.0627694264601866,-0.040000540284999886
0,1.5369048657311015,0.7540741561371557,0.9646722312988761,-0.6937429844451555,-0.03500047274937401
0,-4.262282848069997,-1.567028735972597,-4.3659254399083265,-5.784711430135119,-0.030000405213748138
0,-2.6714686014699796,2.57187109393033,-3.0965216085995597,-5.5356747599610525,-0.025000337678125817
0,-0.750652396789995,-4.429226355438676,-3.067116275103064,-6.476632969932656,-0.020000270142499943
0,-8.54983423608872,-9.420321085259468,-6.177709439421239,-9.087586055499433,-0.015000202606874069
0,-3.579014121076374,-5.621413096339616,-6.698301101151223,-6.88853401144088,-0.010000135071248195
0,-3.6981920530068284,-4.402502388886609,-1.378891259399425,-1.6894768318353237,-0.005000067535625874
0,-3.637368032678139,-3.853588962515577,-2.6594799128087123,-0.33041451020526147,0.0
0,-2.746542060508717,-5.5246728163591365,0.19993294029270386,-2.021347039768362,0.005000067535625874
0,2.644285863378453,-0.37575394913082627,0.43934730174058123,3.1577255863830267,0.010000135071251748
0,1.475115738998533,6.8331676407458515,4.368763173399228,6.94680337512959,0.015000202606877622
0,6.3359475662844185,5.282091954820463,5.408180556988929,7.8758863330707,0.020000270142499943
0,7.646781344866893,10.031018994246086,7.847599453878979,11.944974466222831,0.025000337678125817
0,5.747617073871915,9.719948759515312,4.577019864913052,8.804067779781914,0.03000040521375169
0,0.20845475184140339,2.888881250329749,5.926441790342366,8.203166278009167,0.035000472749377565
0,1.7092943768674722,1.4678164656802797,3.2858652298625617,5.112269964274374,0.040000540284999886
0,7.270135946761814,4.046754404094008,5.555290182679732,6.331378841197611,0.04500060782062576
0,10.590979458992415,9.86569506375641,6.074716647535462,10.110492910743101,0.050000675356251634
0,1.2618249104530292,0.834638442406368,-0.22585537729421534,2.789612174206075,0.05500074289187751
0,0.12267229743161301,-1.3064154626974163,-2.0464258938925237,-2.1212633677278823,0.06000081042749983
0,-4.766478384106055,-4.987466654529469,-5.426994904433306,-8.432133714656711,0.0650008779631257
0,-1.4656271381690176,-2.118515135962575,-3.267562410895075,0.17700113397373374,0.07000094549875158
0,1.6552260314229161,1.8004390903799325,-1.5381284149179697,2.6461411790398843,0.07500101303437745
0,0.8060811209735527,-0.6606039779581552,-1.4986929178315707,-0.4547135784314247,0.08000108056999977
0,1.8669381267597993,1.6783556565888345,1.7507440792291913,0.7244368625431858,0.08500114810562565
0,-0.6622029550436015,-2.7026820084445777,-4.4598174247740054,-5.006407497088663,0.09000121564125152
0,3.1586578716371476,4.136283024460639,1.4196225692023936,6.092753343674046,0.0950012831768774
0,-0.18047939722616424,0.05525075278424918,-0.4409359397005653,0.6019193858480313,0.10000135071250327
0,5.390385234199023,8.254221173858886,4.088507047690132,7.051090630287594,0.10500141824812559
0,4.321251761521564,1.06319428472352,1.4479515304477808,1.2002670775280597,0.11000148578375146
0,4.352120180006814,3.022170082044746,3.857397507439696,8.359448727715291,0.11500155331937734
0,8.452990484474673,3.5311485621538496,6.896844977247503,9.25863558051604,0.12000162085500321
0,3.023862669223794,2.010129721097379,4.696293938055194,8.337827634943295,0.12500168839062553
0,0.46473672803518745,1.4291135546551352,3.4157443875569355,3.847024889234435,0.1300017559262514
0,-0.624387345660308,1.8081000583833438,-1.3748036769909049,0.24622734095076781,0.13500182346187373
0,-0.8035095585540448,-2.2229107723149992,-5.115350258548463,-2.2245650127387315,0.1400018909974996
0,1.9573700826634763,1.1460810578972929,-0.26589536001122394,-1.6353521747545718,0.14500195853312547
0,-1.7917484286932739,-4.4049244556153795,-3.416438984047893,-3.996134147900988,0.15000202606875135
0,-1.300865099306359,-0.5059273173768104,0.3430188668966081,1.0930890652207244,0.15500209360437722
0,0.20002006419528745,0.27307246824624315,0.9124781905258711,3.20231746216223,0.1600021611400031
0,0.6109070552531972,0.712074896994844,1.08193898458695,2.6015510404490962,0.16500222867562897
0,-4.268204132644472,-3.1089200353590978,-3.7285987531976197,-1.4192102025672946,0.17000229621125484
0,-3.207313505905437,0.7700876669976113,1.0508649749152679,-0.4499662696778226,0.17500236374688072
0,7.123578929236957,3.8890979999303914,1.5103301667382139,4.799282836277335,0.1800024312824995
0,7.444473166548333,0.7381109592486762,3.9997968200685365,2.3185371123620913,0.18500249881812536
0,8.265369199406189,2.2671265405882286,2.3192649325339523,0.3977965554259695,0.19000256635375123
0,5.636267020526683,1.1761447393960864,3.5687345014946956,3.8170611620864077,0.1950026338893771
0,8.867166621908197,1.7151655509557828,5.028205524002164,2.9263309287502084,0.20000270142500298
0,-0.4519320051165585,-2.4658110295786586,0.2276779967727217,-0.49439414840756335,0.20500276896062886
0,2.968971130266564,-1.1167850070913552,0.6971519162282445,0.5248859265949678,0.21000283649625473
0,2.759876018548895,2.5022436135865753,3.916627278597313,6.7941711496087205,0.2150029040318806
0,1.9907826499908206,4.661274827625125,5.156104079920087,6.083461516257634,0.22000297156749937
0,2.2316910146205586,5.020308630001087,6.665582315909168,5.8927570217233125,0.22500303910312525
0,-3.4173988977254046,0.9693450153386414,-2.2349380181595424,2.4420576606381594,0.23000310663875112
0,0.5435129027225666,1.4983839779170902,1.1545430726443908,1.0613634271640253,0.235003174174377
0,4.004426405754927,4.717425511764517,2.6140255830952595,4.880674315137476,0.24000324171000287
0,-4.894658398855788,-1.8235303893036692,-4.746490492095707,-3.5400096818365165,0.24500330924562874
0,-6.773741521315473,-4.774483731613425,-6.0070051581751205,-8.890688570231497,0.2500033767812546
0,-9.422822971529522,-5.695434521396905,-11.317518420071718,-14.481362356212331,0.2550034443168805
0,-16.061902758734178,-12.066382764484251,-14.268030282032646,-15.07203104511843,0.26000351185250636
0,-9.960980891174367,-7.597328466029996,-9.258540747312638,-4.012694641130352,0.26500357938812513
0,-10.320057375932784,-7.218271630351169,-8.509049818055809,-3.6533531473516376,0.270003646923751
0,-9.969132218967335,-7.6592122609363305,-9.779557495384914,-5.704006566160291,0.2750037144593769
0,-5.778205425240882,1.3898496394261564,-2.0700637795488097,0.4153451005251958,0.28000378199500275
0,-2.9072769988814744,-1.0410859315778738,-5.320568670092764,-1.535298148893025,0.28500384953062863
0,-6.766346943388858,-2.6320189760413797,-5.141072166035565,-4.20593631580357,0.2900039170662545
0,-5.345415261757534,-5.762949495907386,-7.121574265923164,-5.036569401381431,0.2950039846018804
0,-4.074481956474096,-7.753877492818322,-9.49207496774033,-3.0071974064719535,0.30000405213750625
0,0.6764529704477936,-0.76480296794218,-0.09257426882237611,2.382179668433864,0.3050041196731321
0,-2.7826104826849107,-3.6757259219663516,-2.2830721659370097,-2.0384381769425968,0.3100041872087509
0,-7.011672317347663,-6.5966463551967625,-9.253568655462104,-4.859050942783572,0.31500425474437677
0,-6.220732534697341,-5.337564267545987,-7.764063733359484,-6.819658629076894,0.32000432228000264
0,0.4002088645778241,-2.008479658449354,-1.6945573949974033,-1.7702612354209477,0.3250043898156285
0,-1.0488481197985047,-2.3393925269009705,-3.9650496351558564,-1.5508587609813311,0.3300044573512544
0,-0.9479034878919637,-5.4403028715614585,-2.6555404481947864,-5.561451204592143,0.33500452488688026
0,-5.716957239643882,-6.74121069075086,-6.076029828139126,-5.652038564776268,0.34000459242250614
0,-0.24600937479726093,-2.6921159823409613,0.8234822313330434,-3.852620839643617,0.345004659958132
0,-4.615059892822469,-4.0530187437201395,-1.7270042631551674,-3.5831980268372563,0.3500047274937508
0,-0.9241087929179781,1.5860810281077438,-0.2674893048028815,-1.973770123588729,0.35500479502937665
0,-7.223156074006381,2.325183336340786,-3.4079728867019723,-5.154337126791044,0.3600048625650025
0,-4.802201734657515,-0.8857118158170176,-8.888455001760365,-1.7948990330178298,0.3650049301006284
0,-0.7712457730052098,1.2133955747536131,-0.9289356425223587,2.594544161443181,0.3700049976362543
0,0.199711813191279,-0.7074944888871828,-0.6894148010961475,4.843992460414788,0.37500506517188015
0,0.3306710263550563,1.3416179962928172,-0.77989246929724,0.8734458675768488,0.380005132707506
0,0.9116318689360868,1.6007330332851901,-0.010368638820171194,-2.527095613625946,0.3850052002431319
0,1.7925943433392537,3.549850624981738,2.8891566986741073,2.9823680201289564,0.39000526777875777
0,1.8135584518719026,-0.041029225898818245,3.4986835514565633,4.001836772108532,0.39500533531437654
0,1.424524196699063,1.3680934831781921,0.1882119276112807,2.981310645411347,0.4000054028500024
0,-0.47450842016173134,0.33721875461717665,-1.1122581649735603,3.370789642839743,0.4050054703856283
0,2.3864606031972957,-1.4136534092474218,1.647273281497599,0.95027376688341,0.41000553792125416
0,-1.3625687313945865,-3.0945230060734086,2.2368062747813537,-2.160236980198063,0.41500560545688003
0,5.338403577808504,-2.4953900333929298,-0.47365917745154873,0.2192574037714081,0.4200056729925059
0,-0.19062246758198065,-3.1362544885128085,-2.1441230676208063,-1.5812430789925547,0.4250057405281318
0,-2.9796468661082582,-5.717116368453656,-5.624585388106857,-3.2817384261773723,0.43000580806375766
0,-2.0986696163417053,-4.077975669877757,-2.7650461310601124,-4.812228635295156,0.4350058755993764
0,1.422309283269577,1.4711676109432856,0.49449471169391646,-1.5527137035747691,0.4400059431350023
0,3.9932898343689636,1.2203134780019458,3.964037148544576,-1.6731936279314832,0.44500601067062817
0,2.11427203850703,2.559461935325759,4.593581187840206,-1.6536684050360155,0.45000607820625405
0,5.93525589697887,-0.3113870131738009,3.643126837655097,3.605861968587542,0.4550061457418799
0,6.176241410714413,3.6477666362680705,5.62267410567327,5.515397496404213,0.4600062132775058
0,13.037228580121244,10.476922887205022,11.622222999101968,12.164938181589594,0.46500628081313167
0,8.158217404856657,7.376081742749566,8.891773524489198,9.224484026687408,0.47000634834875754
0,4.599207883688668,4.745243205335903,5.791325687547539,7.17403503337276,0.4750064158843834
0,4.040200014595385,5.634407276701674,8.090879493157203,5.023591202448221,0.4800064834200022
0,7.081193794967578,3.3435739580102166,6.010434945465944,8.473152533982203,0.48500655095562806
0,7.2321892216701675,1.2227432499697084,6.289992047946132,0.8527190274168611,0.49000661849125393
0,7.213186290963018,6.321915152931847,10.359550803402062,3.682290681675749,0.4950066860268798
0,3.7041849984465385,4.161089666908548,3.2091112139408127,2.5518674953090636,0.5000067535625057
0,8.385185339097209,9.040266791474417,7.268673280978881,3.4214494665773123,0.5050068210981316
0,4.526187307304787,2.369446525656041,2.8882370053303563,3.0610365934508597,0.5100068886337574
0,5.95719089687195,2.6986288679358417,3.077802387313549,3.3006288735959743,0.5150069561693833
0,-0.22180389893433083,2.4078138163837743,1.0473694268633555,5.560226304353886,0.5200070237050021
0,1.399202912771052,1.9670013687878982,2.7169381236456465,4.159828882689347,0.5250070912406279
0,-1.9997886753134266,2.4761915227052813,1.0765084771227564,0.2294366051620913,0.5300071587762538
0,-0.26877867052070425,2.205384275472192,-0.3139195134107583,0.1490494680180392,0.5350072263118797
0,-0.9777670801311651,0.10457962421764927,-0.7343458487601146,3.2086674673364017,0.5400072938475056
0,2.303246088634732,1.8237775659041682,3.815229470232873,5.58829059904774,0.5450073613831314
0,3.6142608285328848,2.992978097358999,4.834806442631928,7.00791885878181,0.5500074289187573
0,4.965277132142305,5.98218121521752,4.1043850672384945,8.5575522416623,0.5550074964543832
0,4.9262949917087395,4.611386915786964,6.093965342451914,5.987190742156468,0.5600075639900091
0,5.687314399040192,6.990595194917172,6.63354726619184,11.166834354000608,0.5650076315256278
0,5.468335345449889,4.399806047928733,3.243130835844656,6.796483070147786,0.5700076990612537
0,2.8093578217427475,1.139019469623837,2.8327160482848184,4.726136882751122,0.5750077665968796
0,-3.209618181693349,0.7482354544136405,1.6923028999903755,3.1757957832724912,0.5800078341325055
0,-4.098592674637698,-2.1625460034872424,-2.2181086128111516,-0.8845402373041567,0.5850079016681313
0,2.3324343332312574,-0.6133249098897124,-0.07851849398831517,3.035128811735636,0.5900079692037572
0,-1.216537167603284,-2.234101270522081,1.4510732526060148,1.684802920948342,0.5950080367393831
0,2.644492813389546,1.3751249090037314,4.5506666231024795,8.134482080691189,0.600008104275009
0,8.125524266639086,5.024353623121467,2.870261613465828,3.534166280971882,0.6050081718106348
0,5.366557182263224,1.9935848661383029,3.149858219370659,4.093855511330289,0.6100082393462536
0,2.357591549880894,-1.917181367878932,-0.9905435638035962,-0.026450239130663578,0.6150083068818795
0,3.9686273586193765,0.5920549149761978,2.699056259117509,1.6432490183975763,0.6200083744175053
0,2.1996645972296935,-1.0087062914072797,2.098657683171932,0.9229532725577181,0.6250084419531312
0,-0.08929674582502345,1.2805350068893424,1.7582607032421633,0.4826625118824952,0.6300085094887571
0,-2.888256682253531,-0.03022119621215158,0.9978653140254318,2.222376724805935,0.635008577024383
0,-2.80721522375151,-0.8509749068098158,-1.4125284899284933,-2.1879041003288306,0.6400086445600088
0,1.7738276181373258,3.6882738689725887,3.8170792858492915,3.961820024751978,0.6450087120956347
0,5.744871831964423,8.967525124890892,2.3066886357372502,4.111549088223425,0.6500087796312535
0,1.2759174061546061,4.90677885433888,5.096299553915562,0.6612830780514556,0.6550088471668793
0,-3.9530356711101327,1.0360350501723699,-1.8840879657168568,-2.4389780180326834,0.6600089147025052
0,-5.5819874117148665,-2.0047062951859687,-2.34447392946651,-4.9292342123565165,0.6650089822381311
0,2.579062172653826,2.474554810508301,6.275141656309688,0.11051448291963817,0.670009049773757
0,-1.269886929453203,-2.816181640525271,-2.3852412147830178,-5.059731944101072,0.6750091173093828
0,-3.8088347293653695,-3.056915656027847,1.3043774507501489,-3.409973505040469,0.6800091848450087
0,2.1122187616856447,1.312352756380645,1.2139976463133626,-1.4302102112167812,0.6850092523806346
0,0.7332735325663782,0.21162358921222035,1.7636193652427468,-3.3604420736455882,0.6900093199162605
0,-0.9256704278454682,-0.7891031649777844,2.5832426007541627,-1.5806691030851208,0.6950093874518792
0,-0.9546131306987642,-5.869827513600148,-5.167132654069915,-6.98089131003406,0.7000094549875051
0,-1.2035545871088311,-2.260549463893329,-1.7275064061553338,-6.651108704632454,0.705009522523131
0,1.5275051918820126,2.5987309771758853,-1.5778786622612149,2.068678703442929,0.7100095900587569
0,-5.2414338047009394,-8.15198619714271,-9.608249428876508,-7.761529095064979,0.7150096575943827
0,-6.240371587687525,-6.552700993365061,-6.4286187120858855,-9.171732109039802,0.7200097251300086
0,1.3906918323975568,1.8965865823892862,2.7910134825654382,6.528069653092346,0.7250097926656345
0,0.841756445336787,2.6158765243606203,3.9606471499186067,6.697876183216795,0.7300098602012604
0,-0.15717775897366593,-8.804831173080895,-4.65971771514024,-5.1723125268804315,0.7350099277368791
0,2.8138892093224825,-6.8955365154105674,-2.900081117767297,-11.612496485564453,0.740009995272505
0,-5.905042659974542,-12.536239507613075,-9.650443062932682,-11.122675700863836,0.7450100628081309
0,-2.0539733770119186,-11.136940153849618,-4.56080355514838,-13.492850179944854,0.7500101303437567
0,2.197097048247645,-8.557638457278607,-8.70116259831085,-9.733019928865133,0.7550101978793826
0,2.0781686059771656,-6.8283344200544915,-2.4115201956706858,-6.2831849525728165,0.7600102654150085
0,7.279241286260274,-2.6290280434891273,0.5981236500642311,-5.303345255078898,0.7650103329506344
0,8.250315078836387,-1.7197193282944492,0.35776893649703223,-4.81350083968707,0.7700104004862602
0,-2.3586100270716823,-6.360408274787243,-6.252584338649934,-9.643651709119325,0.7750104680218861
0,-1.757534042664152,-5.951094882924806,-4.452936177487894,-7.18379786547564,0.7800105355575049
0,-3.396456979236856,-6.211779152191382,-6.82328658176207,-13.193939310099047,0.7850106030931308
0,-7.425378847886447,-4.682461081508829,-11.713635552667451,-11.734076043413332,0.7900106706287566
0,-5.324299659314934,-9.86314066921431,-5.72398309068315,-10.024208064779597,0.7950107381643825
0,-3.8632194237064716,-5.113817913015112,-2.5243291955124145,-3.7943353724985682,0.8000108057000084
0,-3.602138150733479,-6.3844928099430005,-7.504673866215401,-5.024457964015227,0.8050108732356343
0,-2.1610558496513392,-4.365165356392204,-5.995017101330129,-3.3045758361783233,0.8100109407712601
0,2.780027470578454,-1.7858355482218888,-1.2353588988705997,3.1353110145620193,0.815011008306886
0,0.9111118011111864,-0.6365033808978968,-3.7756992563807015,3.9652025919213076,0.8200110758425119
0,0.28219713305135397,-2.5871688496444096,1.383961828916089,2.2250988995012984,0.8250111433781306
0,5.133283457377403,4.542168050443094,5.363624359934371,8.254999940598374,0.8300112109137565
0,2.3343707648790457,0.09150732427889995,-2.396711660478333,2.8849057180934063,0.8350112784493824
0,0.045459046089182664,-2.8591510233067385,-0.8470462296176244,3.41481623439633,0.8400113459850083
0,-1.863451708661101,-3.0698069874932408,-0.22737934480858335,0.02473149151379117,0.8450114135206341
0,0.3876384909123112,-5.600460563276816,-4.307711003287891,-1.455348508784621,0.85001148105626
0,-1.511270364853623,0.36888825466182246,-3.5180412021223666,-3.7954237647722255,0.8550115485918859
0,-2.7501782855377512,-7.141760528026873,-3.4083699381043537,-0.5154942745951068,0.8600116161275118
0,0.7809147194006938,3.5475930946014995,4.141302792266375,4.774439963758005,0.8650116836631305
0,3.552008640596389,3.2469491286710896,-0.3890230073720258,0.8743789522970284,0.8700117511987564
0,0.2631034686438908,1.9863075802571288,-0.8493473334136123,-0.755677307123637,0.8750118187343823
0,-0.34580080599863705,-0.014331544775070787,-2.9496701822796894,-0.035728812776039176,0.8800118862700081
0,-0.12470419296494806,-0.024968240732971318,-0.7299915503000225,-0.49577556295108305,0.885011953805634
0,0.986393298093147,2.404397497994434,-0.5603114336523418,2.424182444072029,0.8900120213412599
0,1.1374916575039302,-2.486234323036076,-1.770629828386343,1.6241452099687814,0.8950120888768858
0,-3.2814091244425363,-4.53686369826688,-2.780946730435426,4.6741127362704376,0.9000121564125116
0,-2.4603090574265045,-5.56749062196334,-2.651262135566364,-1.1259149757141709,0.9050122239481375
0,-2.6892081509654795,-6.158115088006236,-4.091576039308368,-2.775937924856859,0.9100122914837563
0,0.5418935856479785,1.8912629101911584,1.6281115630744554,2.224043889942023,0.9150123590193822
0,-2.4170038566992083,-1.0593566204359588,-1.7121993234802895,-0.2659695301702206,0.920012426555008
0,6.364099512961013,3.4900263271669716,5.817491306027611,5.5440218159199475,0.9250124940906339
0,6.135203685495498,2.089411759986965,6.057183456467603,4.724017929134582,0.9300125616262598
0,-1.9836913485429677,-4.391200315126399,0.06687713238051984,1.4940188100619907,0.9350126291618857
0,2.95741440106428,0.3781901086263104,-2.4134276620322495,3.5340244589268304,0.9400126966975115
0,0.8885209243427998,-1.3824169618680244,0.6362690773002008,-0.2159651243346612,0.9450127642331374
0,3.569628211177646,1.7469784803809016,4.665967354454555,7.104050059981737,0.9500128317687562
0,2.1007362512619725,6.2363764423509265,3.005667173410658,5.484070011286587,0.955012899304382
0,1.7318450340568545,6.185776930797838,5.675368537869388,4.274094728555017,0.9600129668400079
0,-0.667045451183556,3.9651799520408293,3.0450714511475927,4.384124210259401,0.9650130343756338
0,-0.7859352153203099,-0.0154144880859808,-3.7952240837978706,-3.145841545548279,0.9700131019112597
0,-6.154824269188442,-1.3160063840733998,-4.615518064157338,0.9941974589566371,0.9750131694468855
0,-7.49371262339303,-0.5565957305105144,-4.615810486950731,0.34424122155484405,0.9800132369825114
0,3.5473997118697245,6.142817478014041,4.683898651128408,5.934289739995989,0.9850133045181373
0,1.5085127267362928,3.6722332467921617,4.6436093535483005,3.3843430118470423,0.9900133720537632
0,0.5496264113937611,0.6816515808193704,3.7233216236108566,5.444401034328262,0.9950134395893819
0,-0.019259244080200855,-1.0689275151992639,1.9130354642600524,1.624463804247109,1.0000135071250078
0,2.5518557502988046,3.260495963295793,5.802750878080351,4.914531318024145,1.0050135746606337
0,6.462971384391608,0.9599220207788702,5.852467867290468,7.0246035717049695,1.0100136421962596
0,0.13408764780501742,1.6293506615938427,5.132186433654099,3.0046805608935676,1.0150137097318854
0,-1.1547954701487586,1.038781889930616,-1.3780934215483598,0.12476228073387885,1.0200137772675113
0,6.436322019653747,9.218215709794926,3.9016283026079495,8.134848726006554,1.0250138448031372
0,3.687440106156346,3.867652124860904,1.5113516068334116,0.11493989117290848,1.030013912338763
0,-1.1914412219875157,-0.5629088616597927,-2.828923508321385,-5.004964229596564,1.0350139798743818
0,1.1196780236133588,-1.4734672469051076,0.22080295761988863,0.49513635778434917,1.0400140474100077
0,-3.359202168742066,-1.2340230280993094,-2.039468994816663,-0.4547583524766601,1.0450141149456336
0,1.5619181892832759,2.575423797591764,2.150260634983314,-1.1646483660508917,1.0500141824812594
0,-3.1069609138902545,1.8048732330129138,-6.400008152292932,-3.6445336885241026,1.0550142500168853
0,-5.885839489712569,-0.8956747190846781,0.1797246441664274,-2.4244143253276618,1.0600143175525112
0,-0.31471754939260366,0.603779943947345,2.0694590253500325,0.10570971832954534,1.065014385088137
0,-6.013595103813983,-4.466762775257245,-4.130805007642474,-9.124161562524094,1.070014452623763
0,-3.7624721635169234,0.14269712603199805,-1.7410674536412947,-0.08402817255982542,1.0750145201593888
0,-2.9613487386690895,1.012159650689949,-2.4813283113197198,-2.733890116085101,1.0800145876950076
0,0.6197751609162333,-0.46837519833056573,-2.701587579122546,4.456252602857049,1.0850146552306335
0,1.040899525640525,1.48109258191244,-0.8918452552652103,9.14639998021672,1.0900147227662593
0,4.542024345924766,5.790562994281247,2.9978986622100776,5.526552011591823,1.0950147903018852
0,1.6531496120340823,3.390036041427611,-1.762355824687738,2.536708692004307,1.100014857837511
0,4.104275313973403,2.889511725658431,-1.0226087139718711,0.3668700159604749,1.105014925373137
0,4.865401441440714,4.9489900489062295,2.747139996349413,4.367035977648088,1.1100149929087628
0,1.836527983786533,4.298471012733528,3.006890308244663,5.697206571005159,1.1150150604443887
0,0.20765493002768765,4.047954618301631,0.49664222354149007,3.6873817896244887,1.1200151279800146
0,2.528782268949885,5.72744086634327,3.266395743864975,5.407561626659536,1.1250151955156333
0,3.3599099891749358,2.8369297571519256,0.7661508706479337,1.3577460748236692,1.1300152630512592
0,0.9310380791285249,-1.0035787093760653,-0.7540923948406175,-2.3820648735101764,1.135015330586885
0,0.4721665270251967,3.265915466392605,0.40566594857367233,-0.7718712261101182,1.140015398122511
0,2.4132953209220815,2.1254122839313583,-1.934574097943932,2.1183270092826154,1.1450154656581368
0,-4.295575551216512,-7.035088257407349,-4.894812533152363,-6.271470175008694,1.1500155331937627
0,-4.814446101398054,-7.635586158204357,-4.3650493555994485,-1.8412627865408098,1.1550156007293886
0,-3.4633163413959314,-1.2060814186618933,-2.055284563490702,1.688949167346109,1.1600156682650145
0,2.3978137173515686,2.4234259614696656,3.1844818452894192,3.269165679458088,1.1650157358006332
0,-0.46105593637933706,0.8129359826489544,-3.1057501269910044,-5.340613257424562,1.170015803336259
0,-3.7799253137522237,-2.767551354681085,-4.735980477999126,-3.120387650522089,1.175015870871885
0,-4.1987944258333405,-4.868036050061868,-5.036209205207677,-5.810157506837918,1.1800159384075108
0,-3.0876632834333013,-5.308518102817368,-8.506436305685739,-7.039922832967123,1.1850160059431367
0,-5.706531897004568,-1.2789975118942238,-4.2266617759512854,-2.839683634995127,1.1900160734787626
0,-0.8654002766173565,2.860525724103977,-0.8568856119519473,1.730560081468545,1.1950161410143885
0,-0.3942684320089741,3.3000516066894927,4.032892190753169,4.280808311057138,1.2000162085500143
0,-0.1031363727174689,2.0795801372405833,-0.6773283633031216,-2.3089389516378653,1.2050162760856402
0,-4.422004108180903,-1.050888683091252,-2.1675472696590132,-2.4986817121344913,1.210016343621259
0,-2.620871647695352,1.3586451466891634,0.5322354761285951,-0.20841997591926176,1.2150164111568849
0,-2.1797390003131065,1.4181816275028976,-3.277980121419117,1.4918462516387287,1.2200164786925107
0,-2.808606174812336,-0.09227923979971059,0.95180594233057,-0.11788303478252982,1.2250165462281366
0,-3.2274731797128724,3.8472625455321605,4.441593672080113,4.592392159435475,1.2300166137637625
0,-3.4163400232633285,1.0368069841097924,-3.1586169275151548,-0.9173281712257733,1.2350166812993884
0,-0.3652067134274768,1.6663540763620723,-1.0088258518822708,-1.2770440324283399,1.2400167488350142
0,-1.5640732579301302,0.7259038225420625,3.72096690355502,-1.006755429875173,1.24501681637064
0,0.507060335654989,6.695456222734753,5.210761343337382,6.783537630755568,1.2500168839062589
0,3.978194059804536,7.06501127674567,2.1105574717736086,4.943835143663438,1.2550169514418847
0,-0.11067209307932263,1.5245689839265497,2.9203552928285217,0.814137102707492,1.2600170189775106
0,-3.1995381307203217,-1.0058706568272837,4.420154810142247,5.604443501352935,1.2650170865131365
0,-5.618404060826064,-3.656307646842368,-2.780043972925589,-1.365245667254519,1.2700171540487624
0,1.0227301091218302,2.7932580125834923,2.489758946791759,-0.5449304101872927,1.2750172215843882
0,-3.7961356280762004,-0.08717367976637752,1.4795635723674931,1.0953892653973853,1.2800172891200141
0,-6.0950012793713695,-3.3076027250931124,-8.090630093162057,-4.474286647638408,1.28501735665564
0,-4.183866851392795,-7.258029124515795,-1.5408220466519427,-9.943958156281234,1.2900174241912659
0,-3.9827323503349064,-6.088452878833587,-8.211012284625383,-5.5936252671016105,1.2950174917268846
0,2.3784022180150237,1.8711260116371857,1.7287991968281977,2.976712013913736,1.3000175592625105
0,3.1695368480768322,3.4607075469330892,-0.5213875980328841,-2.112946318807885,1.3050176267981364
0,0.9206715342232057,3.5502917271087684,1.5284273351993127,-0.13260027069872726,1.3100176943337623
0,0.09180627065449032,3.799878551974342,1.8982440009108368,-0.6422498471454305,1.3150177618693881
0,4.472941051416096,5.769468020986998,4.158062403362572,0.7981049465144819,1.320017829405014
0,5.164075870368011,5.659060133182625,3.6378825465886155,4.868464104933944,1.3250178969406399
0,9.835210721013636,11.588654887063777,9.917704434266643,11.308827622565794,1.3300179644762657
0,8.156345596268684,9.968252280419852,5.2575280695551,10.139195493332352,1.3350180320118916
0,4.717480488309584,4.457852310174035,5.437353454975145,5.399567710339653,1.3400180995475104
0,3.8486153886053023,2.127454972447282,3.687180592437334,5.339944265854319,1.3450181670831363
0,9.749750288041106,7.687060262785679,6.857009483333657,9.730325151440809,1.3500182346187621
0,2.050885176946964,1.4366681762925475,3.5568401285683486,5.120710358006906,1.355018302154388
0,1.4320200451159781,4.026278707651895,4.836672528556247,5.691099875782919,1.3600183696900139
0,-3.04684511801107,-2.5441081487875183,-1.7534933167143278,-4.188506305570542,1.3650184372256398
0,-2.9357103230629926,-0.5344923988404451,3.866342592459106,-1.5281081966733567,1.3700185047612656
0,-10.384575580469962,0.20512595167610947,-1.763819744379798,-1.377705808116521,1.3750185722968915
0,-5.093440900205318,0.4047468969947893,1.216019672220199,-0.0972991503340126,1.3800186398325103
0,-3.3423062916288107,2.0343704313469098,4.96586084163145,-4.036888233619463,1.3850187073681361
0,-0.6111717635582229,7.253996548853656,4.935703763050305,2.733526931861467,1.390018774903762
0,-3.6600373244648314,6.793625243332655,-2.204451564633922,2.7339463360180343,1.395018842439388
0,1.8610970173926231,8.803256508065688,8.27539485716277,6.3843699686531465,1.4000189099750138
0,11.412231253809493,13.212890335602264,13.955243026667961,18.59479781915916,1.4050189775106396
0,6.903365376286088,7.5225267175933705,8.535092941438794,10.995229876092393,1.4100190450462655
0,1.4844993757056568,4.852165644738758,5.1249445980955,7.715666126842785,1.4150191125818914
0,1.6256332423640525,2.031807106957567,2.674797992415214,0.25610655771775437,1.4200191801175173
0,0.1067669662249493,3.7414510936558067,3.834653119606554,9.256551154299173,1.425019247653136
0,-2.692099462871744,-1.5489024060804542,-1.1954900254824192,1.9169999016676416,1.430019315188762
0,-9.550966055014786,-4.399253403316239,-8.475631448159344,-5.122547215503149,1.4350193827243878
0,-2.2398328199610726,-2.88960190903882,-0.2057711535902219,0.7579097872837888,1.4400194502600137
0,-2.0786997669862863,-5.269947933957276,-1.715909146610207,2.3483708945766972,1.4450195177956395
0,2.862433094997638,-2.330291488416189,0.6439545682046031,0.6988360909477693,1.4500195853312654
0,3.663565757175551,0.5093674175832723,2.533819986366294,-3.9906946390966196,1.4550196528668913
0,-3.6853017893748037,-5.940971225705271,-7.576312896609115,-7.680221310993492,1.4600197204025172
0,-3.0541695536583378,-2.3713074277989135,-5.546444085085129,-2.3097439398641177,1.465019787938136
0,-5.263037544545438,-7.401641197893085,-1.4865735830699942,-5.0192625403697635,1.4700198554737618
0,2.278094229386812,-1.2219725447673784,-1.706701394153704,-2.6887771267371745,1.4750199230093877
0,0.5192257597916307,-1.9223014767956434,-0.9668275216432964,-3.938287712817565,1.4800199905450135
0,0.560357038369977,-3.602628002043521,-6.446951968650719,-9.267794312075072,1.4850200580806394
0,0.7914880567616254,-2.7429521283274285,-0.8270747380399135,-1.9972969374961034,1.4900201256162653
0,-1.817381193448711,0.2567261367875661,-1.0071958323791674,0.21320439843100936,1.4950201931518912
0,1.4337492793136173,4.09640678590462,-0.07731525401865424,0.5337096835321724,1.500020260687517
0,1.2448794666243703,2.4760898115915415,2.062566994776967,2.6142189057016556,1.505020328223143
0,3.99600935999167,5.025775206185998,3.3424509117048533,0.41473205275488023,1.5100203957587617
0,-0.4328610492404139,-0.4445370382857923,0.32233649431143996,-0.3647508876100536,1.5150204632943876
0,1.9982682300858134,0.9151530699388173,3.232223739943846,1.6157700722215134,1.5200205308300134
0,7.859397188942207,8.12484552242951,5.342112645732154,8.216294919762362,1.5250205983656393
0,6.750525817981457,7.824540310457256,7.942003208481779,10.706823642207484,1.5300206659012652
0,2.3116541073447197,4.754237424757231,6.361895424490175,5.797356226118339,1.535020733436891
0,1.0827820466599447,5.293936855427312,3.9017892894362314,5.207892657282678,1.540020800972517
0,-0.6560903747637905,1.8736385920113328,0.7216847984411003,3.088432920819849,1.5450208685081428
0,-0.23496316773703596,-0.6466573763453309,0.651581946258599,-2.2310229986087733,1.5500209360437616
0,-3.8738363430574836,-3.346951060687444,-4.558519272505693,-3.3304751165423596,1.5550210035793874
0,-7.602709911364416,-9.427242471975173,-5.718618863165491,-9.969923448403483,1.5600210711150133
0,-4.151583882935211,-5.947531620776195,-5.838716830713451,-5.879368009178939,1.5650211386506392
0,-7.92045826752441,-9.237818517027456,-6.348813179645473,-9.438808813196268,1.570021206186265
0,-4.339333074307204,-6.998103169931041,-4.228907913896765,-5.1582458740438355,1.575021273721891
0,-6.028208311879437,-11.228385587910532,-7.239001036846604,-7.92767920458717,1.5800213412575168
0,-3.057083988294909,-7.698665778552471,-1.6190925513434589,-5.407108817012183,1.5850214087931427
0,-5.615960111124785,-7.238943748575046,-1.4591824597814582,-5.196534722868558,1.5900214763287686
0,-2.6048366875027464,1.2407804960696076,1.3207292357339724,0.534043066839275,1.5950215438643873
0,-1.0937137241758754,-4.509493050053118,1.2106425331946538,-0.9953754585302317,1.6000216114000132
0,1.837408772374588,-2.109764392077459,-0.019442569439800383,-0.8347903094495244,1.605021678935639
0,-0.3814692042373946,-2.0000335348954414,-0.8495260742716435,-3.4842014962944017,1.610021746471265
0,-3.130347660394267,-8.18030048312123,-4.439607983392203,-8.203609029254437,1.6150218140068908
0,-1.059226602419837,-3.8605652409943714,-2.399688298745962,-1.82301291815455,1.6200218815425167
0,-0.0981060364991318,-4.0508278122754975,-2.2797670220221176,-2.772413172368915,1.6250219490781426
0,0.3430140313005264,-2.571088200258396,0.7401558453421255,1.5181901990741848,1.6300220166137684
0,9.064133594896619,5.9686535920811465,6.250080302022183,5.758797187269954,1.6350220841493943
0,6.775252647940705,2.3983975618234785,2.9000063465667316,4.089407783171714,1.640022151685013
0,3.6263711835588586,-0.2018562941389922,2.3399339772071266,3.600021977380964,1.645022219220639
0,4.067489194293399,5.9878920208372834,2.1798631918418057,1.9606397601004604,1.6500222867562648
0,3.8586066722116543,3.4876425031414087,2.2997939881080183,-0.1587388787798385,1.6550223542918907
0,9.369723608951803,5.277395148817127,7.359726363387891,2.151886050436688,1.6600224218275166
0,7.260839995617517,5.127149953476272,7.879660314685023,3.4125145373094368,1.6650224893631425
0,6.86195582263286,9.656906912233113,6.339595838434421,5.603146571194074,1.6700225568987683
0,14.82307107964779,12.71666601955207,12.709532930358268,14.393782141046035,1.6750226244343942
0,13.504185755384306,13.33642726899704,14.019471585315612,11.594421235098714,1.680022691970013
0,11.45529983741339,8.206190653026294,11.399411797088097,7.5650638405740604,1.6850227595056388
0,15.436413312036573,11.615956162971882,9.709353558260403,11.255709943633391,1.6900228270412647
0,11.577526164271978,8.16572378913131,5.779296860310426,5.306359529484919,1.6950228945768906
0,4.118638377905062,1.0054935208917637,4.699241693829082,1.2370125825343288,1.7000229621125165
0,-0.41025006424458343,-1.7947346530042667,1.7691880487651068,8.50766908659136,1.7050230296481423
0,-0.8991391798684971,-3.8649607440532847,-3.210864085327795,-0.23167097498291156,1.7100230971837682
0,-3.3680289867716113,-2.595184763650613,-1.050914719025572,-1.201007619187871,1.715023164719394
0,-0.8869195026534724,4.494593277023194,-0.8209638628279967,3.1696591367812212,1.72002323225502
0,-2.2758107450311114,-0.19562663312105588,1.1189884728841508,0.37032927564690155,1.7250232997906387
0,-2.414702731231204,-1.4058445052366046,0.24894227777645922,-0.7889972199572244,1.7300233673262646
0,-1.2735954783889407,2.163939649457955,0.10889754149330833,1.75167963252723,1.7350234348618905
0,-5.3624890034265205,-1.976274180268025,-3.081145746336183,-1.4876401843741798,1.7400235023975164
0,-3.4813833229954465,-4.796486005611313,-1.7311875960141552,-5.91695668811059,1.7450235699331422
0,-4.320278453394213,-2.11669583761109,-2.441228017677348,0.5437301040257251,1.750023637468768
0,-4.8791744105212675,0.5030963129521664,0.4187329787320009,0.59442017496761,1.755023705004394
0,-4.728071209851901,1.122890435485044,0.24869538341003983,-2.0448864922208188,1.7600237725400198
0,-5.216968866410037,-7.387313480525853,-4.371340813371822,-5.09418991439366,1.7650238400756386
0,-0.8258673947697062,-2.1075154454415315,-4.091375621215258,-4.733490108195179,1.7700239076112645
0,-2.2147668091358166,-2.387715469317813,-4.281409049445167,-3.282787089901981,1.7750239751468904
0,-4.123667123448381,-6.4779135618628265,-0.8914411070223436,-5.572080875367813,1.7800240426825162
0,4.2474316485601395,-0.2981097324415738,0.9085281973912231,1.4986285199468514,1.7850241102181421
0,4.438529493236141,2.3316960098815382,6.048498855236316,3.8693410808334443,1.790024177753768
0,2.6796263967605505,-3.7684963438085006,-1.7615291421682469,-0.679943207905567,1.7950242452893939
0,1.160722345001496,-2.698686802357077,-2.641555803682307,-2.8892243615775803,1.8000243128250197
0,2.7018173235504404,3.4911246255177266,-0.8415811381847438,-2.4285023954833598,1.8050243803606456
0,5.112911317767478,4.750937931159964,4.938394845538554,5.3322226752015975,1.8100244478962644
0,2.714004312728189,1.9907531057469727,4.998372138656801,1.5829508353254658,1.8150245154318903
0,4.235096293156831,4.770570140136497,1.6983507320633635,3.393682069559217,1.8200245829675161
0,2.806187243417157,4.190389024834921,4.608330616284418,3.0044163622998923,1.825024650503142
0,6.267277147514553,2.9002097499772184,7.21831178147619,4.645153697648263,1.8300247180387679
0,4.048365989055181,4.630032305318263,5.598294217344911,4.885894059360181,1.8350247855743937
0,5.149453751191757,4.769856680234027,3.3082779130540674,3.3466374307884776,1.8400248531100196
0,1.9605404166225036,1.5596828637095794,3.7382628572555205,8.40738379484351,1.8450249206456455
0,4.3416259676464,1.3795108443790705,4.808249038179696,5.588133133927329,1.8500249881812714
0,0.39271038623279036,-0.3506593893563892,-2.981763556293134,1.3288854298796169,1.8550250557168901
0,-2.2762063458824766,-4.310827849177994,1.7582250614923853,-3.2703593359017464,1.860025123252516
0,-2.895124247022583,-4.610994546664463,0.1282148791171237,-0.6096011821715128,1.8650251907881419
0,-0.6740433353887354,2.978840506857514,0.6582058841339032,-1.4688401276072591,1.8700252583237678
0,-6.242963628969136,-2.18132269972271,-2.8918019359322393,-6.788076190715827,1.8750253258593936
0,-5.741885145455921,-7.141484177389308,-6.271808593485485,-7.887309389702324,1.8800253933950195
0,-4.09080790211439,-1.9916439369051764,-0.9218141006828857,-2.676539742276052,1.8850254609306454
0,-8.759731915691033,-7.63180198864255,-7.9218184693152764,-7.1557672655750935,1.8900255284662713
0,-8.468657202340172,-4.241958342501906,-5.971821710740225,-6.934991976189904,1.89502559600189
0,-5.867583777519653,-4.2621130078837695,-3.9218238357959923,-1.7842138901567597,1.900025663537516
0,-7.49651165595126,-4.692265993703402,-5.781824854773449,-3.773433023001415,1.9050257310731418
0,-8.155440851650633,-1.772417308445522,-3.601824777463829,-0.9226493898747379,1.9100257986087676
0,-4.614371377938329,-0.5425669602473331,-2.411823613212908,-1.1518630056743744,1.9150258661443935
0,-6.153303247469099,-1.9727149570158806,-6.291821370973184,-10.37107388507042,1.9200259336800194
0,-6.062236472297939,-1.3228613065106232,-6.241818059294901,-5.260282042360851,1.9250260012156453
0,-8.011171063896805,-0.31300601636070713,-4.0118136862413944,-4.629487491274999,1.9300260687512711
0,-1.1701070331358496,1.0668509059053315,-2.1218082593694754,-4.818690244948173,1.935026136286897
0,-7.779044390331968,-3.2032905471917013,-6.481801785807974,-7.587890315991974,1.9400262038225158
0,-5.8779831453017675,-1.633430383066366,-4.991794272284265,-5.737087716477261,1.9450262713581417
0,-3.2369233073376646,-4.973568608970293,-4.661785725062917,-2.956282457894744,1.9500263388937675
0,-8.715864885189069,-5.563705231868925,-9.411776149884584,-6.115474551202095,1.9550264064293934
0,-9.904807887023974,-5.683840258316629,-9.971765551868678,-7.014664006871563,1.9600264739650193
0,-7.043752320293207,-5.903973694359135,-3.9417539353800652,-3.03385083485567,1.9650265415006452
0,-4.042698191657804,-2.794105545507997,-0.34174130406372527,-4.063035044585164,1.970026609036271
0,-2.291645507114836,-0.9242358168130844,0.038272338887584134,0.987783354921021,1.975026676571897
0,-0.5005942722229765,-4.234364512995664,-6.431713009511468,-3.6113956450932925,1.9800267441075157
0,-10.209544492241488,-7.754491638488758,-7.111697352015397,-2.3605720532004235,1.9850268116431415
0,0.511503827914542,-0.22461719734118024,3.0683193090119145,3.5802541221955804,1.9900268791787674
0,-1.2574493162755893,-0.4247411932015672,3.618336971525975,4.88108287274181,1.9950269467143933
0,-1.5464039290598042,-2.554863629469811,0.2783556334927587,0.48191418991222823,2.000027014250019
0,-0.21536001455125967,-0.3649845094132733,-1.371624707283784,1.5527480649087577,2.005027081785645
0,1.915682423214554,5.734896163779749,0.22839594691533638,3.18358448871763,2.010027149321271
0,2.226723380194971,4.404778386832674,3.458417593803795,5.034423452118652,2.015027216856897
0,2.767762852220986,4.314662156150254,4.038440231009823,2.815264945595111,2.0200272843925227
0,4.348800834903078,4.1045474677088585,5.538463855906048,5.586108959256675,2.0250273519281414
0,8.899837323524622,9.004434317030338,11.058488465429777,10.266955482769674,2.0300274194637673
0,7.260872312868105,9.874322699075304,10.278514055864706,7.287804505202791,2.035027486999393
0,5.481905797058187,7.994212608060115,4.138540622655626,7.0886560148759195,2.040027554535019
0,6.5229377695377515,7.4541040373560365,4.5485681604403885,8.669509999333178,2.045027622070645
0,-0.4460317768376517,4.303996979539375,3.808596663254078,2.4203664453939604,2.050027689606271
0,2.8949971503648273,9.29389142649798,4.738626124680656,4.941225339255115,2.0550277571418967
0,2.266024543317655,4.753787369476909,3.5686565378918904,1.3920866666416607,2.0600278246775225
0,3.487050393982522,2.353684799101533,2.0686878956665034,-0.6970495870429214,2.0650278922131413
0,4.028074694060773,2.8935837054960807,6.178720190426295,3.3938165634151707,2.070027959748767
0,-0.20090256504288628,0.24348407845454445,0.6987534142470068,3.4846851030870623,2.075028027284393
0,-0.8898813921596174,-1.8566140924157395,-0.6212124411066586,2.0955560168312175,2.080028094820019
0,-2.3088617961967013,-4.166710817530515,-7.111177384000144,-7.43357071070569,2.085028162355645
0,-1.407843785983748,-2.896806107142107,-2.791141422640656,-0.9526950948719795,2.0900282298912707
0,-2.316827370194745,-1.666899971226318,-3.901104564873091,-2.211817150780272,2.0950282974268966
0,-2.435812557319431,-4.91699241946967,-1.8110668181573757,-3.6309368932639483,2.1000283649625224
0,0.13520064434406814,-0.6070834612785827,-0.001028189655551237,1.3599456630729625,2.1050284324981483
0,-3.593787773329981,-0.6671731058027375,-1.9709886863395136,-0.43916949621188683,2.110028500033767
0,-3.3427778182908123,-2.287261362009548,0.09905168493414673,-1.6782823854875235,2.115028567569393
0,2.2882305017224804,2.5926517612424393,0.3590929173872842,2.9626069809049156,2.120028635105019
0,1.109237179117304,2.172566255121984,2.5691350042617658,4.153498588590335,2.1250287026406447
0,-1.5497577936971314,-1.5175178892808368,0.059177938732981106,1.0943924230214106,2.1300287701762706
0,4.671245575622211,-3.337600680947296,3.069221713853016,1.4952884694012494,2.1350288377118964
0,2.8922472793022824,-0.6276821287867562,4.5592663225045476,-1.5938132872526736,2.1400289052475223
0,5.753247309325279,2.5522377584367715,2.619311757314039,4.587087137981035,2.145028972783148
0,-1.5057543426677689,-4.167841027964025,-2.1106419893845567,-0.31201027007057225,2.150029040318774
0,-1.0847576853015157,0.6020815033637403,-3.4205949254105183,-1.4411055267019877,2.155029107854393
0,0.676237272719089,2.3020053438381547,1.799452941474792,2.5998013527209665,2.1600291753900187
0,-0.7927694772814691,-3.9080695150909213,-4.290498396347274,-5.149289647167265,2.1650292429256446
0,-1.9117779439368232,-4.338143081925526,-4.270448946334467,-8.128378541615298,2.1700293104612705
0,-1.3307881358067397,-2.558215364963354,-0.4303987157042122,-2.8174653455229595,2.1750293779968963
0,-0.17980006133253185,-4.608286372172217,-1.5703477114043423,-4.716550073286479,2.180029445532522
0,-0.7688137288464985,-5.84835611114907,-3.0402959401801093,-3.095632738836044,2.185029513068148
0,-0.44782914660875506,-2.9084245890738663,-3.610243408586921,-2.9747133557179435,2.190029580603774
0,-0.8668463228227692,-1.8884918127026995,1.6898098770493641,-2.063791937148448,2.1950296481393927
0,-5.765865265599769,-3.498557788447608,-0.29013608942099034,-7.672868496034043,2.2000297156750186
0,-4.124885982837885,-5.9786225224237874,-5.510081314062445,-8.331943044876848,2.2050297832106445
0,-4.603908482072611,-6.9586860203668826,-5.31002580278149,-7.3510155955829735,2.2100298507462703
0,-6.332932770392172,-8.808748287474309,-10.19996956109517,-11.560086159305007,2.215029918281896
0,-5.321958854394523,-3.168809328288711,-1.5699125939326495,-4.259154746370293,2.220029985817522
0,2.4190132598057987,1.7011308532418394,2.7501450943338277,1.061778633643335,2.225030053353148
0,-1.5800164335783522,1.4510722534915133,-3.4097965003761295,-5.827286028350691,2.230030120888774
0,4.740952059755234,8.341014868817128,3.950262617915959,-0.036348741161238984,2.2350301884243997
0,1.4319187340158477,-2.6890413046864614,2.1803224451462238,-2.255409513369803,2.2400302559600185
0,-0.4971164167684473,2.880903728773169,3.1603829771004897,1.1255316466269862,2.2450303234956444
0,4.963846601253902,8.170849964754867,10.83044420926656,12.306474730448997,2.2500303910312702
0,1.8548077817570816,1.3207973985198276,0.020506136675780884,2.487419729415194,2.255030458566896
0,3.6357671181697797,-5.069253975024221,-3.2294312461071617,-4.5516333656515835,2.260030526102522
0,-1.5632753963438366,0.12069583888843202,-1.9493679447108527,-1.4806845642058466,2.265030593638148
0,-2.4923197687745375,-6.229353164838376,-2.429303964650049,-7.139733875591946,2.2700306611737737
0,2.7586339938879196,-2.539400991022605,-1.2292393112231488,-4.338781308804313,2.2750307287093996
0,2.5795858846780524,2.050552355822629,5.160826010425825,6.142173127555824,2.2800307962450184
0,4.930535896506885,1.1805068713708797,5.090891995112122,3.853129425055302,2.2850308637806442
0,-2.658515977964644,-1.5895374486986638,4.610958637355134,-0.395912424905573,2.29003093131627
0,-0.08756974627013395,-1.369580608737239,-3.228974068722508,-3.934952431156832,2.295030998851896
0,1.0333745840142152,-0.009622613045898398,-3.9389061292194087,-0.06399060254912581,2.300031066387522
0,1.2143170053172947,-1.519663465834662,-1.4688375501546302,-1.1530269477946107,2.3050311339231477
0,-1.254742489973173,-7.649703171186544,-2.678768337300702,-3.8220614754533546,2.3100312014587736
0,1.2261960904845386,-7.449741732888887,-3.728698496173015,-2.121094193911987,2.3150312689943995
0,4.377132738985686,-2.3897791542165034,0.2613719679598837,1.0998748886558598,2.3200313365300254
0,3.0380674476787775,-0.7098154379139994,2.481443050018344,1.4908457642186357,2.325031404065644
0,0.8990002084507613,-3.459850586372482,-3.3884852550195412,-2.928181575239474,2.33003147160127
0,4.129931012916511,2.9201153982130137,2.0515870478200915,1.5427928622597111,2.335031539136896
0,4.200859852431263,5.3300825137021155,0.951659953517059,2.6737690687044386,2.3400316066725217
0,3.491786718035514,-0.34994924219134205,0.861733457015242,0.8747470360181737,2.3450316742081476
0,3.402711600404386,1.01002012800404,-0.1881924468254071,2.515726755970487,2.3500317417437735
0,8.643634489822507,2.499990621585183,7.891882236744448,9.156708220107555,2.3550318092793994
0,7.064555376086288,5.389962235694354,6.791957502220709,6.737691419581878,2.3600318768150252
0,11.615474248329493,9.049934967173767,8.502033343593176,9.408676344923784,2.365031944350651
0,8.516391094861696,6.969908812338914,2.0121097541932045,7.849662985901941,2.37003201188627
0,3.37730590311577,2.7198837668418263,0.922186726773545,4.750651331501694,2.3750320794218958
0,5.098218659774279,1.619859825750701,2.892264253724954,5.221641370003903,2.3800321469575216
0,-0.730870649001556,-5.430163016196825,-5.517657672733082,-0.16736691085859712,2.3850322144931475
0,2.3200379626331977,5.469815235667983,3.5324209395914394,1.443626476288027,2.3900322820287734
0,-1.0990555196447653,-0.41020542397451343,-1.5474999170606025,-2.335378481353237,2.3950323495643993
0,-5.798151110194329,-7.500225000465703,-6.637420250382484,-4.974381796572708,2.400032417100025
0,3.3927511767340777,-0.16024349904856539,0.1326599320974432,1.7866165180006435,2.405032484635651
0,5.233651327000046,3.3097390752683555,6.042740623069425,4.777616449895193,2.4100325521712698
0,4.124549326334492,4.44972271755986,3.922821815218895,6.208617986555036,2.4150326197068956
0,4.365445160102932,1.4497074227122109,3.5129035009308014,0.6596211150814923,2.4200326872425215
0,0.6263388132617697,2.789693185317203,-1.7670143277759212,-0.4893741777912566,2.4250327547781474
0,0.6572302704565944,1.2496799997095822,5.723068320865169,1.271632094470751,2.4300328223137733
0,4.208119516136989,0.48966786002644586,6.213151438398464,3.2026399183150716,2.435032889849399
0,-0.7109934654113808,0.909656760264978,-0.8067649839654751,-2.356350719912905,2.440032957385025
0,-2.66010869004303,-1.9003533056534514,-1.4366809553432254,-1.575339833945959,2.445033024920651
0,-0.6892261736237596,1.4496376561771696,1.8934035150153854,-2.0443274374655305,2.4500330924562768
0,-0.2783459319123036,-4.320370360301885,0.523488417845541,4.446686455964921,2.4550331599918955
0,-3.1974679805465858,-4.040377361031766,0.7935737438355792,-3.102298167179883,2.4600332275275214
0,1.5634076649466677,-1.2103833517137446,1.7436594835874315,0.8387186795419596,2.4650332950631473
0,-2.7057190108529063,-4.050388337750941,-0.7362543723882482,-0.20026301742926866,2.470033362598773
0,3.2851519767026023,2.9496076757030822,2.863832166333524,0.23075672836802374,2.475033430134399
0,6.256020612223387,8.549604683572909,5.133919090056305,6.281777903357342,2.480033497670025
0,5.166886880071961,3.9996026805488136,2.944006388843409,7.382800493755619,2.4850335652056508
0,7.177750764149505,6.879601660822309,6.464094052394339,8.123824485316742,2.4900336327412766
0,8.308612247770592,3.4296016180242987,3.324182069980897,9.534849863114456,2.4950337002768954
0,1.3394713136131764,-1.1603974546915987,-0.08572956954457045,-3.614123388502435,2.5000337678125213
0,-2.119672056174177,-1.8603955644493362,-3.795640877601318,-4.823095285658615,2.505033835348147
0,1.081182120307171,1.7696072815787405,1.6844481343564173,0.5479341554855248,2.510033902883773
0,-2.817966175059105,-3.240388923727841,-2.5354625450306996,-4.021035081013121,2.515033970419399
0,-4.757116960287922,-3.94038418739887,-4.705372927000171,-0.4100030108775927,2.520034037955025
0,2.2337297467978665,1.679621483708129,3.714716977377173,2.3310303503273078,2.5250341054906507
0,-4.945426071413258,-1.3103719170851396,-1.7851928428257429,0.46206498708739296,2.5300341730262765
0,-4.344584432334558,-2.09036439635808,-3.615102398476157,0.2631008838243861,2.5350342405619024
0,-5.763745353083072,-6.540355960568361,-6.465011700310517,-6.775861975075953,2.540034308097521
0,-6.1629088503325065,-6.110346615879207,-5.454920758721728,-5.704823605063445,2.545034375633147
0,-5.382074940227279,-4.110336367982067,-3.0948295836159367,-6.683784021169796,2.550034443168773
0,-6.201243638350955,-2.1803252220599916,-2.54473818442972,-3.5527432378705877,2.555034510704399
0,-9.170414959698594,-6.400313182865126,-8.724646570199338,-6.451701269091153,2.5600345782400247
0,-7.539588918600856,-3.670300254754497,-4.3745547495204145,-1.100658128266094,2.5650346457756505
0,-7.54876552864011,-2.8702864416663267,-5.254462730450521,-4.409613828413068,2.5700347133112764
0,-2.0879448026657226,-1.4402717471569904,0.4656294794656292,-5.2185683821918065,2.5750347808469023
0,-2.5871267529451454,-1.6802561745044007,-4.624278126948282,0.3524781980900645,2.580034848382528
0,-7.746311391329794,-1.0502397267941854,-1.9841855566062763,-3.396474099558402,2.585034915918147
0,-0.6454987292872317,4.1897775930019066,1.3659071838071717,0.21457471309447435,2.590034983453773
0,4.985311222059176,3.029795781879746,6.506000087716995,4.625624624394343,2.5950350509893987
0,3.7661184516695365,7.639814836597656,3.7260931483935544,3.796675622623476,2.6000351185250246
0,4.166922948267661,4.419834753494693,7.596186358711417,5.307727695786099,2.6050351860606504
0,4.527724700193499,3.40985552840316,2.0262797110449506,2.4087808314898926,2.6100352535962763
0,1.078523695395539,2.769877156689562,2.286373197297436,4.6898350169407585,2.615035321131902
0,-0.3206800784915699,0.4598996333713443,-1.603533190955443,3.880890238966406,2.620035388667528
0,-2.8098866339833197,0.2999229532418979,-3.013439462259707,4.72194648400896,2.625035456203147
0,-1.5490959835594937,-1.1000528890109578,-4.983345625067128,4.323003738098693,2.6300355237387727
0,-9.208308139502314,-3.4000278986911354,-3.0732516875541536,-3.9759380131107473,2.6350355912743986
0,-4.75752311371359,-0.4100020809870002,-2.4331576575424525,-3.0248787841470524,2.6400356588100244
0,-2.716740917571764,-4.0899754409029185,1.3169364574495455,-3.853818589429645,2.6450357263456503
0,-8.255961561931336,-2.839947983221928,-0.6529693499306403,-5.682757443068314,2.650035793881276
0,-7.845185057126794,-2.0199197124654713,-3.5728750869679824,-6.311695358757579,2.655035861416902
0,-13.184411412824664,-11.3798906328307,-12.492780760777782,-8.140632349668874,2.660035928952528
0,-12.353640637790855,-10.009860748008887,-5.362686378000066,-9.459568428325058,2.665035996488154
0,-5.362872739735203,-7.859830060917538,-8.422591944545692,-7.3685036064883755,2.6700360640237726
0,-10.372107725353308,-11.569798573557078,-12.322497465523481,-11.797437895087617,2.6750361315593985
0,-7.6913456004646665,-5.149766287014901,-9.612402945169347,-10.676371304150077,2.6800361990950243
0,-2.660586370100358,-1.2097332015704938,-1.1923083867899948,-3.765303842752343,2.68503626663065
0,0.31016996133743513,2.6103006830278668,-0.5522137929572148,-1.8142355191457544,2.690036334166276
0,-0.03907661021292699,2.4503353671935066,1.4278808341145866,-0.7231663410639826,2.695036401701902
0,-4.928326088682292,1.6503708512354731,-0.8120245077110794,-5.222096315968327,2.700036469237528
0,-6.317578477832344,0.03040713527662655,-2.9319298205645303,-7.021025451056579,2.7050365367731537
0,-2.566833781076623,4.110444219278387,1.2881648934857057,-2.1099537531232673,2.7100366043087725
0,-2.9360920013971947,1.0504821030393536,3.9782596324337236,0.3111187714744592,2.7150366718443983
0,1.8946468585616576,-0.009479213828297861,3.138354394186889,1.6321921166420488,2.720036739380024
0,3.705382796294942,6.810560268107661,2.9684491763992478,3.8832662763040355,2.72503680691565
0,1.386115809217114,5.220600548031639,0.9885439764271797,6.74434124419504,2.730036874451276
0,4.4568458945178495,1.620641624736088,4.2386387913680865,6.67541701366148,2.735036941986902
0,-0.6324269508700484,2.3906834966028883,-0.6712663819072663,1.7264935775257466,2.7400370095225277
0,-1.0417027302111972,-3.309273838251874,-3.421171546687879,3.267570928116521,2.7450370770581536
0,2.2090185531478097,3.010769618191509,3.198923293716336,3.8786490573926042,2.7500371445937795
0,0.37973689583067916,-0.20918613606649455,1.9490181360211993,4.4197279569894485,2.7550372121293982
0,-5.519547705566123,-0.34914110306215407,-3.960887023110237,-0.03919238179669249,2.760037279665024
0,-2.6688352543568152,0.9009047151258006,-2.6207921870308057,-1.7181119679339707,2.76503734720065
0,-0.6181257536077815,1.6909513163858998,3.5593026410265836,5.292969189489372,2.770037414736276
0,-1.7874192061299652,2.6509986985262004,1.2393974579151186,-0.565948918703691,2.7750374822719017
0,-1.306715614561698,1.8710468591972753,-0.49050773958131255,-3.9948663018031914,2.7800375498075276
0,1.0339850185810018,1.0610957958541052,2.0395870452047538,-2.923782969082027,2.7850376173431535
0,1.5446826908422346,3.501145505761403,2.3896818088426026,0.4473010703830245,2.7900376848787793
0,0.10537739973307608,-0.7388040139974665,1.2197765477657871,0.29838580770998513,2.795037752414398
0,2.6360691426721474,1.4912472335048232,2.1798712582309365,0.7694712340839267,2.800037819950024
0,-3.0632420830151132,-2.378700754891187,-3.46003406365253,-2.0194426593201187,2.80503788748565
0,-3.742556280014217,-5.488647982311224,-4.789939421785629,-4.928355881286594,2.8100379550212757
0,-5.1718734508410655,-6.618594451652043,-5.589844819852863,-4.187268440400571,2.8150380225569016
0,2.378806402295369,-2.368540165385504,-0.8097502611516689,-1.2061803449138606,2.8200380900925275
0,5.269483277394571,3.501514874442862,4.720344251353369,5.784908397201575,2.8250381576281534
0,4.950157172359709,4.52157066595578,4.010438714753159,8.325997777957799,2.8300382251637792
0,5.20082808472255,2.921627207118191,5.750533125887283,7.377087788963213,2.835038292699405
0,3.4014960115439004,2.731684495571258,3.120627481179742,2.768178421191706,2.840038360235024
0,0.8021609494544084,5.031742528620802,5.640721776607775,8.119269664993126,2.8450384277706497
0,1.502822894774729,-0.5781986967448842,3.680816007710365,3.7603615101650427,2.8500384953062756
0,1.5234818436360082,-3.108139183772448,-4.279089830354138,-1.6485460539852776,2.8550385628419015
0,-4.335862207936323,-3.7180789357284434,-2.2589957426002027,-1.4274530384537454,2.8600386303775274
0,-6.3352092638700865,-6.198017955654118,-7.278901733910704,-6.426359454243091,2.8650386979131532
0,-0.364559327824171,-2.847956246207271,-3.4088078088061216,-1.9652653121183605,2.870038765448779
0,-3.3539124031007526,-3.5178938096192995,-4.72871397134824,-6.014170622480312,2.875038832984405
0,-5.663268492691616,-2.357830647743781,-4.358620225141586,-6.763075395305419,2.880038900520031
0,-11.83262759920873,-9.527766762083353,-7.518526573338739,-9.751979640039147,2.8850389680556496
0,-9.321989724628367,-8.737702153666312,-8.798433018560468,-9.12088336542866,2.8900390355912755
0,-5.101354870078365,-1.8176368228701238,-0.46833956280087785,-1.3297865794331913,2.8950391031269014
0,-5.99072303586239,-3.7475707694398137,-1.6482462075016098,-4.618689289339884,2.9000391706625273
0,2.7499057783302514,2.8324960072909606,6.831847046171406,4.352408497980396,2.905039238198153
0,1.0205315731368794,-0.25743649184453277,1.2419401970034656,3.8935067757836754,2.910039305733779
0,4.761154349217608,4.952631733961767,5.432033243509985,8.914605537138288,2.915039373269405
0,2.081774107035957,5.162700685329452,3.3821261838517978,5.4857047746421435,2.9200394408050308
0,6.292390846751146,9.8327703625003,6.4522190157978665,8.726804480259558,2.9250395083406495
0,0.24300456816931748,5.5328407651355995,2.5223117366812424,4.327904645274591,2.9300395758762754
0,6.243615270743204,7.322911892202039,2.6424043434063735,9.499005260301598,2.9350396434119013
0,1.7742229535879237,2.3329837420009625,-1.4075031674479754,6.930106315277272,2.940039710947527
0,-0.565172384493432,2.1930563123014117,1.5025892005249266,3.8912077994404197,2.945039778483153
0,-1.5845707448928745,-1.3268703994702324,0.6226814436630865,1.262309701416624,2.950039846018779
0,-3.723972129001477,-3.766796396013699,-6.167226441709785,0.6334120094281095,2.9550399135544048
0,-5.2033765380273795,-7.436721679910973,-6.9371344591283135,-0.3754852884991753,2.9600399810900306
0,-6.752783972832526,-11.486646253336433,-6.407042611718248,-5.2043822043759445,2.9650400486256565
0,-5.9321944337881485,-8.826570117759497,-8.61695090199703,-5.773278750060388,2.9700401161612753
0,-1.0116079207187747,-1.6664932738008498,-1.2768593318239483,-0.8021749370698255,2.975040183696901
0,-2.461024432996271,-2.6364157213771597,-2.416767902499495,0.21892922343638493,2.980040251232527
0,-3.0304439696918544,-3.1763374599757825,-0.11667661496907225,-1.4299662794959342,2.985040318768153
0,2.8201334703307275,1.6737415111736889,3.493414529975323,5.351138543227716,2.9900403863037788
0,4.230707888289833,3.7738211929684073,4.6535055314991585,3.7422436806007577,2.9950404538394046
0,-0.6087207147093838,-3.806098413731137,-1.3464036114472704,-4.016650878612236,3.0000405213750305
0,3.951847662223971,1.8439826918579354,5.413687099831821,-1.965545145794891,3.0050405889106564
0,0.7824130197818613,4.304064510484188,0.4537776638122004,-3.9744391322362054,3.010040656446275
0,6.982975358439464,6.454147042754533,8.383868078714256,7.9066671509707005,3.015040723981901
0,7.173534678337017,1.3342302889315212,7.003958342371336,3.437773692736363,3.020040791517527
0,3.974090979117819,2.604314248877695,3.874048452072393,-0.45111951828929087,3.025040859053153
0,8.524644259839613,12.21439892208559,10.754138404483802,14.149987506174192,3.0300409265887787
0,4.9451945189599025,7.214484307539441,3.2742281956269683,7.631094753900849,3.0350409941244045
0,0.3957417543617121,-2.095429596457084,-2.055682179073713,0.4122022119499747,3.0400410616600304
0,0.8662859635005771,-2.6053427921103274,-3.125592724529844,2.943309866731864,3.0450411291956563
0,-7.113172856332385,-6.635255281696209,-6.115503445609791,-9.885582295641413,3.050041196731282
0,-4.332634707718127,-7.41516706718175,-5.4554143468554885,-8.224474288931129,3.055041264266901
0,-7.582099592849223,-12.485078149958749,-8.035325432315064,-14.743366126321712,3.060041331802527
0,-11.051567513340336,-14.764988530576815,-6.405236705434761,-10.872257820048937,3.0650413993381527
0,-7.011038470068571,-13.424898208467187,-6.97514816899874,-8.841149381230924,3.0700414668737785
0,-13.150512463045331,-16.834807181743123,-13.715059825074958,-13.790040819880552,3.0750415344094044
0,-10.249989491328202,-14.86471544709147,-15.714971674842005,-14.348932144909819,3.0800416019450303
0,-6.539469552966676,-9.944622999744817,-9.104883718330486,-8.427823364044789,3.085041669480656
0,-9.398952645056735,-12.114529833585138,-12.524795954322546,-10.746714483827013,3.090041737016282
0,-5.548438763862992,-9.07443594131637,-6.564708380456542,-6.7956055097538215,3.095041804551908
0,-5.857927904914243,-9.524341314588279,-3.854620993412624,-6.154496446434381,3.1000418720875267
0,-5.747420063090466,-7.934245944083353,-10.934533789110247,-3.2833872977468457,3.1050419396231526
0,-0.1269152327243071,-0.7541498196436223,-4.18444676280016,-3.0922780670147683,3.1100420071587784
0,-7.066413407716147,-2.5940529304999944,-5.524359909064352,-1.2011687571678853,3.1150420746944043
0,-4.695914581585248,-5.703955265506616,-4.98427322187734,-4.910059370846433,3.12004214223003
0,-1.45541874743166,-0.46385681321455796,-2.0141866947097022,-7.098949910388653,3.125042209765656
0,-3.674925897953045,-3.3137575618673116,0.22589967935771738,-1.7578403777217484,3.130042277301282
0,1.135563974445961,0.2863425005422656,-1.3740140925244837,-1.0067307743379064,3.135042344836908
0,2.3560508775170197,0.9964433861753048,-0.9339280030954072,2.1743788985490307,3.1400424123725266
0,-0.8134651809836915,-1.9434548927464723,-1.5138420450052357,2.1454886397819233,3.1450424799081524
0,-0.05298419337124838,-4.643352323948742,-3.0437562107825826,-2.043401551880191,3.1500425474437783
0,1.0974938479993184,0.7267511049962341,1.0063295071983778,1.6677083222359506,3.155042614979404
0,-1.752031049235885,-1.4231445932819078,1.9964151166805149,1.1988182607648414,3.16004268251503
0,0.12844112256759022,-2.9930394060022203,-2.513499374580029,-0.3300717377102365,3.165042750050656
0,-3.1610896288922072,-7.71293332020144,-4.3634139588182315,-5.188961674638599,3.170042817586282
0,-4.340623295782609,-9.242826322532574,-5.233328628093878,-3.6978515513476435,3.1750428851219077
0,-5.320159870009723,-5.402718399027382,-2.8132433741137426,-0.8167413688797459,3.1800429526575336
0,-3.939699343091401,0.08739046495700564,-2.433158188188567,-6.795631127952498,3.1850430201931523
0,-4.129241706105256,-4.482499715441813,-1.963073061301082,-8.554520828914328,3.190043087728778
0,-2.81878694971107,-7.562388924746532,-4.002987984172618,-6.483410471575317,3.195043155264404
0,-3.1183350642019634,-4.6722771470727125,-5.962902947242634,-1.902300055093134,3.20004322280003
0,1.7221139604219857,-1.7621643660264807,-1.812817940585476,3.918810421883421,3.205043290335656
0,5.722560134291472,7.927949435162773,6.1872670460582375,6.479920960850432,3.2100433578712817
0,2.603003467412395,3.17806427327746,3.8373520230096103,2.2010315630751056,3.2150434254069076
0,-0.6965560305007451,2.718180164787782,0.9674370003448822,3.5121422294292954,3.2200434929425334
0,1.833881650027673,4.878297125769638,1.9975219878247579,1.0632529604307246,3.225043560478152
0,-3.6956834816218613,-0.3515848280427305,4.207606994969207,0.40436375634742017,3.230043628013778
0,-0.5752514160411695,1.1385343188229209,0.11769203107514647,1.8754746172885088,3.235043695549404
0,3.445177856265543,3.9686545816643157,2.867777105210944,8.146585543205543,3.24004376308503
0,7.7956043447627295,9.328775975563094,10.127862226194523,5.617696533732805,3.2450438306206557
0,4.776028058606232,4.948898515173018,3.477947402442768,4.648807587993874,3.2500438981562816
0,5.086449006439751,4.459022214555779,5.15803264181595,1.2399187045763111,3.2550439656919075
0,0.286867196395973,7.199147087188698,3.618117951635572,-0.008970118318424286,3.2600440332275333
0,1.5672826362414884,0.8992731460279542,3.188203338780836,-0.157858882680472,3.265044100763159
0,2.067695333528849,-0.9505995963880648,0.19828880977316188,-2.246747590540779,3.270044168298778
0,3.7581052956419025,1.8495288722557142,0.8183743708881622,-0.08563624387657184,3.275044235834404
0,4.048512529733205,2.339658564183922,0.018460028274533025,-0.6945248445726341,3.2800443033700297
0,5.918917042623221,5.0897894914834865,7.318545787981796,9.346586605504898,3.2850443709056556
0,0.38931884073396283,-1.4400783339986705,-3.021368344122161,-1.9323018956847977,3.2900444384412815
0,-6.650282069818851,-4.999944900604172,-6.511282362328981,-5.371190350426621,3.2950445059769073
0,-1.8498856829298471,-1.2798101966308062,-2.1811962608264377,-4.680078760999076,3.300044573512533
0,-4.259491992224964,-2.4496742101434483,-5.161110033450922,-1.488967129371297,3.305044641048159
0,-2.0391009909869426,-1.5295369289607663,-3.001023673638199,-5.107855457131647,3.310044708583778
0,3.491287327771259,2.790601659269891,3.699062825507797,3.5632562544354314,3.3150447761194037
0,6.92167297109863,8.780741566903146,7.609149470995307,7.904368004161956,3.3200448436550296
0,3.7020559458012223,4.640882806001635,3.4892362695954224,-1.0545202093029902,3.3250449111906555
0,-0.00756374173021257,-2.0589746118516956,-2.790676772338506,-0.3534083876266592,3.3300449787262814
0,1.9228139145582013,-0.008830675424260137,1.60941035126976,-1.2422965326362254,3.3350450462619072
0,3.4331889205207355,7.82131462637807,2.8294976464106374,1.258815353854683,3.340045113797533
0,0.2435612818340558,-0.6085386955153176,-2.1804148809930988,3.7899272700388575,3.345045181333159
0,0.8039310039916068,-2.4583906304180534,-2.8803272250736303,-1.718960785986345,3.350045248868785
0,-1.4557019076279447,-4.458241167725048,-4.070239379867267,-4.737848816214251,3.3550453164044036
0,-2.035337447654375,-3.948090296641529,-0.5001513391670676,-4.4767368225328,3.3600453839400295
0,-1.7549756106248313,-1.857938006038844,-0.380063096519501,-3.6656248065068335,3.3650454514756554
0,-4.794616390900098,-6.307784284436986,-5.9099746452908795,-8.844512769268512,3.3700455190112812
0,-5.544259782567572,-7.457629119965793,-4.139885978627529,-7.963400711414557,3.375045586546907
0,-6.713905779308541,-11.687472500202585,-4.049797089322154,-4.182288632882541,3.380045654082533
0,-3.673554374288555,-7.417314411957576,-5.689707969736707,-6.88117653293788,3.385045721618159
0,-4.2732055601480115,-8.337154841162722,-5.619618611775648,-3.3600644102571855,3.3900457891537847
0,-3.382859329071574,-5.536993772912189,-2.0695290068623233,1.591047736956612,3.3950458566894106
0,0.25748432712362734,-3.0668311915903184,0.5805608539952745,5.442159910744478,3.4000459242250294
0,-2.7121745831193573,-3.8966670810326605,-0.1393490199770696,-1.2967278869117256,3.4050459917606553
0,-1.8818360511811372,-3.846501424658821,-6.40925861944773,-0.925615654209777,3.410046059296281
0,2.0984999317044495,-0.3263342055419289,-1.8391679349142562,1.1254966105731696,3.415046126831907
0,-5.851166625579168,-6.98616540645069,-7.379076956550515,-7.383391090790121,3.420046194367533
0,-1.3908357140112924,-0.9559950098484609,-0.5389856741232806,-2.7122787563413313,3.4250462619031588
0,1.7294926756255649,2.244177002097533,5.831105922931669,0.3788336161895877,3.4300463294387846
0,-0.19018144731110326,3.4043506473518423,0.8911978452416887,0.3899460293331398,3.4350463969744105
0,4.400141926520087,7.644525943733264,5.3312901032250615,3.801058485684319,3.4400464645100293
0,5.080462806295936,9.754702908641969,7.241382706954824,8.482170987686896,3.445046532045655
0,1.5507812008933466,5.194881558832989,5.521475666042147,8.403283537376353,3.450046599581281
0,1.4310971188511092,2.4850619103567126,4.771568989534904,8.18439613612895,3.455046667116907
0,-0.2585894315322869,3.6252439787069077,5.011662685923762,4.535508784557173,3.4600467346525328
0,2.4717215579118568,3.0854277789937323,3.051756763205926,6.0766214825711415,3.4650468021881586
0,-0.17796990474158403,-0.38438667397013093,3.0918512289525744,0.4277342295139879,3.4700468697237845
0,0.5223361884903279,1.0958006344146787,2.531946090381604,-2.021152975651554,3.4750469372594104
0,3.7026398455036054,7.38598971859269,4.842041354402011,2.419959865880789,3.4800470047950363
0,-1.5970589259161674,2.0861805927663033,-0.5878629723779422,0.28107275288280464,3.485047072330655
0,0.7132398819041557,-0.25362672920537205,-0.6977668835887219,-1.207814315914827,3.490047139866281
0,-3.1164637233954497,-3.6634322336975393,-2.247670372942014,-0.8867013418036185,3.4950472074019068
0,-6.276169734070886,-5.293235907050432,-4.077573434059634,1.4344116739605355,3.5000472749375326
0,-9.725878142059585,-12.02303773527495,-10.09747606029989,-12.304475269778544,3.5050473424731585
0,-3.5655889387397344,-3.5628377037833903,-5.987378244530865,-6.533362173860824,3.5100474100087844
0,2.8546978851069866,4.8773642026594715,0.3927200210046169,-1.702249038536877,3.5150474775444103
0,-0.13501766096437517,1.0075679996190698,-3.537181255434859,-9.371135863429226,3.520047545080036
0,5.535264432612547,4.407773702591191,2.142917934675325,-2.7200226476194937,3.525047612615655
0,7.845544175178722,5.947981326794338,6.353017599925009,1.2410906102928336,3.530047680151281
0,10.825821575601752,5.368190887054131,4.503117748727389,2.4822039120011907,3.5350477476869067
0,3.9360966420410683,3.8384023977113824,-1.3667816108684177,-4.18668274075826,3.5400478152225325
0,6.746369381899019,7.348615872600908,8.263319528837476,3.5544306537265724,3.5450478827581584
0,4.596639801930524,5.168831325040006,5.20342117521357,-2.3244559028193876,3.5500479502937843
0,5.886907908334584,4.66904876779697,5.173523335174228,2.676657591325764,3.55504801782941
0,2.5971737067947718,1.7092682131249486,4.603626015096796,2.6677711378265494,3.560048085365036
0,5.737437202528514,8.679489672841434,2.3837292208659884,0.8788847382143146,3.565048152900662
0,0.8476984003418584,3.8997131583211666,2.843832957965351,3.1499983938313436,3.5700482204362807
0,1.7979573047011432,-0.5900613195395397,-1.616062768411698,-3.8388878941468274,3.5750482879719065
0,3.0682139198231257,4.51016624977833,2.524042046762313,-1.2977741245958687,3.5800483555075324
0,3.5684682497073243,4.2703958765315955,3.304147408408525,0.28333970369638606,3.5850484230431583
0,3.7287202980824836,3.070627570680372,4.894253321267668,0.3644535920550152,3.590048490578784
0,-0.84102993162436,1.0908613418411424,-4.185640210185559,-2.0344324581470663,3.59504855811441
0,-3.6707824361851387,3.4910971993388813,-0.06553318164871919,0.1566815544994326,3.600048625650036
0,0.5694627876323158,6.141335152235571,-1.2854255887964054,-0.20220436853507687,3.605048693185662
0,-0.6902942568176115,5.6015752092366835,-0.9853174271913162,1.088909774259821,3.6100487607212877
0,3.4999464338887503,3.2018173785759294,2.9847913076836297,-3.0599760155975533,3.6150488282569064
0,-1.0998151368698554,1.8620616680220927,1.294900620332707,-2.4788617365348466,3.6200488957925323
0,0.7004210341934871,-2.4576919149769902,-4.304989484822393,-4.527747386805629,3.625048963328158
0,-1.3593450496842565,-1.1574433630868126,-3.7248790033464227,-3.4466329643734275,3.630049030863784
0,-1.3491133852445514,-2.0871926689069396,-1.6347679305959386,-5.325518466841162,3.63504909839941
0,-1.018883969150747,-0.06693982489497514,-6.39465626161575,-0.4444038914283203,3.640049165935036
0,-1.8786567979517392,1.0833151766059246,-0.794543991113437,-1.9732892350251887,3.6450492334706617
0,-1.7884318680615987,4.353572343260041,-1.0644311134747078,5.227825505660831,3.6500493010062875
0,-5.148209175717549,-1.5661683173900685,-1.5443176228552233,2.418940333895828,3.6550493685419063
0,-6.817988716872838,-3.0959067979298616,-1.6142035132660435,-2.4199447472387066,3.660049436077532
0,1.18222951292113,6.414356909036123,2.8159112213910817,3.27117026517431,3.665049503613158
0,-0.32755448152842226,1.2946228108640896,2.9860265872307226,1.5922853739601586,3.670049571148784
0,1.9826593047356935,5.254890914697104,3.416142590219783,4.2134005818042075,3.67504963868441
0,1.492870876638195,6.905161227323864,5.066259236043299,10.054515891105348,3.6800497062200357
0,2.7830802389786586,1.87543375509077,5.236376530016425,2.6556313037884816,3.6850497737556616
0,3.0032873963698443,0.07570850391008042,3.6664944770180243,2.3067468212204543,3.6900498412912874
0,1.2334923531936755,0.45598547942077444,3.5166130814808203,0.04786244434396178,3.6950499088269133
0,4.513695113588234,0.46626468715734354,4.886732347429849,3.1289781738713653,3.700049976362532
0,4.533895681418762,3.4265461325922484,7.666852278474845,6.8200940103233485,3.705050043898158
0,7.354094060182111,5.0068298210553355,11.146972877684512,10.181209953862906,3.710050111433784
0,8.8742902528591,7.71711575756831,6.867094147393811,8.962326004024936,3.7150501789694097
0,9.654484261748966,3.667403946673371,8.917216089092555,6.553442159529206,3.7200502465050356
0,7.984676088336453,8.757694392345485,7.457338703439023,7.294558418274548,3.7250503140406614
0,6.144865733261003,8.377987097942924,9.927461990288622,8.745674777409235,3.7300503815762873
0,4.995053196400986,5.978282066127322,4.927585948693626,3.876791233364564,3.735050449111913
0,4.545238477007943,6.718579298832268,8.917710576933512,6.707907781899376,3.740050516647532
0,0.26542157384035386,2.998878797333673,4.857835872573824,0.039024418210044626,3.745050584183158
0,8.255602485274782,7.3391805623477575,9.537961832497594,8.98014113704457,3.7500506517187837
0,3.835781209312709,6.029484594065797,3.9580884529068303,2.471257932728847,3.7550507192544096
0,-0.21404225647213515,-5.650209107815448,-1.801784270602861,-0.9676252008353978,3.7600507867900355
0,-4.893867914813872,-2.3199005438646862,-4.4016563427716155,-5.026508270001325,3.7650508543256613
0,-4.1236957684381,-0.6695897145752436,-7.4815277682754875,-3.1653912810599896,3.770050921861287
0,-13.803525819725545,-10.549276620174181,-10.97139855136098,-15.504274239938841,3.775050989396913
0,-10.033358070388386,-7.568961260470244,-9.911268695555613,-9.913157151883565,3.780051056932539
0,-4.373192521233518,-5.538643634638468,-7.641138203489276,-8.122040021174746,3.7850511244681577
0,-7.343029172188861,-7.868323741133581,-8.601007076878632,-8.380922851085462,3.7900511920037836
0,-3.6028680224933476,-0.32800157776579036,-4.40087531661683,-4.349805644025618,3.7950512595394095
0,1.8772909291261461,-1.9776771418568773,-2.800742922912186,-1.2486884017271784,3.8000513270750353
0,-1.832552315754851,-1.4873504304343028,-1.7106098954776845,-0.7575711254750008,3.805051394610661
0,2.4276022445330936,5.402978559606201,0.6695237662731605,2.0435461836551214,3.810051462146287
0,-0.6722453883527248,-0.3466901686562319,-0.9103419369264923,0.05466352462145628,3.815051529681913
0,-2.9120952127761077,-1.7363566122725071,-0.33020700428502703,-5.374219103634715,3.820051597217539
0,-1.311947227045564,3.5639792316172225,0.6099285650208499,-2.743101702071807,3.8250516647531576
0,-0.44180142932690014,3.4143173658041355,1.1700647718226231,-0.2719842713972098,3.8300517322887835
0,2.898342182330132,5.944657792874329,4.1002016168896125,7.489133187873456,3.8350517998244094
0,6.908483609828839,6.335000515029583,6.790339100794376,7.870250675103848,3.8400518673600352
0,3.7186228547946496,2.7153455339789763,2.300477223748116,5.531368189181898,3.845051934895661
0,5.318759918409853,4.485692850941025,3.810615985527796,4.892485728362894,3.850052002431287
0,0.5788948014017128,4.166042466710188,0.650755385539259,-1.726396709645889,3.855052069966913
0,1.9390275041449225,5.696394381676081,-0.8891045770586101,2.984720872525512,3.8600521375025387
0,-1.2008419731990692,-1.5432514041788588,-3.4489639031948913,-3.2141615278958784,3.8650522050381646
0,-4.9007136305270675,-3.0728948911527936,-5.968822593684896,-2.2630439136878477,3.8700522725737834
0,-3.4205874676026324,-5.042536079546042,-0.29868064905305725,-0.46192628751485243,3.8750523401094092
0,-4.700463483880931,-6.21217496938315,-5.318538069476764,-5.030808651856938,3.880052407645035
0,-8.770341678397644,-5.1218115602377905,-7.658394854779961,-6.399691008940866,3.885052475180661
0,-4.5802220496621,-4.351445851164018,-1.5182510043529869,-3.348573360608587,3.890052542716287
0,-6.70010459557578,-3.04107784072225,-6.808106517096656,-5.877455708225535,3.8950526102519127
0,-7.399989313422268,-3.5707075270556556,-5.03796139144099,-5.166338052673626,3.9000526777875386
0,-3.1598761998762432,-3.4103349079515075,-4.977815625330701,-0.9452203943683748,3.9050527453231645
0,0.23023474892469986,2.7400400191003356,-2.6576692162140705,3.6458972666281944,3.9100528128587904
0,4.390343537147061,-1.3195827432185905,1.0624778388648588,2.067014930348479,3.915052880394409
0,0.24045016896235694,-1.1692031921829031,-2.2473744569011838,0.6681325966919331,3.920052947930035
0,2.160554648376572,-0.3288213250344128,3.2227738997718767,6.269250265344964,3.925053015465661
0,5.550656979192042,4.031562861026622,2.592922912146221,6.980367935701964,3.9300530830012868
0,5.670757164930024,-1.7980506312387436,9.583072583293086,5.74148560669434,3.9350531505369126
0,8.350855208665886,4.582338200814352,6.5932229158506805,6.602603276661973,3.9400532180725385
0,6.000951112879644,4.852729359659053,7.983373911815252,3.4637209433448466,3.9450532856081644
0,5.271044879396192,4.913122847472335,7.513525572452869,4.354838603948714,3.9500533531437902
0,4.691136509426433,1.0235186660273414,1.7436778983254984,0.675956255246663,3.955053420679409
0,4.881226003647809,2.2339168167332026,6.783830889402332,4.397073893685211,3.960053488215035
0,5.471313362249134,-0.3456826992399,8.283984545141646,5.738191515416797,3.9650535557506608
0,6.3913985849227535,3.114720119131312,3.124138864444972,6.529309116210867,3.9700536232862866
0,4.1214816708326705,0.07512527274573255,1.4042938456507683,4.660426691328809,3.9750536908219125
0,1.2915626186384603,1.055532762375063,4.224449486680448,2.761544235496393,3.9800537583575384
0,-0.2983585733695022,-1.6540574113010742,-2.2153942148118064,-0.9473382569858935,3.9850538258931643
0,-8.448281907028797,-7.193645247578398,-5.695237261290685,-7.156220792005391,3.99005389342879
0,-5.928207383980415,-6.20323074550536,-3.9750796550884937,-5.625103375301702,3.995053960964416
0,-5.838135005377891,-3.8928139036590457,-3.8749213981809008,-3.0639860121912736,4.000054028500035
0,-6.068064771771109,-4.3023947200837185,-4.704762492123157,-6.222868707492515,4.005054096035661
0,-7.8279966831059635,-5.141973192350468,-3.0946029380640905,-1.8517514655684706,4.0100541635712865
0,-8.737930738684069,-7.381549317570586,-5.494442736753286,-6.63063429036057,4.015054231106912
0,-6.107866937088126,-4.731123092330397,-4.41428188852847,-4.409517185384047,4.020054298642538
0,-1.5878052761956405,-2.1906945126666626,-4.734120393286315,-5.848400153686045,4.025054366178164
0,-2.007745753349706,-2.4802635741638226,0.7260417495012461,0.2127168021612807,4.03005443371379
0,0.43231163441306564,-2.8398302720884523,3.6362045406363643,-1.7461663200474307,4.035054501249416
0,3.1723668901749855,1.8006053985238568,2.16636798093505,2.3749504776719847,4.040054568785035
0,5.932420016948199,6.371043442732252,5.456532071005691,3.8860671933165403,4.0450546363206605
0,4.652471017457454,8.621483865406862,6.126696811114377,6.787183824701679,4.050054703856286
0,7.412519893972761,9.951926670887923,4.216862201078099,6.86830036924663,4.055054771391912
0,1.8925666482384094,5.612371862758014,0.2270282402399448,1.539416823836858,4.060054838927538
0,-0.5473887184645374,0.9728194438450128,-0.32280507239704576,1.800533184869641,4.065054906463164
0,-0.057346205118996574,-1.596730583537099,1.3773622620213737,-3.2683505515463342,4.07005497399879
0,-3.3873058107574385,-4.456278217241138,-3.9324697576795877,-4.457234389341033,4.075055041534416
0,1.302732465666502,0.5741765449855686,0.7776988673725174,-1.0661183322630357,4.080055109070042
0,0.5227686252926144,0.9646337055716061,0.777868136138497,5.124997616165089,4.08505517660566
0,-3.217197330697289,3.615093266997366,-0.36196195237859535,4.1661134524381875,4.090055244141286
0,4.702834598898093,5.665555231598489,6.738208600768675,7.397229172770491,4.095055311676912
0,1.1928644152552539,3.2560196013939513,2.358379794338838,3.1683447729062806,4.100055379212538
0,0.8228921194200387,1.0664863780159641,1.8085516267799184,0.9594602481039565,4.105055446748164
0,3.6629177122572294,3.2369555627722093,4.208724096222245,2.5905755932615193,4.11005551428379
0,1.8229411944437817,-1.4725728432523582,2.458897200514161,1.7016908030463733,4.115055581819416
0,1.6129625664412137,2.527901160883808,-1.750929062757348,-1.117194128046082,4.1200556493550415
0,1.0629818285046693,4.748377576000151,2.889245303816424,0.29392079437380797,4.125055716890667
0,-6.347001019223838,-2.5211435972602545,-1.590579702438017,-5.504964435294122,4.130055784426286
0,-5.286985976504613,-10.3406623583561,-8.850404084179443,-7.493849822464482,4.135055851961912
0,-6.096973042735856,-5.670178706498689,-4.230227843826917,-3.132735372149409,4.140055919497538
0,1.0930377831670401,-5.179692640319443,-4.280050983326043,-3.5416210888574104,4.145055987033164
0,2.6930465026360415,0.42079584214801696,0.6501264958576511,-3.6705069766576317,4.15005605456879
0,-2.7769468828051775,-2.5587132567342157,-2.8796954074264716,-2.2593930392651473,4.1550561221044156
0,-4.336942371626271,-4.3982199343698785,-3.069516694133971,-3.8982792800765242,4.160056189640041
0,-2.416939962147848,-10.327724187877754,-5.259337364998235,-8.237165702150065,4.165056257175667
0,-1.1369396524147914,-1.5872260138952072,-2.1691574204330757,-0.6360523081195392,4.170056324711286
