labels,F4,F3,Fz,Cz,timestamps
0,-2.646735685730492,-0.3039216290756769,-9.131325635500046,0.16174803410933886,-2.0000180094999784
0,8.293132241335357,12.83614951696069,10.188375419279142,8.691274321602688,-1.9950179644762294
0,2.803000399810785,3.8662227113107583,5.498076922261616,1.0508012066510195,-1.9900179194524803
0,-9.587131204152644,-11.683702045579052,-15.682221122859481,-8.259671307098005,-1.9850178744287277
0,-3.28726256443802,-7.373624753384826,-5.492518712368945,-0.4201432160441274,-1.9800178294049786
0,3.8826063253591254,2.086454588638703,9.417184157901747,1.769385483635744,-1.9750177843812295
0,-7.777524528067258,-5.563464018249856,-7.403112507514137,-2.2610852040546483,-1.9700177393574805
0,-14.537655117748693,-14.263380572395059,-19.26340870390043,-6.811555275019169,-1.9650176943337279
0,-10.037785436092092,-8.493295071545058,-4.94370442596725,-7.332024724908971,-1.9600176493099788
0,-10.687915474497863,-6.123207512560202,-2.8439996674604657,-1.272493548895975,-1.9550176042862297
0,-10.04804522327716,-9.573117891401914,-14.704294421272358,-6.7229617416326155,-1.9500175592624807
0,0.6018253282232915,-2.823026203263912,1.3354113203963416,0.17657070265790914,-1.945017514238728
0,6.2616961912925495,5.017067557248709,8.54511756589675,7.69610379002231,-1.940017469214979
0,-10.088432622583742,-13.142836604137722,-13.39517567621985,-7.024362473472296,-1.93501742419123
0,-2.0985611018435293,-4.4827386814057855,-6.475468397291739,0.1951719181665914,-1.9300173791674808
0,1.2213107653310753,0.5173613319431178,6.944239411731325,-0.6552930290011959,-1.9250173341437282
0,-3.6088170089654783,-5.682536557117275,-7.826052239711205,-3.7557573087599287,-1.9200172891199792
0,-4.338944412456675,-7.462432341259038,-10.216343341941439,-5.726220914705572,-1.91501724409623
0,6.690928567314127,5.947673987213472,10.903366115057032,7.683316159810481,-1.910017199072481
0,5.4508019428459304,1.0477824362525443,9.273076141500194,6.692853921513646,-1.9050171540487284
0,-2.339324273597188,-7.852106986168156,-7.107213252680417,1.9423923768361417,-1.9000171090249793
0,6.620549929929831,6.708005727937698,9.892497942017593,2.4919315317510007,-1.8950170640012303
0,7.290424565078236,8.638120586565613,10.40220973475973,5.241471391857994,-1.8900170189774812
0,5.0502996430730365,-5.12176240252831,-0.2480778657849597,1.9510119624382383,-1.8850169739537286
0,2.240175174589264,1.6983567680953684,-4.03836485149453,-0.0894467515380927,-1.8800169289299795
0,8.680051169792348,11.638478105699697,15.901348785450132,8.380095254636325,-1.8750168839062304
0,-2.1800723615995974,-3.991398382701262,-5.3089369473966395,-1.0603620146049908,-1.8700168388824814
0,-12.140195410143942,-14.561272690342834,-17.0792220427282,-12.430818555042888,-1.8650167938587288
0,0.23968203375081687,5.32885518971366,5.760493506974273,-1.2312743623127813,-1.8600167488349797
0,-1.3104400198779955,0.6089852648318863,2.8302097097283316,-0.881729431585768,-1.8550167038112306
0,-11.060561560593591,-12.880882457376732,-14.650073426190325,-10.112183757595867,-1.8500166587874816
0,1.5493174224166912,1.9792520309373747,5.199644107679409,1.3973626652986395,-1.845016613763729
0,2.939196940344142,4.289388737972919,8.379362320052222,3.616909843081654,-1.8400165687399799
0,-7.760922995423237,-10.560472327874017,-9.610918780353224,-7.303542218105854,-1.8350165237162308
0,-0.281042373384755,1.7596688419126003,-1.8511991849164597,-0.3439935120476311,-1.8300164786924817
0,-1.0311611818237938,4.449812256048286,8.578521115091249,3.275555967631224,-1.8250164336687291
0,2.198720591169151,3.17995792328743,0.40824212843781404,1.0251062273881022,-1.82001638864498
0,-10.551397042394097,-12.939894147755158,-13.152036136248396,-6.615342726371216,-1.815016343621231
0,4.408485929675178,7.890256051566951,10.44768632970506,8.704209112752098,-1.810016298597482
0,0.4683695197935329,5.100408530045345,5.807409535099108,4.703761751112995,-1.8050162535737293
0,-5.071746259520474,-4.399436703618385,-10.472866511406798,-4.566684805183392,-1.8000162085499802
0,-0.11186139568443548,3.740720359062015,-0.06314180128433772,0.6628694497316087,-1.7950161635262312
0,7.238024123989987,9.730879726411029,7.896583674125835,5.542424521676233,-1.790016118502482
0,1.5179103121300759,1.7210414064450084,-0.9136900764816805,2.2619804163782304,-1.7850160734787295
0,5.267797181063564,2.7212054067021714,0.05603695538646586,4.251537139293639,-1.7800160284549804
0,4.597684742730741,6.131371734294476,12.045764777990415,3.3910946955326016,-1.7750159834312313
0,2.697573008669934,6.481540395944519,1.6854933992587633,-0.469346910118443,-1.7700159384074823
0,-1.5625380099418786,-2.8982886020659024,-7.424777173311504,-2.299787673089033,-1.7650158933837297
0,-1.0726483021259452,6.66188474617227,6.204953067564386,-0.1102275888431375,-1.7600158483599806
0,3.1872421430666007,6.962060446274226,5.984684129140478,4.599333347204674,-1.7550158033362315
0,3.4471333365468646,4.052238503448792,-4.035583981506457,1.358895139582397,-1.7500157583124825
0,4.687025289032873,11.342418922337975,8.164148742424414,7.608457792587396,-1.7450157132887298
0,8.866918010877228,12.772601706871807,14.063882307413392,13.438021310088892,-1.7400156682649808
0,-4.083188488032961,-7.3372131398414115,-7.7263832805910875,-0.7424143047056786,-1.7350156232412317
0,3.576705801808001,-1.5570256152727702,-0.9666480161344959,-1.1128490492483498,-1.7300155782174826
0,14.076600889637836,19.673164282912772,19.79308810603078,8.95671707863493,-1.72501553319373
0,4.916496784236294,6.4333565566897715,7.822825090760489,5.5562840808430956,-1.720015488169981
0,-3.0736065062945497,-7.28644879271553,-8.197437057882551,-0.37414804115337924,-1.7150154431462319
0,11.176291025610238,13.153748235315787,13.832301663517981,11.015420713643683,-1.7100153981224828
0,0.5561893871468616,1.1139476410653348,7.142041257986457,-0.255009654210411,-1.7050153530987302
0,-2.5439114148499264,-4.285850575528579,-6.448218271940637,-2.625439144565324,-1.7000153080749811
0,6.475988626203537,7.294353585215689,6.831523075840777,4.854132242507103,-1.695015263051232
0,8.775889516690782,10.52456012278742,10.971265303179049,4.623704506823751,-1.690015218027483
0,-2.664208737379861,-8.995230963694446,-9.938991588420182,-4.866722351993435,-1.6850151730037304
0,5.215693869570209,1.1349803245650345,1.010752402256784,9.212851665468943,-1.6800151279799813
0,-1.5744026571536234,2.18519398634785,6.330497276414735,-0.8375734415595018,-1.6750150829562322
0,-3.264498312366957,-4.364589979477136,-3.079756964738589,-1.1279976740678883,-1.6700150379324832
0,1.5554069091313758,-2.0043715739752725,-5.850010320080213,-1.748421033171509,-1.6650149929087306
0,2.55531301261511,5.165849201904784,6.039737211570723,-0.2788435199357642,-1.6600149478849815
0,2.495220003312701,7.776072347207364,8.139485631448611,3.2307348646574945,-1.6550149028612324
0,-13.084872113639891,-14.043702139240365,-17.95076505936055,-10.79968588032697,-1.6500148578374834
0,-3.744963332927978,-1.6534742586567033,0.938985140251938,-3.420105755641021,-1.6450148128137307
0,-2.2050536487306838,0.9167559880667163,4.4187362317657115,-2.51052476162057,-1.6400147677899817
0,-15.165143054640886,-19.0830113995127,-19.851511782973056,-11.290942898103294,-1.6350147227662326
0,-3.595231543608631,-6.312776421242125,-6.891758901667791,-4.75136016438223,-1.6300146777424835
0,-2.3553191078519475,0.6574609238657934,4.917994878727788,-4.801776559111124,-1.625014632718731
0,-8.785405738963728,-8.092299362478633,-7.802250438104024,-7.092192080319831,-1.6200145876949819
0,-5.9654914280207585,-13.252057278041445,-14.33249484809463,-8.892606725451385,-1.6150145426712328
0,-3.0455761655359077,-3.971812819923731,-1.1727383466120478,-5.623020491293276,-1.6100144976474837
0,0.11434005849774936,-1.3115659844447016,2.9370190716699582,-0.03343337396891846,-1.605014452623731
0,-2.365742745591382,-5.821316767339213,-8.913222587500242,0.6861546308599377,-1.600014407599982
0,3.96417543266504,-1.1210651639681342,0.6265366818474871,-2.764256472275923,-1.595014362576233
0,-2.325905396244824,-1.1208111693894844,0.336296885927155,-3.614666678746586,-1.590014317552484
0,-9.455985221806786,-15.050554778351643,-11.883941968806754,-10.18507598368751,-1.5850142725287313
0,-4.586064033245297,-7.780295985085465,-10.564179875519288,-4.8354843817614785,-1.5800142275049822
0,0.8738581806992642,2.1299652169386833,5.325583173271421,-1.4758918670277479,-1.5750141824812331
0,-1.6962185683123245,-3.4897711651227707,-3.544652814387647,1.1937015669298605,-1.570014137457484
0,-7.086294268397595,-8.939505123770669,-17.014887830124483,-9.166704073212166,-1.5650140924337315
0,0.993631092561053,5.680763348800367,7.724878134864297,1.1228912194609915,-1.5600140474099824
0,-5.886442473012348,-4.0689657393194665,-2.965354910112523,-2.037512547836124,-1.5550140023862333
0,-1.6265149523937137,-6.968692379866948,-8.6855869554673,0.7820846323307837,-1.5500139573624843
0,1.2134136674069047,1.1815834356484114,4.2141820085972395,5.711682767445156,-1.5450139123387352
0,7.353343399502082,12.651861715930302,12.473951992042249,8.371281864814552,-1.5400138673149826
0,-0.6267257431398117,-6.187857530436715,-5.2962769953670215,-2.049118068660083,-1.5350138222912335
0,-0.7567937478187023,-2.9975742951475297,-4.876504944212005,-3.379517026457002,-1.5300137772674844
0,2.673139398003853,4.322711430060281,9.463268154850972,4.68008499783551,-1.5250137322437354
0,-4.306926293174218,-1.6670003464628327,-0.5769576888301322,4.40968801061085,-1.5200136872199828
0,-1.7569908088148656,-8.976709616318317,-11.447182466018356,-3.750707981898439,-1.5150136421962337
0,4.822945863730126,13.603583629001971,11.292593832553669,7.628897026330799,-1.5100135971724846
0,-0.8971162628500373,2.7838793980001317,6.962371216210424,0.15850304113579788,-1.5050135521487356
0,-4.447177175924638,-4.91582230112771,-13.837850305939083,-6.841889931822326,-1.500013507124983
0,6.802763137130192,4.74447853952698,5.741929275056553,1.177718113108099,-1.4950134621012339
0,-4.47729531104542,-2.485218072198583,-2.3382900317097457,-10.722672818184936,-1.4900134170774848
0,-2.567352507821149,-3.094912128458482,-8.318508216952559,-4.143062719404514,-1.4850133720537357
0,-1.487408440470266,-2.5046036213109275,-2.778725271137157,0.836548416246695,-1.4800133270299831
0,0.7525369039270772,6.105707457354248,10.291058815602055,-0.22383940404761613,-1.475013282006234
0,-0.41751646158121564,-0.4039788843169009,-0.3191559467997063,0.8957738270318331,-1.470013236982485
0,1.3424314760795943,3.446337361667319,-4.449369548629921,0.03538811679534776,-1.465013191958736
0,9.092380729901757,14.63665620300686,13.510418019627979,6.735003472478911,-1.4600131469349833
0,7.39233131256766,12.146977646818053,10.140206767207399,4.74461990110393,-1.4550131019112342
0,3.0422832361993026,0.07730169930480946,-4.600003297260331,4.6342374092957845,-1.4500130568874852
0,10.832236512278481,11.087628365780592,7.0097878342531414,5.023856003198721,-1.445013011863736
0,18.33219115156541,21.507957650770127,24.549580169294757,10.583475688444492,-1.4400129668399835
0,11.602147163788423,8.32828955774283,3.929373714583998,5.693096470047213,-1.4350129218162344
0,15.142104557348942,16.03862408881146,7.769168475657911,7.242718352300941,-1.4300128767924853
0,17.022063339240205,14.338961244715541,14.87896445698966,5.172341338795876,-1.4250128317687363
0,19.322023514975754,16.529301024825042,10.218761662098935,12.481965432452405,-1.4200127867449837
0,15.231985088444812,10.599643427077838,2.608560093484076,4.3115906354607745,-1.4150127417212346
0,23.93194806180726,28.769988447927968,25.858359752639554,15.541216949185662,-1.4100126966974855
0,16.931912435406755,19.420336082133474,14.43816063990744,6.1608443740827585,-1.4050126516737365
0,13.641878207728668,15.440686322475923,7.3779627541630814,7.96047290966062,-1.4000126066499838
0,23.291845375490446,24.231039159738668,22.187766092794025,9.780102554544607,-1.3950125616262348
0,27.151813933620435,34.931394582690345,30.347570651684187,19.16973330646978,-1.3900125166024857
0,25.641783874943734,22.3217525777335,19.65737642478073,15.719365162020157,-1.3850124715787366
0,23.271755189877307,22.122113128632506,19.03718340374244,13.498998116327696,-1.380012426554984
0,24.971727866379624,24.322476216651204,27.316991578005993,14.19863216300877,-1.375012381531235
0,13.45170189007913,15.362841820803348,8.456800934932508,8.838267294287549,-1.3700123365074859
0,9.941677244581484,5.993209918129011,0.596611460092365,-3.8320964987468775,-1.3650122914837368
0,21.381653911878647,24.493580484084948,26.896423137787664,15.407540774243369,-1.3600122464599842
0,11.641631872528391,13.683953492707039,12.6362359511945,12.277179102984473,-1.3550122014362351
0,4.531611105672296,2.6943289165473585,-0.9739501178613008,-1.9031815236080432,-1.350012156412486
0,2.7115915893185107,6.614706726919286,3.595864911327707,0.016458882627245708,-1.345012111388737
0,3.4015733008094466,9.515086894336342,9.695681018886493,3.6061003095061746,-1.3400120663649844
0,-9.208443782819689,-11.404530611240693,-15.204501815388152,-8.094257255223063,-1.3350120213412353
0,-1.0084596845212124,-0.014145820098358852,0.5853163882315645,2.495386176249177,-1.3300119763174862
0,-3.9784744269615775,-1.5337587623688482,3.745135609733681,-1.9549694081085627,-1.3250119312937372
0,-10.878488032403615,-10.023369467865763,-8.565044170642944,-8.845324020142215,-1.3200118862699846
0,-12.768500522541807,-15.272977965939688,-17.875222972400486,-10.385677671359304,-1.3150118412462355
0,-13.438511918177301,-12.59258428508913,-5.605400814353668,-8.616030372606374,-1.3100117962224864
0,-6.418522238989365,-0.722188452690185,2.784422285641145,4.243617866060719,-1.3050117511987374
0,-14.778531503542977,-15.03179049511692,-16.06575368955026,-5.586732964861777,-1.3000117061749847
0,-8.688539729350994,-5.731390437916415,-7.685928756480394,-1.8170828746124124,-1.2950116611512357
0,-9.12854693288089,-8.550988305800756,-2.396102930946868,-3.3774318722117926,-1.2900116161274866
0,-15.078553129569862,-17.41058412258796,-18.816276227919357,-7.957779966373165,-1.2850115711037375
0,-18.168558333742205,-16.56017791102787,-16.316448661437402,-6.468127165375007,-1.280011526079985
0,-17.018562558350197,-9.899769692527675,-5.176620244319302,-8.068473476905208,-1.2750114810562359
0,-9.258565814788927,-9.599359487113935,-8.916790988134133,-1.1088189079977158,-1.2700114360324868
0,-9.498568113014182,-14.508947313620393,-15.816960903436552,-5.199163465127198,-1.2650113910087377
0,-5.748569461852179,-4.4085331898078355,-0.8571299998396589,0.6404928456307839,-1.260011345984985
0,-9.898569869252864,-9.088117132450611,-5.7772982860741315,-6.499849981509329,-1.255011300961236
0,-11.25856934235903,-17.747699157420673,-21.477465770128454,-11.53019195199457,-1.250011255937487
0,-13.298567887398736,-14.697279279540723,-13.337632459058524,-11.100533070670211,-1.245011210913738
0,-2.718565509572492,-1.596857512369378,4.902201641304973,0.7491266584598487,-1.2400111658899853
0,-11.458562213124562,-13.336433868320789,-11.167963473874504,-5.881212767864911,-1.2350111208662362
0,-15.83855800143205,-15.786008358863928,-16.548127808784354,-9.531551352390585,-1.2300110758424871
0,-15.66855287682523,-10.875580994401554,-6.978291366796692,-6.621889097326676,-1.225011030818738
0,-14.758546840288721,-16.035151784062936,-11.39845415019774,-5.012226004204022,-1.2200109857949855
0,-9.898539891359743,-17.744720735615754,-16.448616160170104,-7.512562073875973,-1.2150109407712364
0,-1.9485320283056125,-3.3842878554284446,2.541222603175814,0.0671026933891061,-1.2100108957474873
0,-4.36852324850292,-6.103853148644841,-0.15893785941052746,-1.0532317022354911,-1.2050108507237383
0,-7.198513548776268,-11.703416619535604,-15.749097546702657,-3.3935652603193507,-1.2000108056999856
0,-1.0485029255011322,0.4470217283243927,2.1607435429402364,0.7461020197288347,-1.1950107606762366
0,-10.358491374583187,-7.242538108009831,-7.219414588285954,-10.06422986130749,-1.1900107156524875
0,-9.898478891375438,-12.532096130924776,-16.71957193760218,-10.064560902276579,-1.1850106706287384
0,-16.258465470443237,-17.221652342071845,-21.24972850138588,-16.394891101311725,-1.1800106256049858
0,-4.028451105311012,-5.061206742020919,0.12011572527555991,-3.4752204555177015,-1.1750105805812368
0,-11.248435788438798,-12.560759330163794,-14.230039251394075,-11.805548960937417,-1.1700105355574877
0,-14.898419511318474,-16.800310104803508,-19.080193424093483,-13.065876612659313,-1.1650104905337386
0,-0.9084022644658141,5.830140936817448,2.7096532155731246,1.5837965951524313,-1.160010445509986
0,-1.098384037524996,2.790593798247979,4.4195006769512695,4.293470669054838,-1.155010400486237
0,-12.998364819569774,-9.018951516703385,-16.630651030167506,-8.67685438411467,-1.1500103554624879
0,0.21165540079421885,0.45150499584711196,3.0591981042834435,2.9128214425591517,-1.1450103104387388
0,-8.718323364483675,-3.4780366599806003,-3.260951909200547,-5.687501843842073,-1.1400102654149862
0,-9.118301102870799,-7.477576479750212,-13.451101059696448,-5.71782423598455,-1.1350102203912371
0,-3.178277801200527,-1.6771144586621012,-6.3112493357694115,-1.2781457261979554,-1.130010175367488
0,-1.0682534456783621,5.263349408447163,8.5186032746694,-0.868466306445853,-1.125010130343739
0,-7.558228022046426,-6.366184873083773,-4.071543215895899,-2.3587859684357517,-1.1200100853199864
0,-0.8982015156855183,-0.0257172978671096,-4.221688794931893,-1.1291047037131159,-1.1150100402962373
0,3.6818260883445584,13.904752139515658,13.088166550097636,12.160577496245104,-1.1100099952724882
0,0.3718548051155024,2.5352234442528228,5.2580228315796695,1.1802606397625137,-1.1050099502487392
0,-4.4781153503494355,-1.6543033789875083,-5.872119938541594,-4.200055265242686,-1.1000099052249865
0,-3.19808436299627,-3.76382832590508,-1.3522617486558421,-6.620370211042109,-1.0950098602012375
0,-1.2780522175533249,1.7466486077954313,8.457597412835486,1.4393158102957422,-1.0900098151774884
0,-0.9980188984879812,-4.192872573445381,-6.922542442472492,2.169002806991007,-1.0850097701537393
0,0.4420156099058179,-6.942391865004559,-1.7726813030455564,-4.511309212627332,-1.0800097251299903
0,7.362051323365494,6.218090738005626,9.717180842689693,8.008379759756911,-1.0750096801062377
0,-1.3679117425264518,-4.281424759307479,-2.7529559937314296,-2.5319302676165534,-1.0700096350824886
0,-1.357873572419582,-6.850938351723029,-10.693091800911102,-0.7222392866377949,-1.0650095900587395
0,-1.5878341510527694,-4.250450033780288,0.44677343268096514,-10.22254728919216,-1.0600095450349905
0,0.6622065369078607,0.44004020039904723,3.8166397189393697,0.987145733117277,-1.0550095000112378
0,-0.5577514931172122,-5.349467642936748,-11.163492930005441,0.26683978906811323,-1.0500094549874888
0,-3.8077082256478376,-2.978973557261882,-1.3236245018282196,-5.103465112320119,-1.0450094099637397
0,0.6323363548988636,3.5215224642111447,8.426245016089235,7.4862310380791985,-1.0400093649399906
0,-1.1676177357540334,-4.6679795715510455,-5.1238843635118325,-0.664071750611659,-1.035009319916238
0,-2.0175704817694404,-6.017479657455147,-4.264012627947065,-0.03437346940474861,-1.030009274892489
0,2.43247813277424,7.543022213795806,11.085860235494236,6.345325890523006,-1.0250092298687399
0,-3.8074718761389796,-9.456473950315518,-7.304265760473455,-9.524973662130016,-1.0200091848449908
0,1.0125795075287014,-3.315968142156299,-6.614390603187436,-1.705272118649915,-1.0150091398212382
0,-3.5873677000954873,-3.255460353794968,1.385485720190446,-7.575569470041539,-1.0100090947974891
0,-4.6873134827276255,-3.9049505768913075,-1.5146367771742089,-4.245865706843859,-1.00500904977374
0,-4.017257823815448,-10.854438802686708,-11.784758081852189,-5.056160819085397,-1.000009004749991
0,1.7927992935324646,2.646074978067754,3.33512181991421,1.2235452036709564,-0.9950089597262384
0,3.2028578864271573,-2.493409224916858,7.965002942211985,3.0532523721481644,-0.9900089147024893
0,0.19291797196151939,-4.58289140164933,-4.255114700865635,4.042960697074552,-0.9850088696787402
0,-1.417020432904058,-7.742371541887058,-3.3252310954019353,1.3826701889609376,-0.9800088246549912
0,8.703042688676518,12.858150364934872,17.94465377243271,8.752380858001693,-0.9750087796312386
0,2.0431073533526125,3.038674329459313,2.0345399161951123,4.11209271398554,-0.9700087346074895
0,3.7931735774159856,0.5392003619986575,-3.485572651134851,0.8718057662177328,-0.9650086895837404
0,8.843241376734376,12.739728472397578,14.55431608292792,11.10152002354289,-0.9600086445599914
0,2.0833107667060093,5.660258669984073,5.904206130446673,5.95123549431383,-0.9550085995362387
0,-5.626618237714996,-10.219209036486482,-14.885902497027672,-5.439047813680192,-0.9500085545124897
0,3.5534543782262,0.021325361469737486,1.9439902118576051,0.8806701069839631,-0.9450085094887406
0,-0.45647137069827964,-4.848138127476515,1.723884268708756,-1.3196107362976206,-0.9400084644649915
0,-3.5963954696889258,-9.687599494263901,-11.236220314585973,-1.6098903360229804,-0.9350084194412389
0,-6.356317903855376,-12.297058729281535,-11.876323525812124,-13.750168684507347,-0.9300083744174898
0,4.9137613419383825,7.163484177809338,8.923574647836325,5.039554226323826,-0.9250083293937408
0,-4.21615771694314,-7.915970762064457,-4.796525780325785,-2.3007215950141555,-0.9200082843699917
0,-6.296075064997141,-10.535423537622133,-10.446624796771522,-6.220996139751471,-0.9150082393462391
0,2.0540093134931574,2.435125862848259,7.183277612266919,3.3687306010576576,-0.91000819432249
0,2.6940954344805697,1.6356774515233914,5.2631814607943666,1.5084586365203745,-0.905008149298741
0,-2.695816686027136,-4.263768759218067,-5.636913237256919,-0.981812024244412,-0.9000081042749919
0,7.174272967889673,12.526787242975193,11.092993531811505,10.807918627741065,-0.8950080592512393
0,5.724364411961305,16.47734547015025,18.322901781350307,9.337650601113019,-0.8900080142274902
0,2.704457661549502,4.357905933562554,-1.657188476025906,4.687383903871729,-0.8850079692037411
0,-1.3254472684091492,-0.6715313565153367,-5.357277228534659,-2.582881456679223,-0.8800079241799921
0,7.814649636724563,11.759033609497124,12.42263553520813,5.386854526329376,-0.8750078791562395
0,-0.905251608646928,-1.1003991592811722,-3.6774501735691176,-3.913408140417258,-0.8700078341324904
0,3.8348490096075496,-1.7598296541333733,-2.7975343438445965,3.3663305496784757,-0.8650077891087413
0,2.384951505362351,5.010742133427535,8.062383035286967,-3.703929396817738,-0.8600077440849923
0,-1.8149441077209783,2.1013162117732636,3.132301974631554,1.5158120266803308,-0.8550076990612396
0,-4.874837816081921,-7.378107410864196,-9.517777515227205,-6.9544451731585335,-0.8500076540374906
0,-3.444729606035466,-3.647528726239021,-3.3078554237474607,-2.3247009894677113,-0.8450076090137415
0,2.3253805363808944,1.1330522741642834,5.212068259883793,-7.024955415041646,-0.8400075639899924
0,3.845492625305438,-2.3063644008520976,-5.008006453283404,-1.245208442250806,-0.8350075189662398
0,3.3956066747902325,6.134221257625103,1.1719204478639849,-0.3754600630777437,-0.8300074739424907
0,12.21572269855463,14.844809258348276,19.131848974370108,6.004289730698378,-0.8250074289187417
0,3.8958407097647765,8.955399609479045,7.271779136816324,7.464040947193616,-0.8200073838949926
0,-5.744039279025384,-3.3340076816963937,-8.9282890550356,-5.4062064058275885,-0.81500733887124
0,10.29608274435484,9.296587391406682,14.811644407964653,0.8435476791092817,-0.8100072938474909
0,10.066206791804477,8.087184834910792,12.581579534562687,9.063303209382074,-0.8050072488237419
0,8.346332874666988,4.637784654400367,-1.5784836671605365,3.533060192181899,-0.8000072037999928
0,7.846461003451246,10.658386854780417,7.421454810103223,1.2728186342873953,-0.7950071587762402
0,4.486591187834939,12.238991440199028,10.811394973076775,5.082578542060217,-0.7900071137524911
0,-7.71327656311764,-9.580401585987019,-11.088663172022109,-6.757660078408207,-0.785007068728742
0,-7.263142240515904,-3.209792220902967,-9.278719619215142,-7.047897221057122,-0.780007023704993
0,-0.043005835167464035,3.650819538368943,9.171225637742632,1.6418671204511706,-0.7750069786812404
0,-3.3028673374327893,-7.508566305020684,-8.788827394530532,-1.5883670471849693,-0.7700069336574913
0,-7.772726737319353,-12.527949747659017,-15.528878709149305,-3.4985997170542733,-0.7650068886337422
0,-2.1925840244661465,-0.8673307856179256,2.2410717012903745,-1.1688308820922677,-0.7600068436099932
0,-3.302439188073913,-5.716709414295106,-2.9189761551188815,-2.1090605350366736,-0.7550067985862405
0,-17.512292216866815,-21.946085628432957,-23.589022269719898,-16.42928866833638,-0.7500067535624915
0,-2.7821430989044273,-6.535459421893369,-2.7590666331175666,-9.069515273857927,-0.7450067085387424
0,0.06800817855469754,-1.784830787422172,5.240890765037381,1.1802596574042075,-0.7400066635149933
0,-2.601838371185906,-11.154199716845799,-8.15915006429056,-4.319963864802517,-0.7350066184912407
0,-0.3316827345850719,-3.0435662013425167,-2.069189109906273,1.7598141696415284,-0.7300065734674916
0,3.588475101994514,8.577069768421886,13.150773639542857,5.399593770964583,-0.7250065284437426
0,-1.4613648478128185,-4.812291798004104,-2.409261804653721,1.589374949287408,-0.7200064834199935
0,3.3587974295348313,0.6283491088699337,-6.339295431489641,6.619157714437974,-0.7150064383962409
0,12.788961947387946,11.008992498437594,18.87067276986133,10.718942075817555,-0.7100063933724918
0,1.1791287186693333,-2.0003616201213963,4.780642809946893,0.5987280422493562,-0.7050063483487428
0,2.599297755717367,-7.799713237919331,-6.399385301282903,-1.1914843780131243,-0.7000063033249937
0,3.569469070410171,2.6609376539064757,2.390588445667639,2.678304822973085,-0.6950062583012411
0,6.579642674297624,8.701591064367445,13.630564060155484,10.768095652983886,-0.690006213277492
0,0.6598185785642804,-3.907752997608054,-1.479458448745923,4.967888119430219,-0.6850061682537429
0,-3.6200032059422482,-4.267094523305893,-6.1694790724066895,-4.302317770823042,-0.6800061232299939
0,4.640177331479345,4.793566495977643,5.250502197628895,-1.2225220112588513,-0.6750060782062413
0,2.430360201478868,0.08423006902687485,-0.5395146301296498,-0.37272459535746705,-0.6700060331824922
0,-5.199454585407112,-8.935103795368729,-13.019529547112953,-6.632925516430554,-0.6650059881587431
0,1.140732981298209,3.165564911684598,5.360457455462239,1.6868752324311236,-0.660005943134994
0,-2.2790770878397266,-1.4337638006923816,-1.1495536132876467,-2.8733223416280183,-0.6550058981112414
0,-1.9388847821182855,-5.553089923208953,-7.699562744046816,-1.9635182312794288,-0.6500058530874924
0,-3.1286900906812436,2.4275865535758867,-0.8295699273161212,-1.4137124290338985,-0.6450058080637433
0,1.9415069975112962,6.158265639224974,9.030424846645353,3.986095072739375,-0.6400057630399942
0,-3.798293506349593,-3.191052656774198,-4.029578412392041,1.3559042816828095,-0.6350057180162416
0,-7.908091590914943,-9.690368325047544,-8.919579694768267,-2.044284794680969,-0.6300056729924925
0,-4.437887244505895,-1.1396813560262546,1.4504210093174092,1.815527851071415,-0.6250056279687435
0,-6.237680454927856,-5.88899173968387,-8.49957628994892,-0.5446577736601603,-0.6200055829449944
0,-7.427471209411261,-6.528299465513585,-13.779571581901509,-2.524841661472058,-0.6150055379212453
0,9.352740505321314,16.922395477349102,17.01043514468692,10.864976195022981,-0.6100054928974927
0,6.73295470272889,3.9030930997217705,9.030443901275815,6.524795803002234,-0.6050054478737437
0,0.14317139598273915,-3.2262065880767667,-7.719545301082271,1.5646171691424169,-0.6000054028499946
0,5.053390597791709,5.754496423800877,7.630467548146497,6.134440299557449,-0.5950053578262455
0,4.1136123204899775,7.415202144936645,11.660482459197675,7.684265199882611,-0.5900053128024929
0,2.443836576067871,-1.9840894154115543,-5.239500558090989,0.534091875261164,-0.5850052677787438
0,8.984063376127361,6.7466217516302045,7.270518505636832,7.853920330335784,-0.5800052227549948
0,4.554292731803352,3.33733565460811,13.520539659339102,6.193750569276216,-0.5750051777312457
0,-4.685475346263919,-5.881947698220526,-6.949437088522201,-8.116417404195865,-0.5700051327074931
0,-1.4752408477115577,-3.2712282987091905,-7.06941172991181,-1.3565835865736855,-0.565005087683744
0,10.914996237798695,11.719493861389319,13.450615743176114,4.883252025750725,-0.560005042659995
0,10.835235920413401,11.280218790210661,14.910645338674247,13.633089436392858,-0.5550049976362459
0,2.1954782096676606,-2.7390535046802795,-5.029322936094093,-0.6270713514558718,-0.5500049526124933
0,10.695723114325306,10.231676983608402,7.500710925442036,8.772769664749232,-0.5450049075887442
0,5.405970642446394,7.602410261426974,10.64074692934485,6.312612486961806,-0.5400048625649951
0,-5.543779198517014,-6.776853665393705,-9.179214918768958,-6.167542883368748,-0.5350048175412461
0,2.986473598532597,2.283885208618132,0.9308253863944499,2.602303554900874,-0.5300047725174934
0,4.866729040595949,7.544626888832676,14.510867850048374,8.412151802817569,-0.5250047274937444
0,2.7469871345318913,2.195371380458471,5.050912477146749,3.912001861216193,-0.5200046824699953
0,1.5372478869059065,-3.2338813116197316,-3.449040727955272,-1.5281462694873726,-0.5150046374462462
0,4.0775113039845055,8.116868817234444,8.78100823858437,2.5617074107807123,-0.5100045924224936
0,2.4977773917667454,-1.662378228511564,1.331059380300458,7.241562901897199,-0.5050045473987446
0,-3.321953843991891,-7.461622444535458,-11.218887299503827,-0.2285797965163764,-0.5000045023749955
0,-1.621682397645097,0.999136173543469,-0.6888317974893811,0.4412793148469015,-0.49500445735124643
0,-2.25140826345765,5.3298976303126135,6.541225889983785,-2.2188597648869313,-0.4900044123274938
0,-2.731131435497878,-4.749338069585935,-8.728714233260257,-4.248997036566607,-0.48500436730374474
0,-1.3808519076174093,-1.928570921556525,-0.7586521633340155,1.4108674991258081,-0.4800043222799957
0,2.4694303265153374,8.332199079030502,7.411412103786954,1.5207338416710356,-0.4750042772562466
0,0.9197152732968569,-2.2970280632305675,-5.618521427818611,-6.519398009381929,-0.470004232232494
0,0.2700029390596463,0.6137476560783499,-6.068452754097342,-7.339528054344756,-0.4650041872087449
0,6.450293330004946,11.584526241182559,10.441618129117632,-0.959656293152048,-0.46000414218499586
0,2.950586452111707,-1.6246923039819927,1.651691226042353,-7.709782725250419,-0.4550040971612468
0,3.7808823110162413,-0.8239079758590458,-9.408233459289635,-4.929907349615354,-0.45000405213749417
0,8.06118091194729,10.186879228839372,5.881844077070942,0.7699698352428089,-0.4450040071137451
0,12.041482259614462,16.337669313052643,18.56192383905697,3.7698488311457004,-0.44000396208999604
0,11.881786357957566,6.778462278939088,0.5420058301501463,-0.8702703600327057,-0.43500391706624697
0,8.362093209916868,7.309258127607437,4.372090053028422,-0.7203877365193648,-0.43000387204249435
0,19.96240281733102,17.370056859175286,18.672176509641954,7.359496703366927,-0.4250038270187453
0,13.34271518080343,11.990858472732544,7.402265201155203,5.2893829611204115,-0.4200037819949962
0,16.543030299506484,11.971662966150623,4.572356127732665,2.8692710378430615,-0.41500373697124715
0,20.753348171059045,28.9924703359273,24.18244928852859,11.44916093412935,-0.41000369194749453
0,18.513668791411096,21.953280576885653,19.43254468152903,14.289052649929326,-0.40500364692374546
0,13.433992154737721,15.494093681796132,4.6326423031788275,7.528946184279037,-0.4000036018999964
0,25.174318253451297,22.374909641334924,20.532742148358494,14.868841535122485,-0.39500355687624733
0,16.744647078181373,17.49572844424965,15.982844210561444,3.9587386993246354,-0.3900035118524947
0,20.28497861766648,17.096550077429534,14.952948481819767,14.828637672750444,-0.38500346682874564
0,27.865312858675313,33.05737452586783,22.753054952550787,15.868538450254452,-0.3800034218049966
0,22.705649785857577,29.98820177238343,29.183163611379644,15.308441025483079,-0.3750033767812475
0,22.465989381559535,19.45903179721612,17.753274444820114,12.448345390669276,-0.3700033317574949
0,19.776331625828373,14.879864578036578,13.813387437158461,6.70825153666607,-0.3650032867337458
0,24.87667649653518,26.670700090348596,26.973502570682594,16.448159453138924,-0.36000324170999676
0,18.37702396942533,14.891538307715601,12.653619825831946,14.93806912862034,-0.3550031966862477
0,7.477374018224333,0.9123792018778943,-2.6062608186761556,0.9079805504336123,-0.35000315166249507
0,18.107726614967753,17.1932227431648,16.65386061463463,8.447893704841356,-0.345003106638746
0,17.368081730272458,17.784068900820348,21.563984102326504,11.107808577335831,-0.34000306161499694
0,9.45843933331906,5.204917642882865,2.4141096198000174,7.67772515267031,-0.33500301659124787
0,19.51879939181853,20.305768936066386,17.51423714111291,15.087643414702388,-0.33000297156749525
0,22.35916187199118,25.486622745707503,28.714366639006837,17.117563346215498,-0.3250029265437462
0,18.669526738350466,16.797479035442926,17.804498084585944,17.107484928666395,-0.3200028815199971
0,13.119893953525706,10.058337766982202,7.184631446987032,7.10740814201249,-0.31500283649624805
0,17.02026347837738,22.20919890029654,21.594766693584123,10.957332964837835,-0.31000279147249543
0,17.050635272178063,18.52006239377206,18.5549037902416,14.187259374592797,-0.30500274644874636
0,10.881009292663885,5.740928204150446,-0.7249572986957817,3.8871873476811114,-0.3000027014249973
0,27.83138549601913,25.57179628659934,25.76518338973011,20.137116859460853,-0.29500265640124823
0,14.121763836748311,13.86266659478323,13.185325817212794,7.287047884201216,-0.2900026113774956
0,4.222144267600786,2.053539080829929,-4.2545300558857795,-1.7730196049119455,-0.28500256635374654
0,8.972526739908806,9.664413695594316,3.8956157297714924,6.646914364529751,-0.2800025213299975
0,10.652911204053435,14.075290389041877,15.175763133011943,7.786849764490146,-0.2750024763062484
0,10.353297609576753,7.606169110261705,5.765912112139222,5.406786566466496,-0.2700024312824958
0,6.153685905098131,4.087049807370733,0.05606262469298251,2.5667247413732044,-0.2650023862587467
0,12.534076038318252,18.577932427593765,22.376214627471374,7.526664259588822,-0.26000234123499766
0,12.354467956015856,13.128816917203116,12.126368076418851,9.07660509098056,-0.2550022962112486
0,2.844861603980598,-2.7502967786563834,-2.6134770736532547,2.486547204808946,-0.25000225118749597
0,19.085256927022737,18.77059128415594,19.346679131024022,13.15649056966352,-0.2450022061637469
0,11.705653868935297,15.40148104889752,16.306836643313112,16.776435153353503,-0.24000216113999784
0,23.14605237224387,17.71237245764437,13.496995414880347,20.656380922557524,-0.23500211611624877
0,8.04645237795144,7.943265450989704,5.997155395975895,5.986327842466223,-0.23000207109249615
0,8.016853825569951,13.254159968116337,17.12731653559174,12.256275876806857,-0.22500202606874709
0,-1.722743346502754,-0.9849440529249742,-1.482521218335255,-0.49377501181280525,-0.22000198104499802
0,-5.382339200423626,-5.374046674812178,-9.70235791862688,-4.513824861464637,-0.21500193602124895
0,8.698066201547425,11.476852039502651,13.467806381649874,6.176126289534961,-0.21000189099749633
0,1.368472797119624,0.45775202692468087,-1.0720283706071667,-1.06392159717215,-0.20500184597374727
0,-2.4211194761919614,-10.40134677587102,-10.281862228658085,-7.523968559984953,-0.2000018009499982
0,10.619289318892495,12.219555567705953,9.79830475419795,7.775985362749273,-0.19500175592624913
0,10.279699119334138,15.870458994150844,15.558472524648163,7.59594013271088,-0.1900017109024965
0,-1.4198901384851341,4.371363439349795,-4.161358971074786,0.42589571129821513,-0.18500166587874745
0,11.980521481159006,7.732268838221551,4.5288102125912415,2.5958520594625636,-0.18000162085499838
0,0.8809339134306509,2.6831751248596816,2.5589800207958993,1.5458091378345955,-0.1750015758312493
0,-2.4786529069781658,-7.02591776715043,-8.750849601478956,-7.214233093100072,-0.1700015308074967
0,-8.43823904557902,-13.455009904283145,-18.37067870910497,-10.214274672740405,-0.16500148578374763
0,4.662175432290027,9.905898647398534,11.969492643650511,6.735684359932633,-0.16000144075999856
0,7.562590461494339,6.666807822196192,4.08966440307227,4.775643966284187,-0.1550013957362495
0,-0.7869940232297412,-2.212282445728918,-9.090163484535694,-4.834395892360673,-0.15000135071250043
0,7.253421912490667,8.22862777738544,9.77000892696347,3.8255647451411208,-0.1450013056887478
0,10.523838202604004,13.209538424878767,13.100181583548506,10.6855258397938,-0.14000126066499874
0,7.66425478046382,8.570449429429356,1.2903544307108439,7.435487352244982,-0.13500121564124967
0,14.704671578591475,16.021360722740006,13.200527413169091,12.115449242433403,-0.1300011706175006
0,9.775088528510043,15.062272235346608,16.280700474795545,5.355411469415079,-0.12500112559374799
0,7.835505560669125,6.063183896507061,6.900873558430714,3.4153739914060317,-0.12000108056999892
0,3.0959226045468897,-0.8459043656557483,-2.66895339416077,-0.6946632339924823,-0.11500103554624985
0,6.046339588895368,6.825007376274254,6.951219558079472,-0.5747002494877531,-0.11000099052250079
0,5.916756441920027,3.6359190493163895,7.571392355824839,6.765262902095285,-0.10500094549874817
0,-0.25282690866020774,-11.593169419793716,-11.378435060597413,-4.224773822190207,-0.1000009004749991
0,5.64758946446325,8.137741895618541,4.451737248960465,4.075189534558137,-0.09500085545125003
0,4.678005488261036,6.4686529222836695,11.221909224658335,-1.934847070851704,-0.09000081042750097
0,-8.29157891059549,-8.290436413212111,-13.167919193468629,-7.724883681604789,-0.08500076540374835
0,-3.8811638055166098,-5.869526184408692,-8.0077480654649,-7.1149203406575445,-0.08000072037999928
0,-0.030749269663091106,2.091383535379959,7.122422548957338,-1.3649570904804054,-0.07500067535625021
0,-8.260335375829463,-6.90770732679211,-8.287407409492245,-5.944993973014579,-0.07000063033250115
0,-5.099922196432001,-6.156798843548078,-7.987237999838522,-4.505031029758781,-0.06500058530874853
0,6.61049019652301,5.7741089128407275,13.16293071918602,5.9849316981551315,-0.06000054028499946
0,9.050901731200938,6.3850158703038815,13.243098688897936,14.58489416967847,-0.05500049526125039
0,-7.878687664472215,-7.714078043356433,-11.116734149876919,-6.085143656628333,-0.050000450237501326
0,-0.26827806283759825,2.456827099498396,1.2634321431947304,5.374818177259531,-0.045000405213748707
0,3.312130463777086,5.08773122650742,8.863597508364858,3.854779629043113,-0.04000036018999964
0,-8.807462156836179,-8.271365734704682,-11.646238114115661,-2.2452593437934913,-0.03500031516625057
0,-4.437055996710496,-7.600463856464232,-4.896074783969286,1.264701216045963,-0.030000270142501506
0,-11.846651127456155,-7.1095632107058595,-0.04591256059714377,-4.275338734191523,-0.025000225118748887
0,-10.326247619975558,-14.818663868652802,-14.625751502901664,-10.715379237104644,-0.02000018009499982
0,-13.115845544245385,-11.637765900601348,-12.725591669159849,-11.155420334824129,-0.015000135071250753
0,-13.365444969148978,-10.05686937574255,-4.325433116747262,-9.065462068666196,-0.010000090047501686
0,-19.575045962322115,-16.375974362093526,-14.815275902022684,-14.26550447894472,-0.005000045023749067
0,-23.244648589912117,-21.69508092639946,-24.135120080280164,-15.715547604862643,0.0
0,-17.714252916271665,-13.064189133883971,-9.484965705444312,-9.465591484372762,0.005000045023749067
0,-13.693859003831971,-12.553299048123371,-6.724812829899074,-5.215636154188904,0.010000090047498134
0,-21.373466913228,-22.31241073114727,-23.944661504694448,-9.71568165002344,0.015000135071250753
0,-23.683076703357028,-19.881524243412045,-22.494511779536722,-8.875728006781372,0.02000018009499982
0,-27.16268843115212,-19.660639643570033,-13.47436370240634,-16.46577525851182,0.025000225118748887
0,-36.65230215119288,-31.71975698825556,-30.54421731932377,-20.085823438148058,0.030000270142497953
0,-24.301917915319247,-25.938876331834415,-27.014072674215523,-8.825872577203699,0.03500031516625057
0,-28.811535772459308,-27.43799772611516,-17.603929808662155,-20.525922705663703,0.04000036018999964
0,-25.781155768737037,-29.33712122022001,-21.0537887618748,-15.32597385200819,0.045000405213748707
0,-25.250777947627626,-31.026246860540667,-29.293649570886657,-15.07602604316525,0.05000045023749777
0,-24.43040235005095,-23.33537469067356,-17.78351227054706,-12.616079304505552,0.05500049526125039
0,-21.980029014472613,-23.504504751488945,-17.533376893475612,-15.496133659949336,0.06000054028499946
0,-18.669657977045084,-25.54363708134257,-22.693243470235593,-13.096189132038464,0.06500058530874853
0,-22.269289271778984,-25.42277171619756,-25.34311202943144,-18.71624574191683,0.0700006303324976
0,-14.72892293068711,-16.901908689647584,-5.612982597652169,-5.62630350930577,0.07500067535625021
0,-14.228558983934867,-14.03104803309547,-17.2828551996597,-8.116362452643198,0.08000072037999928
0,-19.018197460031324,-22.460189776073605,-23.912729858689083,-14.23642258934172,0.08500076540374835
0,-19.377838385890737,-16.279333946389325,-8.98260659641614,-11.916483935847246,0.09000081042749741
0,-13.347481786742918,-13.448480570106728,-6.852485432927646,-0.3965465075610718,0.09500085545125003
0,-19.867127686114426,-21.73762967160288,-21.522366386996776,-6.926610319001419,0.1000009004749991
0,-10.736776105907193,-10.25678127363884,-5.672249476223447,-2.8766753841087858,0.10500094549874817
0,-10.246427066530615,-7.655935397458377,-2.6621347170454666,3.2232582835618566,0.11000099052249723
0,-15.706080587091716,-17.50509206302655,-16.472022124962525,-2.726809329330202,0.11500103554624985
0,-5.625736685524114,-8.864251289166237,-10.34191171464373,-6.386878236025726,0.12000108056999892
0,-0.7753953787310228,2.816586906386651,9.478196500136933,4.593051550400556,0.12500112559374799
0,-6.77505668290509,-6.882577493333798,-9.46169749377264,2.0129800170298586,0.13000117061749705
0,-9.924720613752756,-10.83174450484026,-16.051593709190378,-7.237092849057046,0.13500121564124967
0,-4.974387186407782,-1.870914144133705,3.4585078416132418,-6.767167060708566,0.14000126066499874
0,-15.924056415253641,-11.630086426552365,-12.62139285288048,-12.11724263034707,0.1450013056887478
0,-19.003728313705736,-19.919261366656063,-22.761295803422204,-14.267319569601908,0.15000135071249687
0,-15.453402893859252,-9.42843897792583,-8.201201019683808,-10.727397889038105,0.1550013957362495
0,-16.34308016622128,-13.937619272506025,-11.941108509946986,-17.007477597998555,0.16000144075999856
0,-8.912760139722666,-8.696802261248193,-11.131018281204213,-3.2675587045788963,0.16500148578374763
0,-14.732442821898177,-13.48598795385021,-11.050930339335082,-8.30764121577535,0.1700015308074967
0,-10.632128219041654,-6.585176358926813,3.119155310778239,-3.00772513776465,0.1750015758312493
0,-11.591816336262625,-12.35436748406788,-13.440761334993136,-10.277810476101148,0.18000162085499838
0,-12.241507177512554,-15.063561335848972,-17.360680280122093,-12.057897235683384,0.18500166587874745
0,-2.1012007456597876,2.9472420801971926,2.3193984728094303,-2.0779854206044086,0.1900017109024965
0,-5.780897042692195,-6.561957240602813,-3.720525077871897,-3.1680750341782904,0.19500175592624913
0,-6.930596069969266,-2.201159302414849,-7.9804509332803555,-0.8581660792046316,0.2000018009499982
0,-1.030297828338668,8.729635890855297,9.72962090579009,7.651741441731111,0.20500184597374727
0,5.479997681750628,8.640428335259037,6.249690438638366,7.581647525931947,0.21000189099749633
0,-8.309709539991847,-13.62878197350513,-13.060242335647601,-6.278447829684648,0.21500193602124895
0,-10.649419493721963,-11.287995039852852,-10.770177418012953,-4.1685446284810705,0.22000198104499802
0,-9.419132179102968,-4.277210867664527,1.5898851911154088,-1.49864287371094,0.22500202606874709
0,-9.608847594951767,-3.806429460001623,-5.820054508019306,0.9012574316621116,0.23000207109249615
0,-5.008565739167045,-6.555650819278965,-8.499996514696601,-2.048843715140524,0.23500211611624877
0,-8.958286608825734,-5.854874947404083,-1.8499408277383778,-2.2589463168048285,0.24000216113999784
0,-6.638010200271901,-7.454101845738332,-1.9598874454669524,-5.609050375865623,0.2450022061637469
0,-0.477736509177355,-6.20333151502714,-9.199836365790905,-1.1191558945874196,0.25000225118749597
0,2.7925344692720366,2.6774360445736276,3.0302124137551334,-1.459262874926196,0.2550022962112486
0,-4.16719725991892,-0.16179916671231928,-1.6397411040322176,-1.0493713186047682,0.26000234123499766
0,-8.186931691643652,-6.581037148518689,-10.059696916129885,-5.369481227173049,0.2650023862587467
0,-2.5866688204936983,-1.6102779003305339,-0.9296550192219867,1.0304073980242747,0.2700024312824958
0,-8.866408640560064,-5.67952142133118,-5.3796154095483795,-9.609705444093544,0.2750024763062484
0,-10.446151145334742,-10.018767710284536,-15.499578082834617,-9.149819754217916,0.2800025213299975
0,-3.4558963275979306,-5.578016765389821,-9.739543034089063,-1.2499355324513335,0.28500256635374654
0,-2.6756441794158965,-0.4872685841933781,-1.0595102573736779,-6.250052778265733,0.2900026113774956
0,-4.755394692326184,-6.9365231637051465,-1.7394797459479747,-5.600171490619864,0.29500265640124823
0,-5.675147857470656,-9.155780500495766,-11.649451492588028,-3.910291667997752,0.3000027014249973
0,-1.0849036655861974,-0.7950405906088764,3.0705745103438042,-3.6104133084018604,0.30500274644874636
0,-2.0946621070314824,-1.784303429551518,1.0305982708784012,-4.09053640940457,0.31000279147249543
0,4.545576828065377,-2.323569012478898,-0.8993802027908226,2.0493390317700837,0.3150028364962445
0,-8.184186850347592,-7.402837334304335,-8.299360902439531,-9.820786981830917,0.3200028815199971
0,1.09604686776218,8.297891610321763,11.210656180279507,5.229085553093522,0.3250029265437462
0,-5.333722007365903,-4.071382173090381,-6.999328946198057,-2.2010433599358006,0.33000297156749525
0,1.1365065347617764,-6.780658678998841,-7.489316273422447,-5.841173717273196,0.3350030165912443
0,-1.9232674951588926,-1.4399379016959715,3.240694207251932,-4.601305515089829,0.34000306161499694
0,3.486955913675236,2.9007801648393934,3.9307025047436417,3.658561250767943,0.345003106638746
0,-7.462823227897147,-9.608504473141,-13.26929137193709,-9.001573415256702,0.35000315166249507
0,7.5473950910109675,5.5522081907850085,7.440712586320859,-1.6917095084771474,0.35500319668624414
0,3.507610881280903,2.8329181631763194,3.8707143887931537,3.3881529760815394,0.36000324170999676
0,2.197824153579937,-6.10637454942654,-7.459285955266018,-2.901985956411855,0.3650032867337458
0,9.43803491819791,3.734330059462807,5.690711563302807,4.567873699226558,0.3700033317574949
0,6.2082431849453386,3.335031996339727,12.310706953578375,3.627731948081188,0.37500337678124396
0,1.9384489630501616,0.6057312676097775,-3.069299775691429,-1.4024112049601969,0.3800034218049966
0,3.8486522611995855,0.4364278794853943,-4.289308616200677,2.757444244781419,0.38500346682874564
0,-1.1611469122850946,2.3071218380284133,4.14068044021346,-0.6327016981431304,0.3900035118524947
0,-1.560948549270595,-0.7221868508021791,1.980667401757354,-1.12284902924948,0.3950035568762438
0,-0.010752641648675731,-4.171498181103022,-8.4493477233875,-0.3429977440592503,0.4000036018999964
0,-1.340559181240578,1.28918785309053,2.8406350730018333,-0.2731478380444904,0.40500364692374546
0,-3.960368159765498,-3.5301287421108105,1.3806157993057868,-4.063299306602092,0.41000369194749453
0,0.8498204312074342,-3.1694479604322314,-9.049405535983663,3.1265478549760912,0.4150037369712436
0,1.9000066002541565,4.34123020457481,1.2505710757699733,2.3163936514651935,0.4200037819949962
0,-0.06980964402160417,4.9619057594167995,8.360545643401489,1.2662380875625496,0.4250038270187453
0,-3.949628293056457,-9.257421289524139,-7.5594818242455855,-3.0439188321827104,0.43000387204249435
0,-1.9294493382278253,-5.08675093587717,-10.609511318359806,-4.624077103240952,0.4350039170662434
0,11.75072722919658,9.73391682698408,15.420457170099708,3.3457632790759315,0.44000396208999604
0,-6.239098582131977,-6.315417994131564,-1.9495763496691718,-5.1043976803589235,0.4450040071137451
0,1.4710732362226109,-5.064755392406017,-7.449611868634548,0.6354400234568345,0.45000405213749417
0,9.331242692557158,9.715904639067654,8.750350622123891,8.085276395594136,0.45500409716124324
0,8.141409794918367,7.096562107196098,12.930311131460314,6.235111440969635,0.46000414218499586
0,0.9615745508102176,-3.742782981457193,-2.6697303321960364,2.804945164051472,0.4650041872087449
0,1.8517369671682942,3.377869379276886,2.150226238995907,0.4647775688080422,0.470004232232494
0,3.301897050573075,8.288519195339411,8.070180852505105,-1.4053913410985892,0.47500427725624306
0,0.8220548073785487,2.519166472378859,2.4101335154970425,0.17443843790362357,0.4800043222799957
0,12.612210243670653,8.909811215565908,6.280084234709382,9.70426690934638,0.48500436730374474
0,4.212363365080738,10.910453429473321,7.930033016380921,5.164094076518584,0.4900044123274938
0,4.582514176608934,4.141093117945789,6.159979866182642,-1.8860800577552783,0.4950044573512429
0,-1.0573373173159375,-4.208269715878135,-7.12007521077849,-5.426255490997847,0.5000045023749955
0,6.252808887375966,9.122364930715818,10.579867790257182,4.013567779260063,0.5050045473987446
0,1.4929527944945407,5.692997060171614,8.739808873800204,1.8833897555911538,0.5100045924224936
0,3.3530944075621543,4.3636266745120125,-2.220251956088733,5.013210440488686,0.5150046374462427
0,2.4632337298044367,5.444253775215924,1.2996853041636265,3.863029836166893,0.5200046824699953
0,6.323370764151461,9.934878363215555,10.079620657841435,4.202847944466837,0.5250047274937444
0,3.603505513176519,1.5155004388522384,-0.580445892059738,2.752664766835905,0.5300047725174934
0,4.643637979025871,-0.9938799980856753,-3.190514342897094,4.8824803043465455,0.5350048175412425
0,3.773768163408718,6.1367370518465965,6.259415307779611,0.2922945577241564,0.5400048625649951
0,6.223896067608823,8.197351587833385,7.079343062294352,8.562107527363889,0.5450049075887442
0,2.8340216924681916,-2.832036391332535,-4.920731077318721,2.291919213292074,0.5500049526124933
0,7.534145038366408,9.65857311270892,10.479192890639025,10.651729615064822,0.5550049976362423
0,4.754266105192651,5.099180097918093,8.949114967525672,4.551538731657079,0.560005042659995
0,-5.535615107628244,-8.670215438149912,-15.620964845729542,-6.8586534385222455,0.565005087683744
0,0.49450139908611057,4.200386501841513,2.188953451617689,-2.1588468973237824,0.5700051327074931
0,8.584615624494207,9.510985915202358,17.298869860441744,8.580958353477122,0.5750051777312422
0,-2.7952724323495444,-2.778417200945392,-3.831215618534883,-6.159237687848325,0.5800052227549948
0,-0.44516277261197956,-1.5378228497995863,-0.8213029850815264,2.920564976884336,0.5850052677787438
0,4.114944602415975,5.562768965289747,10.168607760695954,-2.079633654169801,0.5900053128024929
0,-5.674950308590368,-5.27664175906479,-4.221483381512293,-8.279833582763473,0.595005357826242
0,-4.934847506909665,-7.066055026227922,-8.151576412191776,-6.460034810366277,0.6000054028499946
0,2.7152530063927847,8.654529160621596,13.568328668199518,5.639762662010739,0.6050054478737437
0,0.7853512304739857,7.735110798399962,6.858231859169989,5.619558833635006,0.6100054928974927
0,-2.5845528354565963,-2.7243101162603898,-6.191866840172628,-0.08064629636059462,0.6150055379212418
0,4.295540807782328,3.5062664128677454,1.1980325688915547,5.799147270820241,0.6200055829449944
0,5.215632159294521,12.67684038170745,13.057930084950314,2.8689395336468224,0.6250056279687435
0,2.195721217944515,1.187411785756973,0.5578257063353238,0.5687304902710418,0.6300056729924925
0,-2.564192017720247,-7.72201937999912,-11.112280569036148,-6.861479861372732,0.6350057180162416
0,0.8758924506712102,4.568546879210478,5.267611256646029,-0.3516915233069661,0.6400057630399942
0,0.5559746214738687,-0.6808894417740499,1.7575011813658832,-1.731904497315605,0.6450058080637433
0,-10.043945506892861,-11.910328348009383,-18.012610796750952,-10.852118784897906,0.6500058530874924
0,4.616132064181045,8.050230155649276,10.727275320669735,5.547665612791035,0.6550058981112414
0,4.336207333514723,2.610786064558749,4.9871595322935445,2.1174486948887736,0.660005943134994
0,3.0862802998755696,-2.0586606259750795,-3.0129581632807563,3.4872304605323023,0.6650059881587431
0,-4.893649038224018,-8.038109920766164,-6.0930777676778165,-7.6729890913259915,0.6700060331824922
0,-1.743580682388326,-0.6875618244659184,2.8068007175324055,-3.793209961736527,0.6750060782062413
0,-3.173514634082715,-6.477016341341742,-4.98332270899258,-1.7434321514642461,0.6800061232299939
0,-3.793450894507964,-7.416473475224675,-8.683448048356773,-5.533655660893723,0.6850061682537429
0,-2.3233894645702353,2.764066770520147,6.906424698656013,0.4661195099251416,0.690006213277492
0,-4.783330344863686,-0.8253956071016657,-6.253704468446717,-0.3341066387992678,0.6950062583012411
0,-3.363273535648588,-6.444860610906254,-13.273835549934821,-3.934334106697953,0.7000063033249937
0,3.8667809631273293,8.275671756404861,9.346031454301292,3.6254371067062126,0.7050063483487428
0,-4.223166848298693,-3.183798507813341,1.995896544726632,-0.6347929980450091,0.7100063933724918
0,-8.113116969567205,-13.603271406185753,-14.704240278133039,-9.38502442037185,0.7150064383962409
0,-1.6130694000309858,-3.9427469410281177,-5.24437901358155,-0.1652571595061494,0.7200064834199935
0,1.4569758613634187,-3.0822251140172336,3.815480339613311,-0.9054912143339323,0.7250065284437426
0,4.867018815886488,2.0682940737271562,4.695337783099825,4.404273416492396,0.7300065734674916
0,2.7070594647090913,3.2488106213067036,1.7251933184792168,2.274036734293592,0.7350066184912407
0,16.867097808630184,24.539324527617907,26.93504694691427,16.433798740097117,0.7400066635149933
0,1.427133847802961,2.9498357907915205,3.7348986686884507,4.183559434320011,0.7450067085387424
0,-0.6428324183620162,-1.3796555920931854,-7.225251517016165,-0.20668118340383357,0.7500067535624915
0,5.56719900904851,13.040850375272056,11.344596388286469,3.8030768859744764,0.7550067985862405
0,4.147228128672502,8.81135368865347,15.424442382721205,7.262833641172677,0.7600068436099932
0,4.857254938821363,-1.8881456568464825,1.1842864637689068,3.1125890805532337,0.7650068886337422
0,13.657279437321863,14.6123523332006,13.554128628003385,15.312343201953093,0.7700069336574913
0,9.867301621295653,9.752847652582952,16.613968871079226,10.602096002457882,0.7750069786812404
0,-5.252678512986286,-7.116659705646905,-9.716192812312269,-4.508152521756827,0.7800070237049894
0,3.5773390301306636,-2.006169748951437,-7.066356428144253,0.371597624813003,0.785007068728742
0,4.017354246057843,5.304317515156891,7.783478017602506,-2.598653562508523,0.7900071137524911
0,-6.8126328699125125,-2.1251979207633296,-1.186689480841407,-2.378906088287985,0.7950071587762402
0,-0.8026223225193123,-3.324716064183214,-9.206858929213578,-1.7991599569097105,0.8000072037999892
0,11.947385883574631,10.985763077401012,9.252969666813119,7.010584827391036,0.8050072488237419
0,-3.4226082563928233,-1.8037605036226707,1.632796301648343,-2.6496717396361538,0.8100072938474909
0,-1.292604747468152,-6.723286815088667,-9.917379030384177,-3.7999296623517993,0.81500733887124
0,-5.522603594793513,-5.292815864816872,-6.797556334906734,-4.5701889450590185,0.8200073838949891
0,-3.612604803296954,-2.452347660260773,2.032264382877713,-6.17044959175143,0.8250074289187381
0,-3.7426083775415937,-10.431882208382529,-9.63791688174472,-4.550711605969117,0.8300074739424872
0,-11.53261432165508,-11.401419515561498,-14.448100133013629,-8.580974990729201,0.8350075189662434
0,-9.092622639170335,-9.980959587365572,-4.168285374447349,-4.46123974846842,0.8400075639899924
0,-6.522633332824736,-11.210502428365857,-8.728472608659592,-5.201505881021382,0.8450076090137415
0,-4.382646404534477,-10.80004804208896,-15.438661837394612,-3.661773389673992,0.8500076540374906
0,-0.4826618555761456,0.7804035689186353,2.9411469384696796,-4.562042275244384,0.8550076990612396
0,-1.6426796868303648,-3.9991475971557726,-0.8390462812093318,-6.582312538111969,0.8600077440849887
0,-8.702699898920464,-10.08870154166347,-16.749241496130107,-4.982584178177993,0.8650077891087378
0,-6.982722492117183,-8.648258265464532,-9.649438705471459,-7.942857194800199,0.8700078341324868
0,-1.4327474661514163,2.3221822312386724,6.420362092397999,1.0268684132209287,0.875007879156243
0,-7.752774820195176,-7.467380051181485,-9.089839100225872,-4.873407352458841,0.8800079241799921
0,-6.662804552915534,-8.966945111928915,-12.140042280649471,-8.753684489825654,0.8850079692037411
0,5.317163337510834,3.103487050260879,10.429752554287333,-0.7639629964462449,0.8900080142274902
0,3.2871288531984515,1.2039164370645372,3.889545408092742,6.90575713052121,0.8950080592512393
0,-7.122908003759175,-12.375656949644675,-14.45066371576177,-6.604524105938561,0.9000081042749883
0,-1.5729472312949997,2.884766892225424,3.7291251862023165,-1.3648067028521442,0.9050081492987374
0,1.8870111728328856,5.585187965066422,6.958912117699962,-0.47509065713221166,0.9100081943224865
0,-3.313032788948341,-3.20439372865772,-7.271302917487076,-3.4053759654904563,0.9150082393462426
0,-1.3630791141101242,-5.293978186571885,-5.601519915622844,-4.315662624438634,0.9200082843699917
0,10.216872199931956,13.576434593708957,15.128261127146331,9.05404936970584,0.9250083293937408
0,-1.003178844361419,-2.5231553855081845,-3.0819597853362275,1.2537600206407833,0.9300083744174898
0,-0.283232244823447,0.07725187779734904,-1.602182649514262,-0.35653066816919105,0.9350084194412389
0,5.7767120004808525,6.217656385400156,10.32759253792285,5.443177306476081,0.940008464464988
0,1.1966538933108162,2.668058138883211,3.267365780055808,-2.8071160524114047,0.945008509488737
0,-8.023406564752364,-9.351542860392328,-12.022862920360497,-6.327410741910453,0.9500085545124861
0,5.906530627849119,9.568853388855011,10.806906439294691,5.502293240992851,0.9550085995362423
0,3.356465472737784,9.329246887855525,13.246673861595088,5.131995899413424,0.9600086445599914
0,0.9763979714206057,-2.3503623625113805,-0.9435606513243783,3.50169723629024,0.9650086895837404
0,4.976328125132916,8.040025638125083,10.716202901955194,9.001397254139167,0.9700087346074895
0,4.026255934811115,3.1704108897211105,6.765964522196535,5.641095954936103,0.9750087796312386
0,0.8861814010620037,1.1507933918553024,1.3357242095404231,3.7107933400517705,0.9800088246549876
0,-2.9338954757853637,-1.0088268562128069,-4.444518036380188,-1.639510589670152,0.9850088696787367
0,3.4760253044874805,3.821550144609388,7.465237783851585,4.100184166301268,0.9900089147024858
0,-0.12405625792370129,-1.1280756066821929,-0.5950083304368909,0.4598776083294428,0.9950089597262419
0,-9.864140162821045,-12.347704111111016,-15.72525637998062,-4.810430263336491,1.000009004749991
0,-2.2142264098152946,4.472664630527225,1.8144936347243439,-0.24073944843551243,1.00500904977374
0,-0.9843149981149867,0.35303061778097944,7.304241713636643,0.7889500534341229,1.0100090947974891
0,-1.0744059265762864,-0.8466061496605028,-6.146012143105134,2.4686382427628817,1.0150091398212382
0,-1.124499193872567,-0.22624567213267943,-1.9662679354161356,1.098325119980902,1.0200091848449873
0,0.12540520142619038,-0.1458879499695444,5.273474336839939,1.3080106853756241,1.0250092298687363
0,-4.184692739154219,-7.665532983427953,-7.876785326104051,-4.322305060876095,1.0300092748924854
0,-6.044793013920183,-10.825180772496454,-11.90704692385834,-6.562622118541654,1.0350093199162416
0,-1.4748956208650348,4.445168683358114,4.202689544402565,-0.9329404871037458,1.0400093649399906
0,-10.855000557558224,-8.294484614805922,-9.777575919944036,-9.793260165625643,1.0450094099637397
0,-3.005107821060043,-3.5041406655590395,-6.8078433150568705,-1.4635811527029323,1.0500094549874888
0,3.6147825920895666,0.9462005328684813,6.841887361356751,-2.06390344646271,1.0550095000112378
0,5.844670685610252,6.176538982488812,12.871616111805741,2.595772955300053,1.060009545034987
0,-2.3454435368991544,-10.563125314670938,-9.078657061483787,-6.534551945062378,1.065009590058736
0,-0.9555600720601991,-5.132792356522323,-4.978932156629645,-2.8948781450565866,1.070009635082485
0,2.054321083437847,9.027537859322692,11.780790828276416,-0.9152056419250644,1.0750096801062412
0,-0.10580006708756445,-2.522134664545177,-3.5094881047983644,-5.2855344326068,1.0800097251299903
0,3.404076479625764,3.3581900743653383,-7.659768954008369,0.5141354862285241,1.0850097701537393
0,6.413950726677547,9.67851207830839,11.35994828248098,5.743804118096778,1.0900098151774884
0,-5.226177323091268,-3.0811686507952327,0.5796636065176053,-2.996528533492364,1.0950098602012375
0,-8.006307666979996,-8.140852111319845,-12.310622980196769,-8.546862465094375,1.1000099052249865
0,-8.226440302029228,-5.420538301552297,-2.1309114758988263,-5.967197673053699,1.1050099502487356
0,1.613424775291981,2.129772780653221,6.118798121555754,7.752465846733402,1.1100099952724847
0,-5.996712430961216,-11.64991886212353,-16.361494185363973,-6.867871901331876,1.1150100402962408
0,-10.73685191633192,-10.95961322684854,-11.79178839381537,-13.568210912684329,1.12001008531999
0,6.953006324085718,7.340689690141172,15.107915499700974,6.331448817631462,1.125010130343739
0,-2.2371377044298812,-0.7490101069947359,-4.422382500864606,-2.5688927049518964,1.130010175367488
0,-1.3972839964932238,-3.148712613989338,-7.802682391571605,-2.2992354747842807,1.1350102203912371
0,5.582567453259082,6.721582173375313,11.697015831504617,7.950420513814281,1.1400102654149862
0,2.342416650103217,2.271874259228115,0.936712172298922,1.360075266429863,1.1450103104387352
0,-9.337736400841008,-13.947836352436571,-14.223593365400385,-10.700271211538299,1.1500103554624843
0,0.2421083055591986,1.472450342478698,3.406099222249094,2.969381085322378,1.1550104004862405
0,4.831950774651175,-0.027265651551041548,4.465789939405162,3.729032162638681,1.1600104455099896
0,-1.938208988119034,-5.376984329745266,-6.6945212096261635,0.99868202608442,1.1650104905337386
0,2.661629022599794,7.483294312811871,7.045165779421854,2.688330681149283,1.1700105355574877
0,-2.3185351879399807,0.9235702810365607,3.7948509107363,-0.31202186688596306,1.1750105805812368
0,-1.7187016144987493,-4.126156420294651,-6.795465811668296,-1.6023756128684354,1.1800106256049858
0,-1.1388702517560625,-5.765885786452882,-7.855784383833518,0.7372694483291637,1.1850106706287349
0,1.6409589057289153,1.2543821875062635,8.283895198452875,3.036913321847426,1.190010715652484
0,0.13078586345416948,0.7946475067971714,3.1635729396114307,3.0965560127481426,1.1950107606762401
0,-0.3093893731055557,-8.22508982321526,-6.226751156046334,0.9761975258926123,1.2000108056999892
0,-0.39956679850333987,2.625170202993742,3.7329229156505486,-2.144162134060127,1.2050108507237383
0,0.4002535927132914,4.615427591130253,3.21259515886253,4.085477037446655,1.2100108957474873
0,-3.4399281939708555,-4.064317653087598,-10.367734422268988,-0.6748849550898353,1.2150109407712364
0,0.9998878470037718,-3.6140655240032444,0.5819341764759789,-0.9852481072530525,1.2200109857949855
0,6.159701721253246,9.346183984091144,13.731600959497367,9.734387585276542,1.2250110308187345
0,6.419513434249465,4.01643087685418,1.4212659310637283,5.244022126577066,1.2300110758424836
0,-2.110677008907873,-4.833324840352544,-7.359070904998815,-3.4163444797077416,1.2350111208662327
0,6.8291303965005445,12.46691683752212,14.740590454835456,13.303287769645454,1.2400111658899888
0,-3.5410643450676633,-2.6128440847366106,-0.03974998611585656,0.8329188774687075,1.245011210913738
0,0.14873877069332475,-4.442607602614951,-8.640092224849452,0.19254884613793138,1.250011255937487
0,5.1185397480305355,0.667626288326328,8.509563741483815,3.2221776776713167,1.255011300961236
0,2.1983385910919266,4.147857592634799,6.78921791571138,2.4518053738851746,1.260011345984985
0,-7.6618646961501105,-9.681913685084151,-15.191129699512324,-0.6585680635873283,1.2650113910087342
0,-8.06207010969353,-8.541687540078204,-10.111479101504088,-11.66894263319507,1.2700114360324832
0,3.2977223548350443,7.498536032815997,9.97816971294267,2.690681666825546,1.2750114810562323
0,-6.942487297761207,-5.301242960866037,-3.4821832524893996,-2.1796951613867486,1.2800115260799885
0,4.477300937585055,3.84897548450991,-0.9425379940527752,3.349926884529288,1.2850115711037375
0,-1.2929129339373056,6.149191374509918,9.43710549191127,0.7095478069341767,1.2900116161274866
0,-7.553128907076871,-6.5205952854670715,-4.303252791083652,-8.270832391864115,1.2950116611512357
0,-8.19334697636779,-10.060384490088168,-15.143612839627536,-2.4112137094358235,1.3000117061749847
0,-5.123567135833376,-4.2301762336848086,0.6860253499873901,-2.521596143012625,1.3050117511987338
0,-11.583789378810536,-8.269970509946095,-5.524338217913695,-7.7919796894322095,1.3100117962224829
0,-9.254013697865126,-9.199767311864617,-12.02470353842797,-4.812364345111966,1.315011841246232
0,-0.6942400847355089,-1.4995666317333907,1.864929393906166,0.787249894003744,1.320011886269988
0,3.4555314694870116,3.980631538730089,10.834560585008614,4.226863032306569,1.3250119312937372
0,-7.624699026005233,-4.849172791930068,-8.775809959152982,-8.20352492572886,1.3300119763174862
0,0.2250684381113246,3.8110203848723385,-5.596182232731008,2.506086024412198,1.3350120213412353
0,8.084833871304289,13.191211077639828,11.073443770236311,9.905695887315147,1.3400120663649844
0,0.134597282999798,2.3413992944938418,-1.4269319441980906,1.215304667399229,1.3450121113887334
0,1.0243586823600783,-2.608414957030197,-7.917309370113013,1.214912368673835,1.3500121564124825
0,1.8141180783083657,2.3517683302221286,1.0023114984158563,-1.1454810051751476,1.3550122014362316
0,4.793875479604449,2.101949163293243,9.161930667489289,3.774124549408673,1.3600122464599878
0,-4.496369105173288,-6.637872450821874,-8.82845185679654,-2.99627096408696,1.3650122914837368
0,2.3033843324237657,2.432303494900486,2.3711639315443493,1.5633324577717422,1.3700123365074859
0,1.0331358008178906,6.392477007562733,8.580778038481116,2.2029348183915367,1.375012381531235
0,-7.317114691552765,-5.827351905792802,-9.349609530096496,-4.96746387885125,1.380012426554984
0,-1.6373671361285,-4.54718323820655,-5.249998768356469,-4.1678636305343115,1.385012471578733
0,8.612378475866024,9.252983017377788,10.389610329715904,2.121735566971531,1.3900125166024822
0,2.8921221532103516,-3.4368531319187503,0.9892177702434601,1.8613337174923288,1.3950125616262312
0,-1.5181360956071108,-4.296691679057055,-7.171176440826078,-0.5490691751337176,1.4000126066499874
0,5.871603737597667,8.773467382981018,10.738427702307074,5.130526892819503,1.4050126516737365
0,1.5413416607889998,1.1936240611771238,3.5280302053342925,-1.7298780750745357,1.4100126966974855
0,-0.16892231830040816,-8.55622163765906,-12.652368926285513,-4.520284075357998,1.4150127417212346
0,6.550811807836374,2.9639302932414107,4.127230312842811,6.209308895440712,1.4200127867449837
0,11.390544046410204,10.184079860743344,14.916827928233932,3.378900840797521,1.4250128317687327
0,14.62027440402113,15.174227071463974,11.606423925104501,18.108491763889486,1.4300128767924818
0,7.930002886290039,2.2343719312453,3.4560183077991504,8.568081667153528,1.4350129218162309
0,5.669729497759102,4.764514445025629,7.81561107971833,-4.8823294479340165,1.440012966839987
0,0.13945424211647117,1.2446546171063908,0.435202243569901,1.12725841944081,1.445013011863736
0,6.189177122519944,2.0347924514256124,-2.785208198372297,4.836845269894369,1.4500130568874852
0,4.658898141756767,9.874927951636467,10.564379755941854,5.206431103919157,1.4550131019112342
0,2.108617302223889,3.405061120997288,2.9639661083307116,2.396015921691947,1.4600131469349833
0,0.8883346059397588,-3.5548080377126667,-7.7364491397332,0.005599723016168734,1.4650131919587324
0,6.388050054634255,2.3653204779807484,0.9331340130568306,4.03518250742689,1.4700132369824814
0,3.2377636497497297,4.075446670456084,7.722715568083855,-0.23523572572799242,1.4750132820062305
0,-0.632524607614352,-2.3244294580138103,-1.5677044733113292,1.164345022735993,1.4800133270299867
0,0.4871852833748791,-6.89430790524226,-10.428126109943971,-3.4360752480938084,1.4850133720537357
0,1.196893323436175,-0.4041886689010502,3.031450659469678,-1.1164965391009953,1.4900134170774848
0,-8.803400486708938,-9.884071746308196,-8.568974163436199,-10.536918850979196,1.4950134621012339
0,-2.4936961461614686,-8.743957134291179,-12.11940057659221,-5.097342184017075,1.500013507124983
0,-6.2739936536337995,-5.133844829020227,-4.579828577303252,-10.257766537883672,1.505013552148732
0,-2.4442930073727163,-1.3737348259697453,1.3297418378621297,-2.3781919115341448,1.510013597172481
0,-2.904594205204092,-4.473627120092682,-5.900689327146465,-2.748618303286053,1.5150136421962301
0,-2.824897244608657,-2.0135217059924555,-2.5211220680836295,-3.299045711002234,1.5200136872199863
0,-5.675202122759897,-2.9534185779773425,0.3384436195663344,-5.599474132210282,1.5250137322437354
0,-3.4055088364836585,-8.263317730042468,-8.291992259410838,-4.059903564074855,1.5300137772674844
0,3.994182617746575,5.006780844171935,2.4375703000425686,2.5396659966244433,1.5350138222912335
0,2.043872243627446,7.5068771512440104,12.197131303160704,-2.4407654466341713,1.5400138673149826
0,-4.4364399551955715,-8.27302880234419,-9.023309244953609,-5.86119789023731,1.5450139123387316
0,-10.70675397505493,-12.052937010181685,-12.18375133935799,-10.811631330310822,1.5500139573624807
0,-2.7670698119175863,-1.7328474654644361,3.9058050251805465,-0.17206576245832395,1.5550140023862298
0,-2.8873874611787707,-4.832760160720802,2.8553598543730567,-3.702501181704068,1.560014047409986
0,-5.4977069177413265,-11.752675087882634,-10.745086845864565,-9.322937582620165,1.565014092433735
0,-9.278028176079314,-7.12259223826016,-12.54553506940364,-9.323374959289652,1.570014137457484
0,3.191648769827325,2.9574883975494184,9.604015190430781,4.606186694835171,1.5750141824812331
0,-2.0886760735756793,-5.6524331705130155,-6.546436059177848,1.5057473867709283,1.5800142275049822
0,-0.7090026996447893,-7.102356932188522,-7.0868888108233925,-3.124692876368028,1.5850142725287313
0,-3.9693311016400057,-0.9022828768620925,0.6726569431504144,-4.115134087476488,1.5900143175524803
0,5.680338727298218,-0.36221099351531677,4.392201210716521,3.974423760676216,1.5950143625762294
0,-6.469993205894501,-8.022141270831856,-14.038255999985761,-8.976019324504275,1.6000144075999856
0,-2.7103268942151444,0.5179263027752725,3.291285319371085,1.3935366645719967,1.6050144526237347
0,7.449337669482171,12.767991739110093,10.94082517736952,9.663091735658234,1.6100144976474837
0,3.6190004923619625,-3.1819449501363484,-6.229636417441646,4.192645896390373,1.6150145426712328
0,3.1786615813144063,3.118116246355471,2.2599005432300934,0.902199153964476,1.6200145876949819
0,3.2883209428352678,9.968175339570434,12.15943606748921,6.631751515117243,1.625014632718731
0,-4.372021416882871,-0.2717676598617063,-2.9110298368356604,0.8813029862246942,1.63001467774248
0,0.49763450823658073,-0.44171274172265457,-3.5814971622844163,-2.129146426635403,1.635014722766229
0,1.3372887243101013,1.4283401039562222,3.778034098463686,1.0804032824607905,1.6400147677899852
0,-1.563058762500596,-2.891609112911613,-2.3824360472204367,-2.470047880558223,1.6450148128137343
0,-3.8234079460065766,-9.621560382323498,-11.942907591868131,-4.800499909667502,1.6500148578374834
0,-0.0637588199042099,6.018486305994553,3.61661947227479,1.3290472013434684,1.6550149028612324
0,1.2958886222735233,5.828530962547562,6.476145153306418,4.938593458851839,1.6600149478849815
0,-10.854465612866834,-11.621426402198603,-16.304330540560482,-8.891861130748001,1.6650149929087306
0,4.715178481494279,4.3086142221779635,2.035192399019625,1.7376834389606397,1.6700150379324796
0,-0.8451790875678756,1.6886528462297488,5.124713980727386,-0.02277282545109721,1.6750150829562287
0,0.9744616871207068,-3.081310519422945,-5.635765786563801,0.7667700827066068,1.6800151279799849
0,1.8341008126814597,-4.4112758641537795,-8.83624689392695,-2.843687829864964,1.685015173003734
0,7.693738296100458,6.668756822775624,14.073270667763056,3.4858534435454285,1.690015218027483
0,-0.45662585590631477,-2.9012124478152037,-2.427213092267756,-0.5046060903475165,1.695015263051232
0,-3.596991636921545,-8.211183665103475,-8.877698164944796,-2.7450664248627903,1.7000153080749811
0,9.71264095931865,10.398843181840645,13.38181545874101,8.844472446644371,1.7050153530987302
0,6.3622719388986875,8.188868103973853,12.561327787694067,5.004010530664411,1.7100153981224793
0,6.451901307444252,8.928891111836892,5.590838830221023,5.903547833276566,1.7150154431462283
0,3.99152906995275,8.788912215197175,8.67034859370889,9.37308435997807,1.7200154881699774
0,10.541155230810208,15.32893142292589,17.459857084635694,18.73262011553232,1.7250155331937336
0,-1.0492202061892173,0.12894874293178393,-5.630635691440862,7.082155103686787,1.7300155782174826
0,1.6604027622426751,-1.5510358176983838,-1.9611297296968968,1.3316893270599526,1.7350156232412317
0,6.800024139069359,5.828977747692892,16.538374974366178,2.471222787450887,1.7400156682649808
0,0.5296439269863739,0.7289894455768569,3.317878424926481,5.020755486232722,1.7450157132887298
0,-2.510737871590887,-2.7510007177521545,-9.002619374385935,-4.24971257548356,1.750015758312479
0,4.4488787455919585,10.80900726384237,7.466881579720778,4.9998186032342735,1.755015803336228
0,-9.871506219221347,-8.040986603670293,-2.2836187094821394,-4.31065097675906,1.760015848359977
0,-0.5118927636483317,-0.25098231445562935,-2.1241202387285774,4.648878685358093,1.7650158933837332
0,-3.652280885004323,4.139020137348989,0.07537699525514113,-0.021592409644033264,1.7700159384074823
0,5.517329419682971,11.2590207575759,13.524872995746396,9.19793573885394,1.7750159834312313
0,3.776938153434082,6.789019551646046,4.25436776573004,6.767463131119982,1.7800160284549804
0,2.186545319055001,-2.990983475677514,-4.276138692369488,0.2769897668920087,1.7850160734787295
0,8.32615091899786,13.989011679808728,13.253353623410453,7.896515645381797,1.7900161185024785
0,-2.3342450446796095,-0.8409949781520197,0.2028447146786897,0.7460407653735394,1.7950161635262276
0,-0.064642570242397,-4.7310034462466195,-9.27766541731018,-2.81443487468607,1.8000162085499767
0,-3.865041656061496,-0.72101372133423,-0.08817677137929472,-4.184911276477537,1.8050162535737329
0,3.0845576995760755,1.7189741998414028,7.46131065385822,-0.6553884415388788,1.810016298597482
0,-1.4558445015260435,-3.3810396793382194,-7.319203140119952,-1.115866371168594,1.815016343621231
0,8.32375174240261,2.068944644561762,5.410281848095215,2.233654933491524,1.82001638864498
0,14.603346432842127,18.348927174900204,20.98976561973943,11.693175471256207,1.8250164336687291
0,-2.6670604293539055,-0.4010920854122584,-5.6407518244932415,0.24269524060354372,1.8300164786924782
0,-0.917468843988679,-1.6811131341449275,-7.121270484581933,-2.617785760453088,1.8350165237162273
0,1.2721211888402602,2.92886403051114,1.9182096393179697,-2.7782675341268424,1.8400165687399763
0,-1.8582903309746597,-4.411160589720163,-1.842311452714813,-0.7787500825399871,1.8450166137637325
0,-2.408703403489086,-4.121186993045935,-8.73283376036573,-0.6692334076279598,1.8500166587874816
0,-1.4491180286486265,3.298784822507095,3.8666427169327937,0.03028248880196978,1.8550167038112306
0,1.8004657937510364,0.7187548590674439,5.596117979972265,6.1597976049645435,1.8600167488349797
0,-7.31995193596242,-8.91127688119277,-11.394407970440035,-1.8806880610440766,1.8650167938587288
0,1.979628782689303,1.9686896040220287,-1.184935133457596,1.6988254886860408,1.8700168388824778
0,-6.390792049592554,-3.451345682731529,1.1845364920441845,-10.321661747995185,1.875016883906227
0,-6.001214431819447,-8.191382738622222,-7.635993092505768,-7.492149772994565,1.880016928929976
0,-1.3316383626189965,-1.831421560475752,-10.216523885375455,-4.682638587660943,1.8850169739537321
0,3.8379361597532142,7.668537855251261,13.412944115591591,3.686871807263228,1.8900170189774812
0,-0.6724908628142218,-4.431504487770085,1.2224109127697282,3.4963814113406935,1.8950170640012303
0,0.8270805715075089,-0.9815485859403987,-3.6481234916689624,2.8558902240566373,1.9000171090249793
0,5.586650464432292,11.088405564282237,15.481340904133118,13.435398244555934,1.9050171540487284
0,-3.9637811824752864,0.9183579662612671,4.5308041016508165,-2.2550945285419237,1.9100171990724775
0,-4.994214367743522,-8.601691376963974,-9.609733898176994,-3.7555880971212843,1.9150172440962265
0,0.9553509102184343,-2.6517424624261583,-3.9102730946739057,-5.466082463203899,1.9200172891199756
0,8.444914653172113,7.058204713087915,13.909186512993552,5.9334223713956895,1.9250173341437318
0,2.484476862768703,-2.4518498470646852,-3.271355074310827,0.302926405021538,1.9300173791674808
0,2.734037540281293,-0.7719061396034133,-4.391897855971078,-0.987570364044456,1.93501742419123
0,11.963596686541074,10.578035838640547,18.627558168426837,7.7119320623343794,1.940017469214979
0,4.383154301849481,5.967976090586948,6.537012998958932,5.851433682063928,1.945017514238728
0,4.482710385855159,-0.5220853813391768,-4.013533364987009,0.08093449264754682,1.950017559262477
0,7.55226493758365,13.507851424746605,14.925919075317898,6.820434491149557,1.9550176042862262
0,3.701817955510605,2.977786510191247,5.215370318081346,0.6799336742716973,1.9600176493099752
0,-0.7386305623856498,-7.902280124200098,-12.80517963902534,-4.500567961560259,1.9650176943337314
0,0.10091938154402691,-0.6123484778602852,-2.2757307985345983,-2.0110704199900713,1.9700177393574805
0,5.720467784802637,6.1075814498891985,11.683716837255211,1.4784262954848122,1.9750177843812295
0,0.050014644744982115,2.3975096597602263,-2.896836733857953,-0.5720778184867847,1.9800178294049786
0,4.499559958490727,5.807436152211057,2.362608485686656,2.097417234767676,1.9850178744287277
0,4.689103722879205,0.6373609273218749,7.192052493183605,-1.3830885481248651,1.9900179194524767
0,3.1286459344164577,0.3272839848477013,-2.618504714318608,1.3664048294161757,1.9950179644762258
0,-0.10181341074829933,-0.8927946756382703,-8.729063139957269,2.5358973639256224,2.000018009499975
0,-1.4122743167106704,-1.0728750545974002,2.7603772132323043,-1.494610948143343,2.005018054523731
0,-1.7827367876220557,-0.3829571524418771,3.6998163424638673,-0.7451201104141429,2.01001809954748
0,-3.6532008275331114,-7.813040969468002,-9.400745754954034,-2.6256301264915183,2.015018144571229
0,-0.843666440300277,-5.453126505703059,-1.6613090816229767,-3.8061409998448004,2.0200181895949783
0,0.5258663704226343,9.796786239200014,11.09812636006478,2.443347266257438,2.0250182346187273
0,0.5353976010966213,0.11669726574086853,-2.6124394322702544,3.392834668674055,2.0300182796424764
0,-1.4250727517981212,0.42660657423617965,-6.663006461211102,2.442321204185954,2.0350183246662255
0,-3.2955446917540274,6.286514164744294,6.616425270616462,-2.8281931306286925,2.0400183696899745
0,2.363981777838297,2.6964200370760696,4.19585576063943,3.5812916606688168,2.0450184147137307
0,-5.626493346283314,-9.713675809205048,-10.224714993818674,-3.889224425523258,2.0500184597374798
0,-0.6969700672371478,3.9762266254226892,4.604713004512897,2.960258607193258,2.055018504761229
0,1.5925516120337126,5.646127340600631,6.644139752983204,4.129740755191394,2.060018549784978
0,-4.0879283112794695,-5.8039736640570965,-8.376434751114163,-6.050777985254886,2.065018594808727
0,-0.48840983988992603,3.415923610940235,1.9229894894140673,0.03870238207639884,2.070018639832476
0,-2.178892976370961,0.15581916504946186,4.022412471805954,-3.961818146467297,2.075018684856225
0,-7.059377723092254,-6.644287002253633,-9.1081658066496,-1.652339574311124,2.080018729879974
0,-0.6298640821310609,-9.98439489132432,-7.558745348538677,-8.062861904610317,2.0850187749037303
0,7.849647944716382,9.415495497886168,15.860673843863239,4.666614859804449,2.0900188199274794
0,-2.700841644312161,-5.44461583424409,-3.4999082316108945,-5.453909283619054,2.0950188649512285
0,-8.031332851093124,-8.914728887210421,-14.350491577295335,-2.4044343372496577,2.1000189099749775
0,-0.7518256773911406,1.8051563397283528,0.7789238046080025,-0.8749603032576717,2.1050189549987266
0,-0.782320124636761,-1.644960152319679,6.488337912351601,-0.38548718359750295,2.1100190000224757
0,-10.362816193938542,-6.615078361981779,-11.302249255558932,-3.6960149800678748,2.1150190450462247
0,9.136686113887286,14.464801712258222,12.747162299411038,17.073456305568456,2.120019090069974
0,5.736186798169286,8.944680071780514,13.176572575655578,11.112926671215039,2.12501913509373
0,-19.66431414186072,-18.12544328249953,-23.954018428836147,-17.72760388591849,2.130019180117479
0,-9.574816706802357,-9.345568349806808,-15.1746107161222,-4.15813536896478,2.135019225141228
0,-7.815320896451875,-5.7256951287477085,-3.025204287396159,-8.438667780630823,2.140019270164977
0,-17.895826709512345,-12.52582361698452,-14.905799142629833,-12.109201122828448,2.1450193151887262
0,-17.806334143504344,-15.465953811233334,-24.486395280656957,-12.589735396580476,2.1500193602124753
0,-4.766843194583339,-2.9660857071615783,-2.636992698988511,-7.830270601882407,2.1550194052362244
0,-7.867353857607153,-2.546219299444127,-2.567591393779694,-7.750806737685594,2.1600194502599734
0,-3.0178661265068616,-7.086354582089552,-12.808191360261793,-4.8613438020568625,2.1650194952837225
0,1.3416200053636242,1.1835084513183518,-0.9587925930413211,-0.14188179239316445,2.1700195403074787
0,4.361104544922172,5.53336980747235,7.490604913799454,1.7775792943150721,2.1750195853312277
0,-5.129412500916247,-7.916770506876654,-10.839998833575685,-9.402960538737833,2.180019630354977
0,-4.189931125259703,-6.646912484932296,-7.8706038288632385,-3.5635012881387365,2.185019675378726
0,-4.850451321011601,-2.0570561195764756,2.538789934635814,-2.0540429500741744,2.190019720402475
0,-2.4409730806910312,-4.317201403213009,3.678182464042213,3.5054144796462676,2.195019765426224
0,-5.881496396411448,-9.667348327796251,-10.312426233385228,-3.8151289946299882,2.200019810449973
0,5.137978740058608,7.9225031151546474,6.076963849678215,5.084326631450022,2.205019855473722
0,3.3274523371088125,5.682352934363937,9.586352720622557,4.793781362152825,2.2100199004974783
0,-7.093075596938461,-7.337798861565518,-14.784259613298847,-9.206764798429937,2.2150199455212274
0,-2.2736050537850523,-0.12795226419312067,-0.014873144907902092,-2.4773118462429404,2.2200199905449765
0,-3.2141360249113076,-0.40810726499112826,1.644512133233393,-8.167859776932326,2.2250200355687255
0,-2.614668501467687,-5.118263855241962,-5.856103771139078,-0.7384085856552438,2.2300200805924746
0,-0.7952024743202074,-5.798422026005575,-4.276720850090536,-1.6489582671261722,2.2350201256162237
0,7.144262065828579,5.721418231962394,9.172660904536102,0.8204911842167406,2.2400201706399727
0,2.1537251282013745,-0.9387430718885541,2.2320415009497125,2.2999397740291396,2.245020215663722
0,-5.7368132782223835,-10.548905928058332,-10.338579052827432,-6.920612492032552,2.250020260687478
0,6.002646855392101,4.220929673114508,6.810799251158335,3.0388343917443104,2.255020305711227
0,-1.0578944621465405,-1.5092362584288597,2.4501764209473254,-3.111719568791009,2.260020350734976
0,-5.3084372220641525,-10.339403712539013,-9.950447535429788,-0.34227436766785474,2.265020395758725
0,-2.198981415516626,-4.269572678772258,-3.901072609868683,-4.2628299987993845,2.2700204407824742
0,2.0104729665645453,5.1102568537767015,6.478301206052805,3.5866135440528413,2.2750204858062233
0,-7.280074066540493,-9.299915103637721,-7.562326078984952,-4.013943732752491,2.2800205308299724
0,-2.9606225053441557,-4.470088539527168,-7.872954456150497,-6.2145018227463265,2.2850205758537214
0,5.618827659909477,7.979736557898278,12.366416083646213,6.324939280738455,2.2900206208774776
0,2.32827643909863,-1.0004397994011542,0.9457855496206358,3.464379584496823,2.2950206659012267
0,-1.5922761580342875,-5.600617599532647,-5.954846049212488,-3.856180904792478,2.3000207109249757
0,2.1271698780748394,7.169203169358725,6.354521295980185,0.4232578193979958,2.305020755948725
0,13.346614556824651,17.199022519028937,14.393887593908715,15.242695763510467,2.310020800972474
0,0.3960578872328899,-0.5311595393010424,-2.136747147147169,1.2221329336659768,2.315020845996223
0,-3.8745001221979565,-1.7113429951556236,-3.8273829194766384,-5.598430664553944,2.320020891019972
0,-3.7250594632011134,0.40847216153696886,1.4519802844042808,-6.838995025807869,2.325020936043721
0,-1.4756201273595444,-7.061714059147788,-7.708657527904654,-0.19956014450499096,2.3300209810674772
0,3.133817893988857,4.32809835304115,-0.749296348558147,3.209873985309689,2.3350210260912263
0,0.0932546095975767,-0.6520905914880654,5.500063830543295,-2.000692630266873,2.3400210711149754
0,3.86269002813812,0.01771911769976109,2.459423017556531,4.238740014814304,2.3450211161387244
0,2.622124158101646,-7.452472508953747,-6.611218779516919,-2.3118280734906853,2.3500211611624735
0,9.501557007694812,4.237334539137624,9.938138447205727,-0.23239688929381458,2.3550212061862226
0,3.5509885846810745,2.107140272719719,6.017494705476716,-0.5229664267046752,2.3600212512099716
0,-0.8295811036920882,-10.173055297424227,-8.993149997260534,-5.943536679745065,2.3650212962337207
0,4.41984794943907,7.436747839556541,3.3062043462147894,3.5758923577251402,2.370021341257477
0,-3.1107242492644436,-1.0734503053672477,0.9455577431585784,-3.934679307985925,2.375021386281226
0,-6.511297693189007,-9.193649721179465,-7.7050897990877205,-4.325251670430654,2.380021431304975
0,3.4581276244275068,-1.7538503967093748,-2.7457382730386275,0.26417527703518917,2.385021476328724
0,6.507551710509912,11.655947679502189,15.073612329004755,4.083601541256536,2.390021521352473
0,1.21697457186869,-0.7542554810704554,1.9729620146443505,1.1930271290912826,2.395021566376222
0,3.2763962149821944,-3.1544598672423407,-5.487689208969346,-0.407547952758597,2.4000216113999713
0,6.445816645985669,4.625334531974325,10.80165866495962,4.8218763022449025,2.4050216564237203
0,-2.774764129314298,-0.5548722724791014,2.3810056430102193,-1.6287000995068492,2.4100217014474765
0,-13.295346105285558,-7.1250802696919955,-15.609648268474368,-5.669277151721701,2.4150217464712256
0,-0.785929276042902,2.4847105513314585,0.9996969369064648,-0.7998548480200174,2.4200217914949747
0,1.8434863648208517,5.784500201737076,9.90904126591503,2.649566818198557,2.4250218365187237
0,3.4129008240164747,1.4142886926071676,0.5483847253981392,4.448987853619915,2.430021881542473
0,4.822314108175248,-0.1059239652380683,0.42772732189538576,-0.4715917352182193,2.435021926566222
0,9.281726223589493,14.453862238728467,14.607069061579622,9.467828057953476,2.440021971589971
0,0.37113717605277274,3.243647314596346,0.016409950178502775,3.5872472390446912,2.44502201661372
0,-3.3094530291073054,0.49343127183915025,-5.814250007092581,-4.013334186459238,2.450022061637476
0,4.2399556132224685,6.303214119410243,8.895089194710255,-2.6439162133179064,2.4550221066612252
0,4.859363108077867,7.032995865881656,8.24442756038712,0.9955011637690769,2.4600221516849743
0,-4.321230539673785,-5.607223480573737,-12.286234905571254,-3.9750820497254975,2.4650221967087234
0,5.858174674643733,5.79255608790486,5.873101801106906,-1.8856658481681217,2.4700222417324724
0,-0.012421244422333055,5.932334578996152,5.552437684710458,1.2537497742500676,2.4750222867562215
0,-3.2030182924432724,-2.237887999869775,-3.148227250553328,0.39316482346462134,2.4800223317799706
0,2.986383534953655,1.691888358457696,-2.7188930006550605,-1.6674206945639662,2.4850223768037196
0,5.065784242119311,9.281663660933493,11.480440438375078,4.411993226105066,2.490022421827476
0,3.165183833230628,2.471437914228098,0.1797730703683567,4.201406591323239,2.495022466851225
0,-8.805417687796787,-12.158788875340868,-16.660895101080854,-5.379180593250556,2.500022511874974
0,-3.426020317069622,1.850983298502491,4.148435927732681,-1.2197683220696458,2.505022556898723
0,7.523375949556984,8.480754442264788,11.617766160876785,9.249643410453315,2.510022601922472
0,1.0727711163584652,-1.7894754375296005,-6.85290439756882,-0.19094539016852408,2.515022646946221
0,7.512165187400559,7.090293665363371,2.696424256202075,6.29846528126901,2.52002269196997
0,9.371558166307517,12.150061756788606,17.205752125767436,14.347875429518389,2.5250227369937193
0,-1.8890499438593278,0.1498288420271513,-1.4049207857076011,6.837285058659422,2.5300227820174754
0,4.740340859446464,3.919594925726985,-0.29559447567428637,3.896694171905194,2.5350228270412245
0,2.589730578435357,8.54936001204411,10.193731057977148,3.4861027717153563,2.5400228720649736
0,-3.310880784909454,0.0391241047051733,1.233055817040988,0.2155108600670223,2.5450229170887226
0,2.5385067712618743,1.2188872070199037,-1.607620197065339,3.354918438647904,2.5500229621124717
0,3.1478932487474496,3.518649322013289,9.471703016765609,6.684325508906657,2.5550230071362208
0,-0.4727213507565564,0.3184104525254262,7.2810254593329145,5.373732071947567,2.56002305215997
0,0.3466629742988451,-1.551829398760622,-5.859652869020314,5.64313812838245,2.565023097183719
0,10.426046225316046,11.21792977070315,7.869668031656954,7.842543678258456,2.570023142207475
0,6.475428403383667,7.647687963172394,9.538988161045157,7.281948721009747,2.575023187231224
0,-5.705190490919046,-8.67255481960455,-7.821692481549102,-7.63864674451694,2.580023232254973
0,-2.025810457354045,-0.9927985762051226,-3.262373897113239,0.14075728021890746,2.5850232772787223
0,-0.566431495643365,3.9069566948557606,8.896943913396033,-1.8898392061801836,2.5900233223024713
0,0.7629463946736843,-0.48328900482803916,2.686260949040646,7.529563795025084,2.5950233673262204
0,-1.6476767858460653,-4.273535673690659,-6.154422791343398,0.3189662825008156,2.6000234123499695
0,-4.388301036580588,-1.0537833101271605,-1.3051073090571408,-8.661631745271823,2.6050234573737185
0,-3.108926356737006,1.8059680876261965,0.49420739473228925,-4.022230289759754,2.6100235023974747
0,3.080447254730072,3.365718521414066,-2.4464786809581125,3.407170647910102,2.615023547421224
0,2.8398197990044936,3.7954679929618087,4.522834462971852,2.396571066869168,2.620023592444973
0,0.7891912771858508,4.555216503714178,9.94214682553702,3.17597096619745,2.625023637468722
0,-1.3014383097972808,1.1049640547665676,-2.1885415945852653,5.095370344720505,2.630023682492471
0,0.5179310388954789,4.884710646878423,-2.029230799110346,6.714769200903814,2.63502372751622
0,15.567299324008006,18.064456280405985,19.100079209989826,12.114167532697474,2.640023772539969
0,-1.2633334540790337,-5.665799044933237,-3.470611569633869,1.1835653373608335,2.645023817563718
0,0.32603270447018645,-2.8060553300520117,-7.521303140835098,0.12296261148637898,2.6500238625874672
0,-1.5146022008429811,-2.046312576045061,-0.9319955066047497,-1.0476406487089633,2.6550239076112234
0,-1.2052381705492097,3.1034292161542596,1.2073113303246068,0.15175555290923634,2.6600239526349725
0,-10.615875205029985,-18.04682995417542,-19.92338263244939,-10.128848787438628,2.6650239976587216
0,1.3834866956623342,-0.07709008736202588,1.6359226031705805,1.0105463267276331,2.6700240426824706
0,4.312847531841568,2.6326488168484397,2.515227035930677,4.299940892210076,2.6750240877062197
0,-7.677792696021235,-11.817613240858723,-11.785469334994382,-9.91066509402482,2.6800241327299688
0,-0.2784339873929327,0.46212374050228855,-4.596166510125218,0.19872836510954997,2.685024177753718
0,-3.2190763415472174,1.691859762263829,6.783135510447342,-0.17187873305279175,2.690024222777467
0,-4.259719757482373,-3.7684051740052213,-2.227563273079487,-0.20248639096453264,2.695024267801223
0,4.969635766047805,-0.37867106664287686,-2.128262860505393,9.296905388931712,2.700024312824972
0,0.8689902303989427,-2.368937913870076,1.0710367483593592,1.1062966039706443,2.705024357848721
0,-0.23165636315131038,-0.39920571375211833,0.23033555376775883,-5.894312748837777,2.7100244028724703
0,-9.472304013388756,-9.759474464166601,-14.230366443919907,-6.124922672568329,2.7150244478962193
0,-2.1929527188982263,-0.11974416267813907,-3.311069243998215,-6.145533169977458,2.7200244929199684
0,-5.693602477830109,-1.6200148064578646,-1.3517728451651811,-5.376144243278609,2.7250245379437175
0,-12.084253287810299,-10.090286392331592,-16.002477245522428,-9.166755894089047,2.7300245829674665
0,-8.984905145796844,-9.390558916700721,-11.95318244249237,-8.437368123368174,2.7350246279912227
0,-4.415558047908456,-1.4208323753205705,2.856111567413813,-8.197980931316632,2.7400246730149718
0,-5.646211989464803,-1.8611067633019398,-2.4845952115349155,-3.9385943173474867,2.745024718038721
0,-12.176866965120617,-11.581382075297777,-17.125302774620607,-11.91920828014441,2.75002476306247
0,6.792477031093607,11.848341694408683,11.093988883318158,8.31017718224335,2.755024808086219
0,-1.0481799944029557,0.6080645517189756,0.7632797678366554,-4.610437927826481,2.760024853109968
0,-9.688838035023572,-14.76221349752981,-18.167430115390907,-11.95105360780051,2.765024898133717
0,0.4905029159983605,-2.4124924473665423,-0.4981407604386103,-6.451669854756369,2.770024943157466
0,2.4498428657407167,3.6772277086684513,8.951147839154517,2.577713334867922,2.7750249881812223
0,-5.850818178518253,-10.493053022546828,-7.349564309867711,-3.8629040348501382,2.7800250332049714
0,-0.7314802093958996,-3.373334633843968,-4.200277200761249,-3.743521959580429,2.7850250782287205
0,5.817856780624001,12.28638288226114,12.7890091732959,6.825859565174388,2.7900251232524695
0,6.047192799033398,7.87609953326187,9.258294819035873,14.775240543870488,2.7950251682762186
0,-2.773472146965283,-10.634184673778266,-11.842420257282713,-2.3953790195156888,2.8000252132999677
0,-3.0441380504414397,0.015530267896772365,3.386863950242508,-0.9159991216270662,2.8050252583237167
0,-9.524804904413848,-8.70475563478251,-5.553852552405603,-8.136619759348509,2.810025303347466
0,-5.735472701492631,-8.425042374411959,-10.054569758939289,-0.7172409293605839,2.815025348371222
0,-0.15614143370802952,1.5446700569908227,1.5647123373569618,-0.767862627987542,2.820025393394971
0,4.993188907342763,4.634381667861948,9.193993743586486,6.151515148657429,2.82502543841872
0,-1.5474816698460114,-4.45590753324648,-2.7467255331330143,2.8308924043892745,2.830025483442469
0,-4.0181531568616355,-6.53619753778958,-8.327445485879002,-5.239730857215832,2.8350255284662182
0,0.0611744547416842,5.243511662945263,8.891833892286634,0.5796453672938007,2.8400255734899673
0,-0.48949882643435766,-2.206779922124589,-3.1188873915804387,-0.510978918556021,2.8450256185137164
0,-6.630172991630834,-17.567072283926358,-15.279609330360904,-6.351603711099253,2.8500256635374654
0,-2.7408480318700823,-2.007365412954373,0.2496680833833369,-1.3622290064704425,2.8550257085612216
0,-0.3615239378514164,0.9623407010034366,4.6389448576358685,2.177145199456686,2.8600257535849707
0,-7.27220069995661,-13.887953931265134,-15.581778999255786,-5.173481089005475,2.8650257986087198
0,-2.5528783082545994,1.2717507014788796,0.6174965213490831,2.9758921325556322,2.870025843632469
0,4.896443247509358,4.371454610912918,11.386771428461484,7.335264868579639,2.875025888656218
0,-4.544236022229228,-5.648842191071768,-8.003954268807494,1.3346371233234107,2.880025933679967
0,-1.3849161069879703,-1.5991396925427517,-6.254680561449819,-0.9659910992915736,2.885025978703716
0,1.03440300380507,4.880562118533857,8.284592559655689,6.723380204393106,2.890026023727465
0,-1.916278679160102,-3.4997367457363504,-5.416134896184509,-1.7072489621593152,2.8950260687512213
0,0.2530388548751773,0.9199637267270941,-7.546862919587668,4.142121404300619,2.9000261137749703
0,1.1823556167093425,-0.850336451994099,2.402408499032263,-3.4385086931530737,2.9050261587987194
0,2.211671617129993,5.369362730191911,7.961679369511524,9.130860748431118,2.9100262038224685
0,-0.7790131331624515,-7.410938714678815,-9.679050298319616,-2.3897702681680686,2.9150262488462175
0,14.840301376350276,11.938759225356556,13.69021950521813,14.549598259522837,2.9200262938699666
0,0.7496151557876829,2.64845656209912,4.069488789590847,3.9089663334849303,2.9250263388937157
0,1.0489282147080758,0.7681533069925439,-2.961242436129229,1.4483339550665137,2.9300263839174647
0,2.1282405622471687,2.417849471104675,-4.3019741631947195,0.3577011250958763,2.935026428941221
0,6.817552207300645,10.157545065217384,13.097293617092525,4.197067844130379,2.94002647396497
0,3.90686315846621,6.347240099703346,2.026560913303849,8.706434112499945,2.945026518988719
0,0.5361734239361403,2.3669345843317338,-5.7141722663595935,-4.234200069822442,2.950026564012468
0,7.435483011522629,12.87662852824174,14.03509408599026,2.965165296798717,2.955026609036217
0,7.064791928657604,7.886321939908022,9.614359977920765,2.8145302118267286,2.9600266540599662
0,-1.6258998176975963,-3.5239851729318667,-8.896374583566512,-2.906105325384174,2.9650266990837153
0,5.023407778984898,4.315707196902998,0.4528904080857046,-2.4067413155436017,2.9700267441074644
0,6.142714724915259,11.315399056277856,13.522154959346667,5.272622240685019,2.9750267891312205
0,-6.377978973993972,-5.16490958830602,-5.868580923466346,-3.9080146573249297,2.9800268341549696
0,-0.8686733120061554,-0.8352187307133889,-7.219317234299995,-2.078652010208471,2.9850268791787187
0,4.290631716662626,5.234471635066175,8.869946032903176,1.1007101814722726,2.9900269242024677
0,0.32993611783988774,-5.145838484965581,-3.5807911156692733,-0.9699280827266783,2.995026969226217
0,-0.5907601027482771,-5.906149084785024,-6.751528673813924,-1.7405668031809558,3.000027014249966
0,9.238543060471219,6.713539841799907,6.147733364758315,-1.3012059801945228,3.005027059273715
0,3.847845612810549,4.5532283010993515,4.646995006438389,-3.1218456139402275,3.010027104297464
0,1.7371475591522956,-2.637083700741497,-12.48374374245822,-2.942485704401084,3.01502714932122
0,5.116448903943843,3.7826038421699364,2.865517124392102,1.1868737486605951,3.0200271943449692
0,2.1457496512814913,1.722290935568096,5.62477761351442,-0.6537672543510112,3.0250272393687183
0,4.095049804931566,2.9419775850259837,0.5240377314646041,4.995591287001189,3.0300272843924674
0,-0.3956506316502618,-0.21833620409274063,-3.4967025153921387,-4.935050626924561,3.0350273294162164
0,0.11364834476754981,3.901349573384805,7.87255687917307,3.6643070041542254,3.0400273744399655
0,-5.167053262653168,-5.508965077504276,-1.9281840787101951,0.3736641804909325,3.0450274194637146
0,-5.057755450613352,-5.1492801517123015,-9.1289253830154,-2.0669790977014677,3.0500274644874636
0,3.08154178447884,5.680404356006674,9.190332972350324,5.1023771697362985,3.05502750951122
0,-0.8091615535450063,2.7600884510419506,1.869590993577221,0.6917329828791365,3.060027554534969
0,-12.119865460717659,-19.89022786121179,-18.491151313179174,-6.608911658312917,3.065027599558718
0,-1.000569932785331,-3.2005445750638892,0.948106058444731,-2.3595567538415194,3.070027644582467
0,2.768725034956711,7.51913831583334,7.807363115315901,3.2497976965229363,3.075027689606216
0,-11.171980552449261,-12.601179181694388,-17.643380135377186,-9.400848306768971,3.080027734629965
0,-3.802686689669064,-2.9914970605718985,-5.8341236861764845,-3.4514947630378043,3.085027779653714
0,-3.0933933709100327,-2.751815313337746,5.275132470934502,-3.172141671221987,3.0900278246774633
0,-5.334100589877792,-4.8821339320633275,-2.7156116555443575,-2.022789029835278,3.0950278697012124
0,-6.45480833983492,-6.642452908410702,-7.286356056945941,-3.56343683706329,3.1000279147249685
0,9.034483386351248,10.867227766317294,13.782899275496705,6.525914909127634,3.1050279597487176
0,-1.2762254040142271,2.0669081009187926,4.332154350488606,1.7652662108001003,3.1100280047724667
0,4.343065296238082,-0.37341189606146175,-0.8385908236750176,3.9346170698105514,3.1150280497962157
0,4.242355494011794,7.516267783584747,8.170663760822151,3.063967487699315,3.120028094819965
0,0.7716451959199697,5.325947147747439,8.879918111384608,1.3533174656972595,3.125028139843714
0,-0.6690655916919355,-5.434373796058107,-2.9408277650858565,-1.5573329952065635,3.130028184867463
0,0.35022313737759314,-3.024695040541128,-4.091573862109231,2.3220161058525757,3.135028229891212
0,15.989511389204349,15.664983421590453,19.497679826616924,14.251364769601459,3.140028274914968
0,-4.561200830499147,-7.185338402498663,-7.043066692869961,-10.28928700357277,3.1450283199387172
0,-5.381913516464628,-5.995660505897642,-12.623813414878661,-2.2599392135861542,3.1500283649624663
0,-1.1026266635112818,-1.0859828816437647,1.4354396663880353,-4.6705918602566765,3.1550284099862154
0,-1.4533402662120574,0.10369447755023536,-2.5053074427784066,-8.611244942989847,3.1600284550099644
0,-8.46405431885404,-8.336628420750774,-11.396054735658248,-7.131898460649678,3.1650285000337135
0,-1.7447688153945515,1.283048431272482,3.213197794859616,-0.5125524114814293,3.1700285450574626
0,2.034516250589991,1.382725041708102,6.4524501562372985,-3.0832067932003113,3.1750285900812116
0,-1.996199114235088,-1.6475985812238036,-11.18829764397672,-5.743861603166776,3.180028635104968
0,-9.296914903079903,-7.657922429247383,-13.559045598123454,-8.164516838383127,3.185028680128717
0,0.5923688911025871,5.571753506084362,7.200206301974319,-5.395172495331986,3.190028725152466
0,0.5016522757174784,1.8214292333832263,-2.40054193493832,-1.7258285698971747,3.195028770176215
0,-3.499064741603988,-6.328895238751894,-11.031290299855431,-3.6364850574674774,3.200028815199964
0,1.3302178468702688,8.050780098227357,6.887961216450533,-7.44714195305369,3.205028860223713
0,0.34950004895006637,3.810455252803054,4.02721262343248,-1.7577992512667875,3.210028905247462
0,-5.951218127493783,-6.609869766746231,-11.673536069452087,-6.758456946262738,3.2150289502712113
0,12.408063325455158,15.5098050476277,13.11571514721107,10.49088496817098,3.2200289952949674
0,-0.46265558438514615,1.9694797036831417,8.484966282751595,1.4302264983176267,3.2250290403187165
0,-5.583374849462099,-5.110845791267273,-6.045782653890067,-2.2104323497688387,3.2300290853424656
0,-3.6740944623137217,-6.201171430158165,-9.03653165412948,-4.931091570217042,3.2350291303662146
0,0.3851855847489625,2.2785027942573537,8.172719290722448,2.1282488429334134,3.2400291753899637
0,0.31446529967636505,-1.3718231104819438,0.6319701895776091,4.867588895786766,3.245029220413713
0,-6.56625530943939,-11.922149136632449,-12.438778948633427,-6.703071405574701,3.250029265437462
0,4.723023765626686,5.51752472383852,10.34047188509278,3.586267944873155,3.255029310461211
0,0.8123025332092084,-0.28280152071388487,3.2197226998774227,0.5756069531769268,3.260029355484967
0,-0.3784189983889591,-5.863127861794777,-6.931026495273105,0.7449456253672628,3.265029400508716
0,-2.4891408209454897,-1.1234542908111989,-2.3817756914628854,-3.7057160325882794,3.270029445532465
0,-4.85986292618243,2.786219201027761,3.567475120352142,-4.1063780146699855,3.2750294905562143
0,-1.0405853056020322,1.3158926226226877,-0.07327405063421144,1.8529596853442523,3.2800295355799634
0,7.918692049510897,6.895565982761375,-2.404023195241813,1.1222970738603413,3.2850295806037124
0,5.687969147815868,4.725239289925868,10.605227695633701,0.23163415731037285,3.2900296256274615
0,-1.8427540023892883,4.934912552152207,2.824478630889169,3.2709709420396824,3.2950296706512106
0,0.7965226068388529,-3.9354142229683515,-3.9062703809519865,-4.029692565708609,3.3000297156749667
0,9.895798983244791,10.464258971850324,13.702980668298549,7.339643640230239,3.305029760698716
0,5.215075134281323,8.373932143583268,11.71223178643339,5.038979565877534,3.310029805722465
0,3.924351066880769,4.403605298658411,1.4814829805283538,1.5583152169325338,3.315029850746214
0,7.553626787397549,6.5732784428196895,7.0607342568424265,0.11765059871767264,3.320029895769963
0,1.3329023016635606,6.522951581182606,13.12998562095995,3.7869857163050535,3.325029940793712
0,0.22217761507342826,3.6726247182833274,-1.500762922210671,1.8863205745901368,3.330029985817461
0,0.8314527327549321,5.3222978581108835,1.1484886316079634,2.215655178258278,3.33503003084121
0,5.3607276596961855,11.92197100411913,11.927740286284799,7.884989531731107,3.3400300758649664
0,6.320002400672757,3.3516441591276607,2.9369920452949843,2.094323639075379,3.3450301208887154
0,0.3392769600864657,-3.108682674694181,-9.69375608835327,-5.426342496013371,3.3500301659124645
0,4.948551341934481,4.79099050442441,10.345495888116494,-0.7770088699848827,3.3550302109362136
0,3.787825549871335,4.05066369807223,9.754747977379457,-0.3276754791687258,3.3600302559599626
0,0.887099587226478,-0.2396630923788205,-5.3759998182537965,2.8516576802439095,3.3650303009837117
0,1.7163734570364502,1.1000101341966302,4.793252503079806,0.5709906120529239,3.3700303460074608
0,7.845647162093301,9.999683378717108,14.562504942933803,6.270323319914555,3.37503039103121
0,9.984920704829946,4.679356641770286,5.131757502372331,6.199655807206364,3.380030436054966
0,-4.065805912872884,-6.790970076519443,-4.598989818253456,-5.341011923072844,3.385030481078715
0,3.7134673103758136,1.7087032237061313,11.43026298087883,-3.961679868152765,3.390030526102464
0,-0.937259624260373,-2.5416234576477406,3.6695158992451624,2.6776519748230356,3.395030571126213
0,1.192013284300535,-1.2919501205314494,-1.9812310640925284,2.656983608866703,3.4000306161499623
0,7.2112860370359915,7.157723235185029,10.288022089528903,7.126315036913393,3.4050306611737113
0,11.830558634632638,6.7873966095147,12.887275358357003,5.7056462615519115,3.4100307061974604
0,-3.560168922776152,-10.192929997847148,-10.463471259960668,-6.335022715070647,3.4150307512212095
0,10.309103364351818,5.3367434125961815,9.23578223171279,5.23430810891703,3.4200307962449656
0,1.3383754950978717,6.596416840334692,5.605035830260947,4.063638735283155,3.4250308412687147
0,-0.152352531850467,-6.943909715248083,-11.375710467660822,2.4529691656103667,3.4300308862924638
0,5.146919281888445,0.15576374509078528,-1.566456665476599,10.242299401121922,3.435030931316213
0,2.2361909344675808,4.07543722062604,6.002797233613987,1.8416294425599804,3.440030976339962
0,0.8754624237876737,-5.50488928930995,-2.6079487734188653,-4.159040709811497,3.445031021363711
0,1.5547337475125127,-4.845215785331656,-7.71869468960634,-0.6997110559545049,3.45003106638746
0,4.284004903124303,9.924457732104772,8.15055948211734,7.259618404186413,3.455031111411209
0,5.813275887873679,7.584131262541749,9.699813738869302,6.768947670564437,3.4600311564349653
0,-1.4174533013214168,-7.71619519482715,-10.690931922498272,-4.591723257227112,3.4650312014587143
0,0.771817332160866,3.0534783588717005,3.478322494600127,5.497605620063839,3.4700312464824634
0,-2.938912215174503,1.7131519224639964,4.8475769867404415,-0.543065698482696,3.4750312915062125
0,-2.6296419467641634,-4.717174505207344,-7.723168449498101,1.2062627860890927,3.4800313365299615
0,-2.4303718658685156,-1.987500925262601,-4.713913817516221,-4.934408927350478,3.4850313815537106
0,1.6988980244637473,-0.03782733866123106,5.725340879508151,3.184919160105499,3.4900314265774597
0,-4.111832278661833,0.2518462538137299,2.3545956385741187,5.494247047406945,3.4950314716012088
0,5.557437221939838,0.041519851451238765,-2.3261495434097186,7.873574733318548,3.500031516624965
0,3.0367065234235753,7.741193453496039,9.653105330266364,0.12290221616438057,3.505031561648714
0,-5.154024377211436,-5.749132940968021,-3.497639743908898,-4.017770506150868,3.510031606672463
0,-1.5447554830524606,-1.3394593329944082,-7.498384769626249,-2.1384434358413684,3.515031651696212
0,5.144513202900042,7.900214276369323,6.650870249472528,5.81088342499135,3.520031696719961
0,2.383781677669275,4.019887886000415,8.960125309829461,3.670210074257048,3.5250317417437103
0,0.6230499380976956,-2.8704385055251156,-4.250619592344835,-2.890463490342046,3.5300317867674593
0,-9.257682019133993,-3.9207648998686957,-10.471364461116071,-6.9711372712533946,3.5350318317912084
0,13.781585802684146,16.868908701260043,20.297890699478074,13.778188729142279,3.5400318768149646
0,-6.439146599725498,-2.3414177040565995,-5.202854114631314,-0.18248549156755112,3.5450319218387136
0,-10.399879229702607,-9.611744118123891,-12.133598907773036,-3.553159936085251,3.5500319668624627
0,3.9193879095989055,5.1179294566543785,11.05565631571169,-1.2838346073052445,3.5550320118862118
0,-5.591345184583904,-3.352396981924436,-0.6650884483371815,-4.674509508011878,3.560032056909961
0,-10.972078514661385,-12.232723435845497,-16.735833204038222,-11.665184640670098,3.56503210193371
0,-4.702812082576049,0.4369500932577664,-5.616577955239427,-2.8858600072195806,3.570032146957459
0,3.646454110334848,6.6266236041980635,7.412677294863169,-0.33653560897993623,3.575032191981208
0,2.845720063101144,1.1262970959222975,-1.2880674564824108,1.7727885531446628,3.580032237004957
0,6.644985774691011,7.24597056712764,4.641187787942848,3.782112478337352,3.5850322820287133
0,12.16425124367272,15.995644016032205,19.080443025029552,15.221436165557538,3.5900323270524623
0,0.7335164679793351,3.405317440111394,0.2096982510190169,6.43075961317544,3.5950323720762114
0,0.4127814449003452,-2.535009163994474,-7.851046538606859,2.590082818730218,3.6000324170999605
0,-1.0779538286419161,1.3746641998501614,2.2582086513106665,-2.960594220912946,3.6050324621237095
0,-4.1686893557804625,0.4243375276572331,-0.4225361839565521,0.9687284908337089,3.6100325071474586
0,-13.039425139442415,-15.475989184486767,-19.343281048901186,-13.821949049375739,3.6150325521712077
0,-3.5801611820396384,-2.7163159401354338,-5.45402594750344,-3.042626844510993,3.6200325971949567
0,3.2691025146675754,3.1233572577514286,8.80522911703886,10.876695102965327,3.625032642218713
0,-6.781634050645461,-12.626969593311786,-13.385515857932207,-5.903983209196497,3.630032687242462
0,-7.1023708790480375,-9.15729649540101,-14.266260874732803,-8.004661783292697,3.635032732266211
0,-4.623107971218443,-3.257623449947731,2.6629940649598245,-2.945340621437309,3.64003277728996
0,-9.17384532726179,-10.127950457619422,-9.7677510397434,-6.176019725265141,3.645032822313709
0,-9.264582946620266,-13.66827751833483,-15.898496189065352,-8.196699095872127,3.6500328673374582
0,-3.085320828000841,-0.8886046311693703,1.3607586175288675,-3.7373787337859503,3.6550329123612073
0,-6.876058969403282,-5.328931794378724,-0.8599866186514219,-8.708058638922328,3.6600329573849564
0,-12.526797368189696,-14.679259005572286,-14.21073189579246,-12.128738810537484,3.6650330024087125
0,-6.9275360209920995,-7.689586261655804,-5.451477211606187,-6.61941924709293,3.6700330474324616
0,-7.648274923583422,-5.039913558645596,-1.2622225631323294,-10.660099946146229,3.6750330924562107
0,-5.969014070914285,-1.12024089175771,-6.742967946788404,-5.410780904372196,3.6800331374799597
0,-7.409753457220169,-1.63056825571016,-9.533713358504299,-6.211462117651664,3.685033182503709
0,-3.450493076088912,-0.11089564497013754,3.00554120631424,-2.982143581198391,3.690033227527458
0,0.22876707943726737,-3.8612230538611874,0.1347957527075333,3.037174710251368,3.695033272551207
0,-0.6219729833433173,-3.351550476541709,-7.155949714080339,2.9064927621630154,3.700033317574956
0,10.887286742937647,13.008122092985927,15.143304811256735,5.07581057989961,3.705033362598712
0,1.556546265412007,4.247794660593886,5.90255933385987,1.9851281685266349,3.7100334076224613
0,-1.2141944092030488,-1.452532768310372,-5.098186141622162,2.8444455327692495,3.7150334526462103
0,-0.16493527447781786,1.3971398112559617,3.3310683890224557,5.033762677038828,3.7200334976699594
0,9.254323675905205,11.046812404044873,16.82032292977228,11.873079605368762,3.7250335426937085
0,-2.3164175519215076,-0.3135149855003856,-4.040422515812582,2.45239632122312,3.7300335877174575
0,6.112841047866859,6.106157646605399,4.678832055233376,5.7917128273973955,3.7350336327412066
0,11.452099480736901,14.545830303843887,17.20808664537465,13.191029126056325,3.7400336777649557
0,-1.028642248340475,-4.324497010913722,-2.782658743501311,2.550345218684411,3.745033722788712
0,-2.659384134906501,-12.054824295295596,-15.34340411006381,-7.390338893888839,3.750033767812461
0,1.8898738252725686,5.0948484530990665,6.415850547006606,2.6989767888799507,3.75503381283621
0,-3.3508683635429852,-0.5654787629923235,2.005105229384292,-0.5417077324007042,3.760033857859959
0,0.7783893029863931,-0.7858059406801176,-6.605640061108686,6.137607542919434,3.765033902883708
0,-3.0023531707081914,-0.8861330770800898,-0.8063853226205875,3.036922615321624,3.770033947907457
0,4.086904219894579,1.0835398307183681,5.922869446837304,-3.073762514995538,3.7750339929312062
0,-3.0338385206543186,-6.24678721430752,-8.847875750658588,-1.2544478480080579,3.7800340379549553
0,-1.2745813878028545,-4.427114209014614,-6.178620912935161,0.4648666163368119,3.7850340829787115
0,6.9146756230194395,8.91255885000087,12.920633962436263,6.774180878141314,3.7900341280024605
0,-2.476067483674925,-6.997768033724421,-9.360111121968156,-2.596505062609151,3.7950341730262096
0,-6.896810703473907,-10.768094856597534,-16.430856163511915,-5.397191206084151,3.8000342180499587
0,-0.7475540318633829,-1.4684216146889377,-2.831601159076289,-4.627877552366686,3.8050342630737077
0,8.101702535909942,3.001251696457981,7.79765389522845,8.681435898739347,3.810034308097457
0,-4.11904099536264,-6.939074918372654,-10.393090996274097,-0.7392508524606874,3.815034353121206
0,11.44021537890508,13.130598545684164,9.7661641708175,14.920062194094227,3.820034398144955
0,6.76947166293739,4.660272093334448,9.255419400817459,1.169375037938375,3.825034443168711
0,-5.331272139541052,-4.880054271128311,-6.795325302295122,1.0986876779910937,3.83003448819246
0,-0.24201602517466486,-0.13038054373881813,-4.086069934863407,0.07800011274287422,3.8350345332162092
0,6.4172400093188156,12.769293279378433,13.333185506751107,14.777312340432928,3.8400345782399583
0,3.426495967142258,0.9089672018777453,3.4324410260997253,1.0466243588974549,3.8450346232637074
0,7.05575185117592,6.478641226918329,2.411696626289353,10.265936165336385,3.8500346682874564
0,11.165007663780328,14.7883153570681,15.300952309849785,8.765247756247623,3.8550347133112055
0,7.224263406619851,11.447989594128716,12.070208078611852,12.53455912734892,3.8600347583349546
0,3.933519080558437,1.0076639389134132,-1.9805360665140395,-2.736129726507183,3.8650348033587107
0,-0.5572253142109143,2.4773383913779616,3.608719874580608,-0.4968188111322362,3.87003484838246
0,-0.06796977786914757,5.807012950976897,5.287975901569404,-0.20750813258312872,3.875034893406209
0,-12.248714310639915,-12.203312383087058,-13.352767986078504,-8.318197696852579,3.880034938429958
0,0.9805410875370002,-1.363637611584336,-1.6335117888279227,-1.308887509686475,3.885034983453707
0,-0.7502035828446445,3.0560372650184937,10.315744493170333,0.9404224235074365,3.890035028477456
0,-0.3009483210082866,-4.154287753482542,-1.4549991401241775,-3.760267902426995,3.895035073501205
0,-3.271693126071862,-7.094612667151371,-8.535742688920347,-2.9409584924882872,3.900035118524954
0,6.707562002908626,7.775062524159344,13.183513846512525,4.46835064849194,3.9050351635487104
0,-4.373182933127867,-2.2152621792373037,-3.457229534110559,-6.992340484191013,3.9100352085724595
0,-6.903927933257725,-12.275586776985524,-14.007972831169882,-9.45303189508256,3.9150352535962085
0,0.12532700362666016,2.3740887314898287,4.021283955128105,-8.803723588280015,3.9200352986199576
0,-0.19541812105126083,1.943764347149194,7.000540824952016,-5.0144155671471715,3.9250353436437067
0,-1.0661633056666449,-3.576559928846786,-9.050202221429647,-6.735107834290535,3.9300353886674557
0,-4.576908548494676,-1.8668840952931054,-7.080945183753212,-1.5858003916876986,3.935035433691205
0,7.212346152300178,10.872791849063383,16.328311938453638,-0.2464932408544091,3.940035478714954
0,-2.8583992014107924,-3.087532094626785,-1.6824308542877544,0.6028136169482892,3.94503552373871
0,-3.9391446078080046,-3.317855925447489,-8.743173561730757,-4.297879819440419,3.950035568762459
0,-0.47989006501652276,4.00182035743317,7.086083816247987,2.891426448899207,3.955035613786208
0,4.759364428991074,8.471496754828138,13.475341279778176,6.800732420919095,3.9600356588099572
0,-0.22138112374163896,-5.238826732670512,-5.165401171342938,-1.0899619045926145,3.9650357038337063
0,-0.3921267213014601,3.560849895248435,-0.8661435377985205,3.139343470867156,3.9700357488574554
0,-4.642872361842272,-4.779473361200729,-3.0468858204148153,-7.07135145437549,3.9750357938812044
0,-8.26361804336381,-11.349796501672213,-11.8676280197961,-2.3720466819372166,3.9800358389049535
0,0.18563623651484962,-2.330119525409966,-3.0383701360754376,3.35725778679113,3.9850358839287097
0,-0.7351095194082025,3.1195575688891264,5.50088783116767,-1.1134380494166938,3.9900359289524587
0,-3.885855308070477,-6.960765217114791,-3.679854117339309,-5.854134191745788,3.995035973976208
0,-3.8366011262190933,-6.271087881541897,-8.540595980781985,-5.38483064123268,4.000036018999957
0,4.9226530296212845,7.068589577789649,10.858662241814828,7.444472601392533,4.005036064023706
0,5.451907163011897,2.518267163253883,9.037920551474986,3.493775535543049,4.010036109047455
0,-3.4688387226601756,-9.802055122839926,-11.932821051091373,-1.5269218395486739,4.015036154071204
0,10.580415375716594,8.307622721779657,10.026437434512857,5.812380475075315,4.020036199094953
0,-2.2803305390264184,0.037300699435194956,3.2056960085708077,-6.058317521806125,4.025036244118702
0,-0.8310764643320112,-2.1630211876184693,-2.8350453288259434,-4.469015831435994,4.030036289142458
0,3.8881776021999226,3.136657062762902,0.26421342219308974,1.1502855451336682,4.035036334166207
0,0.18743166289551544,2.986335452656676,3.9834722614320928,-3.620413392879647,4.0400363791899565
0,4.526685719940559,1.29601398399739,0.4627311886352789,2.5588873539176396,4.045036424213706
0,0.9459397753086716,-2.2643073414704387,-6.26800979656085,-4.891812214981803,4.050036469237455
0,2.205193830743125,7.9053714778655655,5.84124930548169,0.5074879000183193,4.055036514261204
0,4.994447887757405,7.355050443413293,8.450508494400669,-0.18321230135857383,4.060036559284953
0,-4.936298052358018,-2.485270443824699,-7.200232230391674,-0.4739128192965966,4.065036604308702
0,2.7529560115492435,2.89440881674965,3.9490271302554762,2.2453863460420815,4.070036649332458
0,-2.1877899193772037,5.404088225494495,6.558286575378467,1.0846851944526446,4.075036694356207
0,-3.3085358439308554,-6.11623221741639,-10.072453896105127,1.113983725627824,4.080036739379956
0,-8.15928176073219,-11.186552511844909,-14.143194285238152,-11.686718060787115,4.085036784403705
0,7.259972331910226,10.183127342631721,13.256065407384375,6.452579835017605,4.090036829427454
0,-4.890773564067111,-7.507192653241443,-9.374674818376315,3.161877413068604,4.095036874451203
0,-5.541519446621511,-7.317512498554193,-10.105414962447638,-1.6488253266323827,4.100036919474952
0,1.8877346864649756,4.682167807847636,6.383844975555979,-4.919528384215001,4.1050369644987015
0,-1.2530111623508549,1.9918482673802833,3.503104996359964,0.6197682402511011,4.110037009522458
0,-9.163756990430155,-9.588471118477408,-13.01763489924625,-7.140935453074762,4.115037054546207
0,-0.14450279487644346,0.17120965184377535,-1.3283747103700723,-1.49163946374304,4.120037099569956
0,-1.4252485724273873,-2.3991094198033642,2.3108855642506994,-4.882343790962497,4.125037144593705
0,-11.515994319479502,-16.999428331188984,-16.8998540737309,-9.033048433543378,4.130037189617454
0,-4.0067400320133535,-7.519747079481657,-4.390593622196355,-1.3037533898098648,4.135037234641203
0,6.092514294507328,8.759934338958303,14.408666921561174,4.865541342374022,4.140037279664952
0,0.8717686649004686,-3.0503840717210613,-1.942072439532738,4.614835765294794,4.145037324688701
0,-4.4289769160648325,-12.380702307255303,-11.702811702750349,-8.40587011891304,4.150037369712457
0,4.690277556303692,4.898979636835495,7.79644913462028,8.003423691761785,4.155037414736206
0,6.179532086650208,5.838661765349665,5.455710075455116,6.97271719925828,4.160037459759955
0,2.428786679384569,-2.4116559169008926,-7.275028877446451,0.6320104052260249,4.1650375047837045
0,4.418041338517747,8.90802659464304,6.50423227853468,-0.14869668909831124,4.170037549807454
0,7.037296067642446,10.927709304173355,10.443493545881013,7.300595917239568,4.175037594831203
0,2.436550869907083,2.877392215296009,-1.00724507326674,5.459888224930422,4.180037639854952
