labels,F4,F3,Fz,Cz,timestamps
0,4.822786704345345,-1.60737226413083,-3.434937515695035,2.4479854205589024,-1.9999082926382314
0,6.95332334014821,7.873215680306095,11.425000376641037,3.018102226402305,-1.9949085219066376
0,2.6038591199648633,2.643801604654834,4.194936070477118,7.438217915496489,-1.9899087511750402
0,-2.915605967088787,-12.805614502169568,-8.765130440352735,3.188332480627261,-1.9849089804434463
0,4.084928067855131,0.6649673487772254,1.2248008377809707,7.008445914099868,-1.979909209711849
0,2.895461213548383,0.6855471467746538,3.084729898607562,1.6285582077230973,-1.974909438980255
0,-5.7440065413868995,-10.683875118578134,-9.675343264016677,-5.701330647078149,-1.9699096682486577
0,-0.4634752083734668,-0.8632994573796862,-2.36541865607454,3.8487793409867908,-1.9649098975170638
0,4.687055201263407,6.9172741206197825,8.644503716726945,6.838888163199197,-1.95991012678547
0,-1.0224153237707303,-2.962154394192816,-1.0955761512198672,3.3389958106417996,-1.9549103560538725
0,-3.6218867948478652,-6.6415850114845245,-12.39565826561966,-9.490897725935032,-1.9499105853222787
0,2.1886407766604874,6.688982259143554,8.434257367917251,-3.8507924558382234,-1.9449108145906813
0,-3.560832620519915,-3.9604525917758213,-0.735829255993516,-5.860688388021621,-1.9399110438590874
0,-8.440306997510787,-16.369889573578373,-18.20591814260715,-9.040585530889816,-1.93491127312749
0,5.850217634835039,1.9006713048095707,7.403990703116452,-2.820483892244382,-1.9299115023958962
0,0.5407412659004688,0.9712300350630605,4.143897276643414,-2.55038347930634,-1.9249117316642987
0,-9.33873611487423,-13.55821339073066,-14.566198426395044,-4.890284298845964,-1.9199119609327049
0,-3.02821451791381,-2.2176589801226103,-8.456296410182196,0.2298136427011665,-1.9149121902011075
0,-1.0576939532705756,4.312893259823816,6.493603321651076,-6.120089660811059,-1.9099124194695136
0,-5.347174430603824,0.17344332234444282,-2.1364992340328715,0.09000578474595652,-1.9049126487379162
0,-7.576655959227074,-8.72600879929688,-13.366604080180815,-11.479900026183701,-1.8999128780063224
0,-5.476138547996519,0.3545368882760294,4.343288780530958,-4.969807098701848,-1.894913107274725
0,-2.4256222052069125,-3.6649196212586994,-2.046820654166492,-4.359715437308208,-1.889913336543131
0,-6.155106938639363,-11.494378333865098,-17.606932386205145,-10.89962504586957,-1.8849135658115337
0,-0.4745927556539514,-0.9338392550433323,-0.6870464170336011,-1.1295359276300307,-1.8799137950799398
0,-4.214079663256412,-3.9233023897399377,1.4528372525738833,-0.8494480852666563,-1.8749140243483424
0,-5.863567668132205,-11.312767742400702,-9.287281377669416,-0.3093615211006034,-1.8699142536167486
0,-0.733056776616556,-4.002235316935478,-4.347402307726684,-2.0592762373080804,-1.8649144828851512
0,5.807453005257489,6.258294883319596,10.572474462788387,10.53080776395962,-1.8599147121535573
0,-3.4420383284681924,-5.491177144644918,-6.087651065582185,9.350890480325695,-1.85491494142196
0,-1.901530783815055,-3.1306514037480206,-3.6977788923493353,0.6609719088490653,-1.849915170690366
0,-0.1710243667684775,8.45987210318866,9.512090982999453,4.271052045960982,-1.8449153999587686
0,-2.26051908317796,0.7103933733430436,-3.1880414390165766,-2.0888691123145757,-1.8399156292271748
0,0.5799850612321956,-6.759087596282345,-7.778176157973485,1.7212084298578314,-1.8349158584955774
0,3.790488060798559,3.881429191242976,7.44168682660406,16.581284668138878,-1.8299160877639835
0,-1.73901009018899,-0.8380562670618189,3.491547515292745,-0.9886404022464548,-1.824916317032386
0,-11.73850939746561,-9.24754397408233,-12.798594091400808,-9.008566786629064,-1.8199165463007922
0,-11.288009866444138,-8.717033932448627,-9.198737992863753,-12.458494490423007,-1.8149167755691948
0,-2.4675115017995046,2.3834738557414736,8.87111581202399,1.731576481502892,-1.809917004837601
0,-9.727014307378594,-5.066020611088214,-6.469032675167793,-3.2383538750621685,-1.8049172341060036
0,-6.52651828631503,-4.74551733418016,-9.28918345267726,-4.918285563925219,-1.7999174633744097
0,7.783976558853098,7.424983685473685,14.120663481473937,7.311781411333841,-1.7949176926428159
0,6.054470225851657,5.50548244694907,8.57050812931085,14.041847047119715,-1.7899179219112185
0,-3.295037287787059,-5.694021050902285,-10.999649507533311,2.3519113393530695,-1.7849181511796246
0,-2.3645459848071226,-1.5535268094337376,0.36019057223991413,1.8819742832249298,-1.7799183804480272
0,-1.0840558679629733,-2.913034829914172,3.680028370004901,-0.8879641265865774,-1.7749186097164333
0,-4.553566939824901,-7.322545113335242,-12.710136112673615,-2.9879038955749735,-1.769918838984836
0,2.026920797252241,1.2479423396611653,-4.2203028739719475,3.222154970791657,-1.764919068253242
0,2.9474073410535877,1.8084275287395633,7.7195280883618125,0.47221246708321657,-1.7599192975216447
0,1.1878926893287207,-1.7310895463185634,-2.5106432231518383,-2.447731412166534,-1.7549195267900508
0,-4.591623160302922,-2.4806088857262876,-10.730816805967715,0.6123233275544225,-1.7499197560584534
0,4.578859789734241,7.079869510332161,6.979007342607565,0.39237668079922,-1.7449199853268595
0,2.229341537011782,0.06034564162155498,5.46882922547024,3.7924286421226676,-1.7399202145952621
0,-4.3401779209893645,-4.119180492257424,-7.411351154549774,0.26247920597127483,-1.7349204438636683
0,4.190301413127002,2.8812911082192523,6.6884662052127615,4.272528366607411,-1.7299206731320709
0,4.930779536701375,10.711760442546082,13.128281307275373,-0.8374238819099965,-1.724920902400477
0,-4.2187435530811,-5.947772490012462,-4.0219058462367805,-4.527377545659422,-1.7199211316688796
0,6.79173214077024,3.7926923094935754,0.9979047462959896,6.302667369277313,-1.7149213609372858
0,6.742206615048429,8.163154839810947,13.097713086175853,8.922710856770443,-1.7099215902056883
0,-0.25732013379176205,-2.2563849005576877,-0.742480825627893,-5.837247089606488,-1.7049218194740945
0,-4.036848109650571,-8.285926913358464,-6.872676988564327,-5.00720647655905,-1.699922048742497
0,1.0636226834674445,4.03452879970019,7.837124597739272,-0.5171673107103092,-1.6949222780109032
0,-3.425907758334714,-1.5750177628709092,0.39692393365166767,-5.1571295983684635,-1.6899225072793058
0,-4.335439438783107,-7.554566602408451,-10.693278980517235,-9.567093345481558,-1.684922736547712
0,-3.134972361355356,-3.1341177200363375,-1.1134841443539294,-4.6570585575049055,-1.6799229658161146
0,-1.1945065292101118,0.06632888348726085,4.466308442888266,1.14297476069093,-1.6749231950845207
0,-7.674041945189355,-14.303226792202482,-15.993901217756685,-13.456993395276164,-1.6699234243529233
0,-1.8335786117904627,-5.862784746966318,-6.494113124896739,-2.6069630293146377,-1.6649236536213294
0,-5.833116531102437,-1.3823449799739649,2.2656727234867335,-5.436934144744453,-1.659923882889732
0,-7.482655704765409,-10.241907489736976,-7.334543669998592,-8.40690674428578,-1.6549241121581382
0,-11.912196133860139,-16.251472274138273,-15.584762302298838,-7.72688083006322,-1.6499243414265408
0,-2.0617378187385063,-0.9610393302156398,2.1150168302588592,-4.466856403530543,-1.644924570694947
0,-3.0112807590307176,-1.3206086541239563,-2.4252062679553252,3.053166534468715,-1.6399247999633495
0,-7.330824953838275,-12.900180241414242,-17.05543159206135,-8.146812016531193,-1.6349250292317556
0,-0.22037040184994477,2.1302459128343365,2.3043408633540565,-0.97679205674733,-1.6299252585001582
0,-0.5699171013920541,-0.8093301859951894,2.804111104300204,1.1232264138705055,-1.6249254877685644
0,2.220534949414318,-4.728908532226884,-3.6361208629138426,3.273243395540772,-1.6199257170369705
0,-1.4490142475262449,0.5715108799832038,-7.606355031898872,0.20325888843338993,-1.6149259463053731
0,2.6414353096439527,4.061928056619751,5.673408603935584,-0.1767271074266406,-1.6099261755737793
0,-8.768116377225713,-9.597656996273946,-8.526829948557019,-3.3467145920835533,-1.6049264048421819
0,-10.547669306083112,-11.347244272485057,-11.877070682243101,-5.986703565482143,-1.599926634110588
0,3.392776525624928,6.753166234682545,5.422686410486765,0.43330597270141535,-1.5949268633789906
0,-0.6567788790440743,2.083574532371309,0.652441337712957,3.16331402306218,-1.5899270926473967
0,-5.4863355167972365,-8.396019372187844,-12.197805892282771,-1.66667941372113,-1.5849273219157993
0,2.434106615782855,5.724384528234188,7.271944728950616,3.923325662957077,-1.5799275511842055
0,5.05454752221935,6.574786240901874,11.9616932100108,4.153329253562934,-1.574927780452608
0,-1.9050127940274244,-9.944814227037229,-6.55856044072836,-5.046668641629908,-1.5699280097210142
0,-1.2745743296536425,-4.814416868492451,-2.308816215259066,-4.956668022431881,-1.5649282389894168
0,-0.20413708139136216,2.645978323896305,6.37092589434794,-1.416668888464676,-1.559928468257823
0,-3.833701045882185,-0.6636286421933247,-2.7693341039451265,5.57332876092916,-1.5549286975262255
0,-5.073266219593327,-3.393237758965666,-6.38959620220628,6.0133249264380755,-1.5499289267946317
0,6.007167401247617,5.817150981411217,10.140139607550365,1.6633196084549533,-1.5449291560630343
0,-3.662400179430984,-1.1924624132411328,-0.8501266666689608,-2.816687192997507,-1.5399293853314404
0,-7.451968957638539,-12.08207793512431,-6.730395016994309,-8.84669547801522,-1.534929614599843
0,-0.4715389291820896,3.708304423754199,4.599334564403165,-1.9967052464406894,-1.5299298438682492
0,3.148889910448708,6.958684671689286,7.849062085397377,6.113283502276546,-1.5249300731366517
0,1.4493175658995403,-3.0809371830089143,-3.381212446307316,7.963270768795178,-1.5199303024050579
0,-0.04025595827696454,2.9194388677561545,3.1485109766989647,4.413256553432149,-1.5149305316734605
0,6.280169342307665,6.409812831891289,10.358232361590682,1.453240855960718,-1.5099307609418666
0,2.5905934718203327,6.400184717034395,-1.7820482847796137,-0.25677632427231384,-1.5049309902102692
0,1.111016434120727,2.2805545303670223,-1.1123309559435595,4.903205011847451,-1.4999312194786754
0,7.1314382327507815,7.24092227856358,9.767384354328462,9.063184863206802,-1.494931448747078
0,5.011858870906364,6.601287967803617,3.48709765202793,3.4531632282691698,-1.489931678015484
0,-0.9277216486364679,-5.668348396218453,-9.113191057201952,-8.666859894982322,-1.4849319072838867
0,4.022696676533023,4.662013191870015,2.7265182321289507,1.0131154912637714,-1.4799321365522928
0,2.983113848577866,5.29237273729824,5.806225525597407,-3.3069106150084475,-1.4749323658206954
0,-1.756470130555711,-5.457269754872779,-7.234069171215947,-2.146938215568263,-1.4699325950891016
0,-2.3560552590657866,-4.286914279695392,-4.834365852747983,-7.626967311937217,-1.4649328243575042
0,3.5343584648526307,5.253439167892669,8.415335486737268,-1.3769979052900683,-1.4599330536259103
0,-5.655228956936538,-7.836209406869451,-9.484965146854075,-6.917029996374879,-1.4549332828943164
0,-3.4948175224713727,-7.195859998562065,-8.175267747480731,-6.027063585485466,-1.449933512162719
0,0.39559277042757923,0.4744873985910424,3.904427691244859,-3.127098672417158,-1.4449337414311252
0,4.066001924149232,-2.1351672092104987,3.7241211760708515,5.3328647434753504,-1.4399339706995278
0,3.006409941070307,-5.294823815477432,-6.176187286193406,2.622826662994582,-1.434934199967934
0,15.446816823263338,14.725517586429094,11.843502311158298,4.212787086771712,-1.4299344292363365
0,16.01722257211595,19.57585700291274,24.973189974502937,3.152746015109395,-1.4249346585047427
0,18.387627187851646,17.726194439396508,7.612875709258035,-0.27729655201495973,-1.4199348877731452
0,19.858030669145506,24.446529899681476,16.532559519392063,9.09265938509368,-1.4149351170415514
0,34.4684330128235,35.36686338554424,36.302241407291504,17.00261382571308,-1.409935346309954
0,34.99883421338849,32.0671948962609,31.74192137332421,26.83256676819911,-1.4049355755783601
0,29.329234262457735,23.48752442818869,16.37159941521034,14.24251820932654,-1.3999358048467627
0,49.23963314839596,48.72785197463455,45.24127552785179,33.00246814387294,-1.3949360341151689
0,42.34003085597729,40.97817752561525,36.52094970323429,21.6824165644029,-1.3899362633835715
0,36.41042736599725,31.198501067412547,24.910621930058035,18.562363461124313,-1.3849364926519776
0,41.11082265519022,40.55882258247493,37.990292193649886,25.00230882195839,-1.3799367219203802
0,38.11121669639621,38.83914204959254,37.869960476106165,24.952252632658546,-1.3749369511887863
0,30.88160945869325,26.299459443958803,17.97962675627484,19.812194876752525,-1.369937180457189
0,26.422000907631503,28.099774737359237,20.139291009983317,15.132135535560254,-1.364937409725595
0,32.8323910056112,33.99008789853476,35.638953210541274,22.94207458840983,-1.3599376389939977
0,18.082779712173824,17.99039889338559,13.278613328905557,4.83201201285414,-1.3549378682624038
0,11.693166984318598,14.270707685200913,6.748271333766868,1.0619477849947212,-1.3499380975308064
0,15.143552777046631,17.92101423515742,21.737927192043706,6.421881880040903,-1.3449383267992125
0,6.793937043881782,11.741318502757533,6.307580869299837,8.451814272697948,-1.3399385560676151
0,3.0643197372156434,2.11162044609312,-3.5027676700723065,-2.4782550628094744,-1.3349387853360213
0,5.624700808642731,2.5819200222367993,4.616881537575906,3.4316738473112847,-1.3299390146044239
0,-4.554919790721113,-4.557782812246157,0.5965284556190843,1.47160097660586,-1.32493924387283
0,-15.994542109873258,-13.51748810081431,-17.69382695259673,-4.788473701503153,-1.3199394731412326
0,-15.314166197317647,-13.627195886423396,-15.124184723315341,-10.468550213535249,-1.3149397024096388
0,-9.503792100466338,-8.786906211054767,-3.694544891786175,-8.758628585583232,-1.3099399316780413
0,-20.103419865401108,-22.586619115483582,-21.48490749205814,-11.508708842966684,-1.3049401609464475
0,-24.233049536749025,-25.406334639045063,-28.705272556871137,-14.718791010031174,-1.29994039021485
0,-19.692681157368106,-10.606052819269221,-11.895640117226781,-12.318875109991456,-1.2949406194832562
0,-24.622314768054466,-18.985773691780643,-17.06601020213886,-9.348961164834156,-1.2899408487516624
0,-22.991950407432558,-23.54549729045451,-23.616382838797335,-17.229049195334827,-1.284941078020065
0,-15.951588111943448,-12.715223647408724,-10.016758052668278,-12.019139221045203,-1.279941307288471
0,-14.62122791599109,-13.104952792984943,-8.817135867569485,-9.899231260231941,-1.2749415365568737
0,-16.060869852233488,-19.314684755934387,-17.827516305950542,-8.8493253299513,-1.2699417658252798
0,-13.430513951792905,-13.004419563527241,-12.077899389043578,-4.319421446258555,-1.2649419950936824
0,-18.990160244309212,-11.454157241545095,-8.328285136809024,-4.799519624437024,-1.2599422243620886
0,-19.95980875786759,-20.223897814342294,-18.908673567960324,-13.359619879138355,-1.2549424536304912
0,-22.389459518812256,-29.03364130475128,-26.559064699881905,-16.669722224252844,-1.2499426828988973
0,-18.36911255155705,-20.30338773367696,-12.049458548270959,-14.14982667254766,-1.2449429121673
0,-17.378767878543172,-16.66313711980557,-14.709855126960427,-12.559933235405342,-1.239943141435706
0,-18.468425520338442,-20.01288947972402,-21.72025444809069,-7.920041922850244,-1.2349433707041086
0,-14.598085495753493,-13.902644828167116,-12.350656522205583,-2.5601527437934073,-1.2299435999725148
0,-21.117747821905354,-12.562403178194359,-10.271061358260617,-7.100265706358922,-1.2249438292409174
0,-17.117412514203764,-19.432164541344406,-13.96146896380661,-5.2903808181029754,-1.2199440585093235
0,-16.757079586300062,-15.961928927666039,-16.571879345145213,-7.610498086036638,-1.2149442877777261
0,-15.31674905011607,-10.8416963456531,-5.672292507304712,-0.7606175165992449,-1.2099445170461323
0,-17.826420915934534,-19.091466802286345,-16.152708454069078,-9.930739115701153,-1.2049447463145349
0,-14.226095192445511,-13.331240303097445,-18.21312718802223,-9.26086288870904,-1.199944975582941
0,-5.4357718868335585,-1.7210168522242744,0.7364512895200066,6.289011159625077,-1.1949452048513436
0,-3.725451005080989,-2.710796452728515,-5.653973021648552,-5.941116974982866,-1.1899454341197497
0,-10.335132552363113,-12.280579107027213,-14.924400120990498,-2.641247296600078,-1.1849456633881523
0,-7.774816533200882,-8.66036481696358,-3.694830007283043,-2.2513798090953743,-1.1799458926565585
0,-5.964502951388543,-5.240153583612997,-5.405262678502199,-8.121514516030482,-1.174946121924961
0,-11.514191809946473,-14.079945407205447,-14.535698131870916,-6.061651420549666,-1.1699463511933672
0,-1.3838831111361216,-4.409740287124241,-2.2461363638662775,-6.49179052524256,-1.1649465804617698
0,-0.42357685656935995,4.020461778024858,5.893422629738561,-0.8819318321023748,-1.159946809730176
0,-12.643273047403914,-9.479339209868145,-11.647021146433215,-10.022075342605692,-1.1549470389985785
0,-8.86297168431581,-9.239143248579992,-12.367467687471601,0.627778942238476,-1.1499472682669847
0,-3.032672767266673,3.6210496645908097,3.7920830121071356,6.157631021795282,-1.1449474975353873
0,-2.802376295492671,1.121239532794535,-0.3783690416038483,-3.7525191044706174,-1.1399477268037934
0,-4.732082267729574,-3.3985736406747216,-5.55882384223472,-4.152671437157148,-1.134947956072196
0,4.338209317605984,5.721610147452317,7.2607186166722535,-2.0028259767655596,-1.1299481853406022
0,-2.8715015377312154,-5.508209099586314,-2.1797416583995544,-10.882982723476587,-1.1249484146090083
0,-7.961214831894305,-9.928031378490857,-10.730204660975893,-2.353141676994417,-1.1199486438774109
0,-5.120930562782992,-2.757856685620569,-4.820670384355213,-9.613302836435826,-1.114948873145817
0,-0.4706487278355767,0.5523149831911192,4.468861178655071,-5.173466200288834,-1.1099491024142196
0,-3.2203693240604228,-9.137516367471001,-6.771609964369448,-4.993631766410336,-1.1049493316826258
0,-5.960092348161066,-6.977350732649702,-4.372083805642097,3.006200467883587,-1.0999495609510284
0,3.3501822034441107,7.1328118930758295,13.247439662817438,10.826030505504525,-1.0949497902194345
0,-0.3195456654440717,0.4829715154237655,3.976960448940094,7.385858349098795,-1.089950019487837
0,-2.1992759509611286,-4.31687185990819,-6.873521439734431,3.965684000670464,-1.0849502487562432
0,3.1309913507583724,3.613281772712032,6.115994004022484,2.2755074615614004,-1.0799504780246458
0,5.241256243539205,8.873432418876861,6.355506787325345,4.2053287326419015,-1.074950707293052
0,0.22151873101851105,-1.0964199160605173,-7.794983082898829,0.22514781445369486,-1.0699509365614546
0,-0.6882211834223186,-2.516275227090542,-4.3454755998460035,-0.8450352926948892,-1.0649511658298607
0,1.6320365034504634,2.2738664906455437,7.634029243439905,-0.10522058859880784,-1.0599513950982633
0,-5.347708205149092,-6.295994757945895,-7.256468545916846,-8.805408072997123,-1.0549516243666694
0,-4.927455305890699,-7.515858967774461,-10.46696896067714,-4.595597745363422,-1.049951853635072
0,-3.4672047951433616,-2.6857261333605074,3.1625280067393455,-3.8457896047065203,-1.0449520829034782
0,-0.42695666888842493,-0.3755962487427294,1.8520223643372944,1.414016350432712,-1.0399523121718808
0,-4.766710922789068,-10.55546930756681,-13.178485879659963,1.0238201217786145,-1.034952541440287
0,-3.3564675522414316,-3.6153453030745197,0.27100328320919365,-7.336378288854575,-1.0299527707086895
0,-2.586226552338987,0.8747757719860356,2.0904898618042,-2.69657887950612,-1.0249529999770957
0,-7.3859879178257035,-9.01510607470814,-11.620026134696047,-11.036781647847842,-1.0199532292454982
0,-4.455751643033404,-2.4149908351254847,-5.58054469679831,-0.3969865910095317,-1.0149534585139044
0,3.9044822781441084,6.485121499114857,9.938934185437867,3.282806294382211,-1.009953687782307
0,-0.07528614792349086,-3.2347690634419997,-5.0815894777840445,-2.8674029880619547,-1.0049539170507131
0,-0.7150569148491572,-0.9446625142896543,-3.5821156762714335,4.10238556527031,-0.9999541463191157
0,5.575169983672274,10.105441155014777,11.91735560016056,8.91217195786445,-0.9949543755875219
0,-2.9046054461680195,-0.6244580472543972,1.2268243615932128,-6.418043807072021,-0.9899546048559245
0,-5.464383198260372,-5.744360113099125,-7.223709382195275,-1.498261726574194,-0.9849548341243306
0,-1.5241632663783609,1.8557349653898654,3.1457543784168682,-4.968481797617934,-0.9799550633927332
0,3.966054355953986,1.515827196230731,5.635215653101893,-3.5687040168797353,-0.9749552926611393
0,-4.433730324650754,-8.824083412465555,-8.625325548499099,-2.1389283806790225,-0.9699555219295419
0,-5.663517301511612,-3.4739968524175984,-3.36586921675291,-4.759154884993762,-0.9649557511979481
0,-0.5533065677321473,6.586086884974658,5.71358465817946,5.37061647447665,-0.9599559804663507
0,-3.8530981160880917,-7.0238321914738115,-4.026963913678879,1.550385702140199,-0.9549562097347568
0,-6.642891939035774,-3.4837540728581184,-8.867514922227022,-0.7498471976955965,-0.949956439003163
0,0.8373119713140045,2.84632124991162,7.85193164283257,2.309917779122595,-0.9449566682715655
0,-5.702486376795613,-0.20360621388469086,-2.708624207990135,-5.350319363318647,-0.9399568975399717
0,-6.812286974786374,-9.713536454879373,-13.579182464082855,-12.950558620799224,-0.9349571268083743
0,3.2779101862943065,1.8865305364796052,1.8502568854477928,-3.3707999886192717,-0.9299573560767804
0,-4.081894884273566,-1.6034052299494308,-2.110306148022789,0.5489565385889714,-0.924957585345183
0,-11.761702176957844,-12.853343744021988,-14.160871552702083,-8.951289033294472,-0.9199578146135892
0,-3.721511681806561,-5.723284995173921,-6.811439316296448,-6.661536697990087,-0.9149580438819918
0,0.5286766117284443,3.2667710277754383,9.457990574153369,3.148213551258701,-0.9099582731503979
0,-7.541137285324072,-2.8531756635236216,-8.412581867965965,-6.232038278372127,-0.9049585024188005
0,-4.060953361584284,-1.4731250572440362,-7.273156629112002,0.2277078205453722,-0.8999587316872066
0,7.869228394664122,10.416922858473313,13.406266304471664,8.417451855573958,-0.8949589609556092
0,1.889407995262851,1.3869680953286907,2.255686946614097,2.6171938341797207,-0.8899591902240154
0,-0.0004145481351467417,-6.812989335297155,-10.094894689110372,1.976933763477955,-0.884959419492418
0,7.609760775841217,8.627050577794634,8.97452141069912,3.6866716502113155,-0.8799596487608241
0,7.809933978235999,8.457087845692842,8.703935259404123,-0.6935924991502505,-0.8749598780292267
0,3.030105069595267,-2.512877520861909,-8.446653129890077,-1.7238586783081353,-0.8699601072976328
0,10.570274059856182,15.787154488358489,7.312756255607942,10.13587311894005,-0.8649603365660354
0,7.4404409583061755,9.04718388297583,14.292163428466482,10.045602898546045,-0.8599605658344416
0,-0.4293942264534835,-0.6327893281713906,1.4915684007822476,6.265330665854889,-0.8549607951028442
0,3.3307685136210985,0.9172348630654794,-0.3790288160307917,6.2950564254173615,-0.8499610243712503
0,-4.399070813710463,2.897256464501756,2.7403717889868715,-2.1952198188909473,-0.8449612536396529
0,-6.458912200698552,-6.092724516153861,-7.570229773335441,-7.235498063540513,-0.839961482908059
0,-6.168755639316489,-9.332708071111753,-11.810833492012069,-8.105778304887579,-0.8349617121764616
0,-4.2786011210386174,-2.4726941921936367,-2.22143935554414,-9.776060538752038,-0.8299619414448678
0,-2.598448636809783,-5.022682870658766,-0.10204735177889757,-6.176344760192405,-0.8249621707132704
0,1.1917018228268312,-0.24267409728787215,-6.182657468108692,-1.4366309635095913,-0.8199623999816765
0,-8.578149732411733,-4.842667862525863,-7.253269691601354,-12.016919142383257,-0.8149626292500791
0,-1.4480032925451878,3.2673358434267588,5.66611599105927,-5.64720928990357,-0.8099628585184853
0,-5.84785884722215,-7.552662969450866,-5.344500406500023,1.6924986014779242,-0.8049630877868879
0,-6.777716385653048,-5.1226642909643,-6.34511887047631,-1.1977954602165255,-0.799963317055294
0,-0.3775758965799297,3.4173318894105305,7.774260613141902,3.7019085331908537,-0.7949635463236966
0,4.0225626316389,-1.332674417526159,5.32363805847182,2.071610589812007,-0.7899637755921027
0,0.45269921075864605,-2.342683200881658,-1.27698652058813,5.321310717559604,-0.7849640048605089
0,3.792833852403935,7.667305550243958,7.182386889502642,4.40100892403147,-0.7799642341289115
0,6.292966567956672,11.747291846589402,12.391758301904058,8.46070521639928,-0.7749644633973176
0,-2.4069026315139865,-1.732724301596956,-6.328872270750827,-3.119600398655119,-0.7699646926657202
0,-0.8167737352004857,2.107257115361086,0.6304951837015176,-3.4199079148019393,-0.7649649219341264
0,-1.5666467323538722,3.4472361067979147,11.259860677226396,6.619782674212932,-0.7599651512025289
0,-9.166521612081318,-7.182787318098629,-4.6207757784013115,-9.000528625313624,-0.7549653804709351
0,-0.7963983631702362,-1.8828131501209737,-1.5514141716728735,-2.7408418069882257,-0.7499656097393377
0,-1.6662769740003545,1.59715862014024,11.297945508780204,3.8088431358143673,-0.7449658390077438
0,-3.0361574326305756,-2.692871997705513,4.477303274124643,2.2985262098916377,-0.7399660682761464
0,-6.69603972686907,-7.632904993905458,-3.6733408649062955,-7.091792577989288,-0.7349662975445526
0,0.7840761557908105,3.5270596415285578,8.756013102027607,5.06788677892056,-0.7299665268129552
0,-6.355809771796304,-3.572978081144804,0.5153651850065029,-6.202435712535642,-0.7249667560813613
0,-5.125697496436693,-6.23301815146851,-4.975284606129291,-0.5927600453864743,-0.7199669853497639
0,1.2344129954345395,0.4669394412545651,5.344063738339433,1.3869137874917596,-0.71496721461817
0,3.734521717666615,4.916894707973462,15.433410228023694,3.876585793307313,-0.7099674438865726
0,-3.435371315842786,-0.3231523403242075,4.282754872055349,-1.953744020812674,-0.7049676731549788
0,0.0847339087519412,-1.1732016927886149,-2.277902321187736,0.9259243521293297,-0.6999679024233814
0,8.71483740526814,9.366746661290648,17.531438656056224,3.495590919055293,-0.6949681316917875
0,5.804939187333527,7.906692732368656,15.690777810911477,12.155255686718375,-0.6899683609601901
0,2.955039268117058,2.736636530379592,4.770115149480166,5.844918661401744,-0.6849685902285962
0,9.24513766023444,15.616578064586161,20.359450676638087,3.4045798486907333,-0.6799688194969988
0,9.6152343757156,11.536517343450997,20.178784395979243,13.144239253476982,-0.674969048765405
0,5.1753294258795455,5.7564543744354735,5.988116309614499,9.533896879933204,-0.6699692780338076
0,10.595422821260513,11.366389163973317,11.667446418175816,9.593552731343003,-0.6649695073022137
0,3.015514571636823,10.326321717572213,18.236774721065963,10.503206810003281,-0.6599697365706163
0,1.575604686132174,2.7062520398462753,4.686101216520183,13.262859117211745,-0.6549699658390224
0,4.785693173403261,5.376180134621997,3.0754259016541394,12.402509653192372,-0.649970195107425
0,4.845780041764897,8.246106005125128,12.434748772746579,-0.7878415829268601,-0.6449704243758312
0,-0.36413470081535076,3.50602965403419,5.574069825402001,1.6018054071515275,-0.6399706536442338
0,-2.0340510466515136,-4.354048916479822,-7.496610945422856,-2.1285493786549625,-0.6349708829126399
0,-0.4739689881394119,2.2458702954848286,-0.09729354511316093,-0.9089059424863802,-0.6299711121810425
0,-3.033888517590982,-2.414212708186574,-3.6779779789670495,-9.939264286356575,-0.6249713414494487
0,-5.6338096271410745,-12.384297925472069,-18.1586642519303,-6.6596244119215,-0.6199715707178548
0,-6.403732308613313,-13.114385353908128,-13.319352368243038,-10.83998632021078,-0.6149717999862574
0,-4.373656553366469,-6.304474990175996,-3.2200423310479804,-11.050350011432,-0.6099720292546635
0,-6.3635823522243875,-11.084566829940636,-13.000734142379128,-9.380715484847679,-0.6049722585230661
0,-4.333509695479466,-6.974660867929477,-12.851427803323073,-7.981082738735406,-0.5999724877914723
0,6.316561427020808,3.985242901913886,3.987876685956609,8.608548229447141,-0.5949727170598749
0,-1.5133689743757237,-4.194855513862641,-9.12282067393953,-7.041822577337331,-0.589972946328281
0,-0.5833008893673995,-5.04495610848635,-10.58351988187791,-5.132195155986309,-0.5849731755966836
0,1.6567656922796807,2.924941125018971,1.275779063839362,10.737430496758508,-0.5799734048650897
0,-1.113169219214747,2.604836193804764,0.3250761654616324,0.42705438419783937,-0.5749736341334923
0,-9.003105613585852,-6.905270894957451,-15.225628574410326,-9.09332349054702,-0.5699738634018985
0,0.9569565196482936,-1.8453801340524711,-3.7663351527604796,4.866296875591292,-0.5649740926703011
0,1.327017191284081,1.904508483939444,2.1929564340459575,-1.024084514175866,-0.5599743219387072
0,-2.4629235877081825,-8.155605033339217,-9.117753809847656,-3.614467656548908,-0.5549745512071098
0,-4.14286580629005,-14.445720677941878,-12.818465879893607,-7.454852548120743,-0.549974780475516
0,3.407190546708871,0.6241615586888298,6.7308202290296215,4.1547608147993,-0.5449750097439185
0,-7.9827545173721095,-10.065958314129093,-5.859895477407836,-6.355627563793855,-0.5399752390123247
0,-3.272700986987931,-8.496080286401913,-10.4906129932074,-3.0060176796806526,-0.5349754682807273
0,0.6273511497161582,1.9237956524994426,2.918667687995359,5.973590471571856,-0.5299756975491334
0,0.07740190487241327,-0.32633048628891576,0.17794657297763616,-2.2068031054961548,-0.524975926817536
0,-4.852548709253826,-8.276458691374687,-15.232776331210403,-8.817198406343568,-0.5199761560859422
0,2.567499319706907,-0.7865889511425588,-6.533501017121593,-5.267595426228799,-0.5149763853543448
0,0.40754600423097476,3.7732787463176676,1.4957725233755408,-4.497994159915369,-0.5099766146227509
0,0.06759135680785255,-4.106855586918434,-12.714955700938022,2.8316053983462575,-0.5049768438911535
0,4.987635389847534,-0.526991938740383,-8.905685680720163,2.2012032545694096,-0.49997707315955964
0,3.957678115586326,6.162869703000499,1.4535825940469853,3.320799414731815,-0.49497730242796223
0,11.17771954590963,6.802729350357692,-2.1371508660151757,10.320393884545467,-0.4899775316963684
0,2.057759692151946,0.942587015026066,-12.767886049914386,0.4799866692760222,-0.48497776096477097
0,4.177798565037057,5.052442708251295,-2.068622946237838,2.109577773693318,-0.4799779902331771
0,8.41783617476419,10.462296440854798,4.040638456962532,-2.2708327977594074,-0.4749782195015797
0,8.707872531003899,6.372148223115496,-5.270101828032001,-0.18124504073410996,-0.46997844876998585
0,9.037907642737855,9.54199806458797,-0.19084378883012398,1.5383410491409186,-0.46497867803838844
0,23.427941518036572,20.441845973951843,15.188412586978373,10.497925476185138,-0.4599789073067946
0,22.067974163672098,15.801691958725137,5.107667311513366,4.587508244396504,-0.4549791365751972
0,27.088005584585435,23.89153602487787,7.0669203962092935,10.057089357180134,-0.4499793658436033
0,39.03803578338847,39.83137817642256,31.796171851579665,24.00666881711747,-0.44497959511200946
0,39.46806475983269,36.48121841479767,29.5854216867085,25.69624662550593,-0.43997982438041205
0,29.508092510308675,26.35105673825983,10.224669908532446,13.905822781782778,-0.4349800536488182
0,38.02811902769986,33.19089314177387,24.403916521692576,18.195397283351344,-0.4299802829172208
0,33.058144301485214,34.2107276171945,26.34316152878773,14.114970125805955,-0.42498051218562694
0,36.478168317769004,29.63056015328686,22.12240493031997,21.06454130310941,-0.4199807414540295
0,35.20819105923932,36.14039073565599,26.401646724473107,24.374110807519617,-0.41498097072243567
0,30.028212505175098,34.06021934670202,29.580886907009706,16.9036786293741,-0.40998119999083826
0,21.048232631620003,18.75004596563134,12.920125471229786,11.413244757040072,-0.4049814292592444
0,18.96825141181348,15.209870568796587,8.47936240820895,14.16280917718118,-0.399981658527647
0,21.098268816689956,25.009693130293417,24.288597707315382,21.702371875007234,-0.39498188779605314
0,12.838284815203815,10.759513622323206,10.357831356458188,9.621932834242621,-0.38998211706445574
0,8.478299374584116,5.7193320153924425,2.6570633421058063,-0.37850796282732624,-0.3849823463328619
0,3.218312460736132,6.509148278734012,13.936293649555575,5.1310494650944625,-0.37998257560126447
0,1.1683240387282565,7.228962380755165,9.005522263213466,10.600605098763006,-0.3749828048696706
0,-7.201665926757387,-0.7512257107509428,-1.7452508333600458,4.610158918410253,-0.3699830341380732
0,2.1683425289504994,4.208583971544054,3.0839743427346917,2.6397109036299757,-0.36498326340647935
0,-1.3316506293062909,2.5083913946627465,12.453197774006068,4.639261033465568,-0.35998349267488194
0,-6.081645436527552,-7.541803474567185,-2.5575805574502786,10.208809286512164,-0.3549837219432881
0,-13.431641927443406,-14.982000669232486,-9.308360669939049,-7.971644359097083,-0.3499839512116907
0,-8.881640136161591,-4.762200221837418,5.710857418198308,2.9679000744451343,-0.3449841804800968
0,-15.061640095834928,-12.632402163977611,-6.929926311150052,-4.092557435086927,-0.3399844097484994
0,-18.801641838446308,-18.432606526244253,-14.530711875805075,-11.093016909728238,-0.33498463901690556
0,-13.921645394588,-7.392813338065876,-1.211499293055788,-4.753478371088931,-0.32998486828530815
0,-13.971650793320235,-11.943022627608388,-2.182288579483606,-7.943941840128215,-0.3249850975537143
0,-19.28165806218789,-20.92323442182374,-15.523079751082005,-12.394407337067712,-0.3199853268221169
0,-11.611667227231456,-10.373448746362543,-2.533872823253363,-4.514874881326159,-0.31498555609052303
0,-11.441678313009705,-10.603665625458158,-0.5246678107075502,-5.955344491501115,-0.3099857853589256
0,-16.74169134272214,-15.753885082028575,-14.035464727572398,-10.44581618546623,-0.30498601462733177
0,-13.321706338261311,-15.294107137747837,-14.606263587369575,-15.776289980341897,-0.29998624389573436
0,-13.931723320149782,-9.484331812962798,-4.647064402695883,-8.26676589225983,-0.2949864731641405
0,-18.55174230749374,-15.614559126687482,-12.987867185077404,-14.287243936196539,-0.2899867024325431
0,-22.111763317877852,-18.784789096626486,-22.548671944975695,-13.847724125946616,-0.28498693170094924
0,-14.451786367162278,-8.705021739079516,-4.979478691596383,-2.8682064741306346,-0.2799871609693554
0,-12.631811469434084,-12.755257068932425,-7.170287432811966,-2.928690992377413,-0.274987390237758
0,-23.54183863714988,-22.025495099755894,-25.45109817535528,-12.649177691638466,-0.2699876195061641
0,-14.271867881158357,-14.445735843704004,-11.691910924747711,-8.329666582245435,-0.2649878487745667
0,-7.5418992106588965,-7.355979311366073,-3.812725685068068,-1.9101576737645778,-0.25998807804297286
0,-11.041932633428786,-14.496225511922296,-15.85354245911536,-11.150650975017747,-0.25498830731137545
0,-11.371968156140637,-10.60647445338073,-9.404361248666142,-3.81114649418232,-0.2499885365797816
0,-6.932005784474042,-4.29672614266832,1.8248179454639035,-10.191644238776297,-0.2449887658481842
0,-15.822045523113184,-18.896980585707183,-17.03600487672874,-16.172144215548617,-0.23998899511659033
0,-19.58208737564041,-26.047237787297092,-27.766829714404828,-19.072646430205324,-0.23498922438499292
0,-16.932131344242208,-20.047497750621993,-18.39765656530174,-17.763150887017673,-0.22998945365339907
0,-15.682177429454319,-17.677760476832116,-13.54848542520838,-11.503657588601822,-0.22498968292180166
0,-14.912225630148017,-24.79802596501476,-24.849316287980454,-18.084166535971825,-0.2199899121902078
0,-15.662275943631906,-15.558294212265855,-18.9301491456413,-19.19467772861551,-0.2149901414586104
0,-9.842328365743377,-10.428565213780681,-10.210983988341505,-12.115191164430813,-0.20999037072701654
0,-14.1823828909632,-16.828838963118354,-22.651820804465874,-13.485706839726898,-0.20499059999541913
0,-11.272439512526088,-13.089115452437586,-19.012659580746636,-10.806224749398622,-0.19999082926382528
0,-6.932498222497381,-3.3793946725943416,-1.843500302250382,-1.2767448871653593,-0.19499105853222787
0,-3.3025590119360846,-3.249676613391146,-7.044342952647677,5.512732754047857,-0.189991287800634
0,-10.912621871140406,-13.419961263925009,-18.80518751465481,-9.557791818368173,-0.1849915170690366
0,-3.2626867897650125,0.7297513873101975,-2.476033970097033,-3.3983185968735286,-0.17999174633744275
0,-6.392753756824647,-7.770538647560025,-9.686882299810666,-4.308847573596907,-0.17499197560584534
0,-12.382822760698012,-18.990831355785364,-22.4177324836684,-10.279378740175947,-0.16999220487425148
0,-6.7928937890415515,-8.62112672375273,-15.368584500374734,-8.289912087649249,-0.16499243414265408
0,-1.7529668287078586,-2.4114247367460395,2.0105616727976736,-2.5304476063369963,-0.15999266341106022
0,-9.06304186586288,-9.121725379110138,-10.040293940245375,-3.7309852858956374,-0.1549928926794628
0,-6.22311888610923,-9.6520286344954,-9.431151314858834,-5.381525115501161,-0.14999312194786896
0,1.6168021255072467,2.627665514111396,1.9879895742312486,5.167932916018508,-0.14499335121627155
0,-0.9932788156337198,-5.972642915714925,-2.6828712471565077,1.0473888200059687,-0.1399935804846777
0,-8.033361693931765,-12.522953905983144,-15.303733752826718,-4.573157392228837,-0.13499380975308028
0,-1.5334464935467946,-5.943267438147995,-6.324597916065908,-1.5437057093864615,-0.12999403902148643
0,-2.7935331982765415,-6.773583492891393,-0.3354637093922048,-0.344256120017812,-0.12499426828988902
0,-5.413621791559987,-9.963902050111097,-13.566331104613006,-4.374808612477288,-0.11999449755829517
0,0.5962877434802487,-1.4842230889848433,-4.527200072918237,-0.9053631749294171,-0.11499472682670131
0,-1.1638045760106441,1.7554534119001257,0.02192941515443736,-6.515919795299204,-0.1099949560951039
0,-5.573898732698327,-2.6648725257317327,-4.028942610410842,-7.026478461168611,-0.10499518536351005
0,-3.8939947090278153,-2.6252008800425406,-6.379816119300875,-10.517039159597699,-0.09999541463191264
0,5.61590751284475,11.32446837086435,14.16930891904075,7.922398122982175,-0.09499564390031878
0,-3.584192049066733,-1.4558647512313476,1.0084325351503027,-5.858166599422674,-0.08999587316872137
0,-8.574293376685276,-8.236200224797791,-6.802445240756784,-7.088733312610612,-0.08499610243712752
0,-5.3043964516748385,1.143461971683835,5.016675621327007,-0.639302002118358,-0.07999633170553011
0,-3.5545012551822315,-0.8268781400230052,6.135795151387295,-4.849872653084191,-0.07499656097393625
0,-6.984607767800738,-2.7972205379501185,-6.275086620725215,-5.980445250260213,-0.06999679024233885
0,3.445284030336305,8.192434799941427,9.474030334630442,0.5789802219794205,-0.06499701951074499
0,3.8451741593628217,9.60208789554806,19.98314604679204,6.258403779548866,-0.05999724877914758
0,-3.964937360591395,0.28173877030436656,-0.15773945561889735,-6.872174561594276,-0.05499747804755373
0,-6.225050509443606,-5.058612554864148,-2.468626144884436,-12.832754785453261,-0.04999770731595632
0,5.024834733039946,6.041033940760391,16.74048600613303,1.726663124365773,-0.04499793658436246
0,2.004718387259056,2.470678277852962,12.579597024059158,3.2560791847928217,-0.039998165852765055
0,0.25460047355536575,-3.6196795230485495,3.808706934639673,-3.8445065870067245,-0.0349983951211712
0,4.344481012080132,8.859960558421337,19.22781576255833,6.214905826105403,-0.02999862438957379
0,5.844360022754525,8.599598542395182,22.716923531344957,9.604316441108304,-0.024998853657979936
0,1.8842375251688277,2.9192344485278703,12.726030263026969,4.803725274564803,-0.019999082926382528
0,5.9541135385103825,13.16886829581518,20.82513597787387,9.14313234238615,-0.014999312194788672
0,11.503988081513878,17.728500102454273,35.92424069429416,11.872537659741683,-0.009999541463191264
0,6.6838611722941765,13.238129885525439,25.943344428454647,6.441941240962717,-0.004999770731597408
0,7.643732828180157,14.627757660711545,28.482447193820036,9.691343099479248,0.0
0,13.10360306567417,25.377383442189224,50.721549000903394,18.48074324779266,0.0049997707315938555
0,14.683471900358176,21.29700724242286,43.540649856826526,20.51014169724613,0.009999541463191264
0,9.343339346694131,14.936629071903342,38.369749764713056,14.619538457644147,0.01499931219478512
0,14.933205417923404,29.376248939094086,49.21884872345346,16.13893353707868,0.019999082926382528
0,12.183070126071199,24.575866850374712,50.31794672766252,16.90832694199965,0.024998853657976383
0,8.662933481950542,16.175482809861354,38.517043767497896,13.06771867729537,0.02999862438957379
0,19.012795495182328,27.955096819402115,45.27613982863333,20.147108746313464,0.03499839512116765
0,27.19265617405481,35.36470887858077,59.96523489234297,24.606497150773876,0.039998165852765055
0,22.872515525075368,26.93431898439123,47.934328935250576,20.145883890517425,0.04499793658435891
0,27.06237355252025,31.79392713090686,47.093421928998424,24.775268963274634,0.049997707315952766
0,33.58223025818887,38.48353330917713,57.912513840242475,27.56465236454697,0.054997478047550175
0,30.352085641166926,35.663137507064704,45.101604630701125,21.0440340874912,0.05999724877914403
0,30.961939697587553,31.662739709026997,35.720694257222874,22.43341412288203,0.06499701951074144
0,40.43179242049244,40.25233989607185,52.98978267211924,28.502792459183695,0.0699967902423353
0,37.7516437996342,42.771938045707074,46.75886982337085,34.79216908245461,0.0749965609739327
0,31.23149382124037,26.151534131781162,21.747955654607182,15.291543976097293,0.07999633170552656
0,38.93134246798853,35.48112812455439,35.27704010549741,28.270917120868184,0.08499610243712397
0,38.22118971906954,33.44071999097737,31.166123112406105,19.190288495138994,0.08999587316871782
0,23.761035550186037,23.270309694851374,7.205204608792162,12.279658075122516,0.09499564390031523
0,29.720879933746748,24.209897197018854,2.1542845257959353,14.329025835162675,0.09999541463190909
0,24.250722839253353,17.399482455746277,-2.446637206716712,5.858391748130792,0.1049951853635065
0,19.270564233602638,8.389065427170777,-12.377560659188855,4.747755785787296,0.10999495609510035
0,10.860404081401501,-2.3013539341277225,-28.618485901594944,3.4671179191182704,0.11499472682669776
0,7.91024234546904,0.10822432560864681,-22.669413002575777,-0.9335218813723611,0.11999449755829161
0,5.470078987384676,-8.132199840041649,-29.280342028680227,-1.184163645428625,0.12499426828988902
0,-6.830086032034577,-22.002626477166956,-54.49127304381197,-10.854807402778942,0.12999403902148288
0,-4.250252752237973,-19.36305563089371,-49.36220610845134,-8.955453182787814,0.13499380975308028
0,-8.020421212454444,-16.053487344777785,-45.52314127875782,-10.346101014107859,0.13999358048467414
0,-22.290591451293505,-33.983921660484626,-67.14407860606526,-22.936750924401228,0.14499335121627155
0,-21.940763506250292,-35.1643586174462,-69.93501813644978,-23.417402939966983,0.1499931219478654
0,-16.57093741314916,-27.064798252323136,-58.355959910067426,-17.848057085280868,0.1549928926794628
0,-21.54111320588677,-31.495240598715313,-63.916903960797015,-12.588713382830372,0.15999266341105667
0,-27.951290916389897,-43.81568568713697,-77.0278503162485,-25.25937185328086,0.16499243414265408
0,-21.941470574446704,-31.476133544820243,-60.76879899760431,-17.800032515537065,0.16999220487424793
0,-26.731652207501938,-35.92658419547963,-66.90975001943416,-27.740695386563452,0.17499197560584534
0,-30.881835840548206,-39.917037659303276,-75.52070338973391,-26.581360481145104,0.1799917463374392
0,-26.072021495986164,-34.55749395295105,-61.97165910988991,-15.772027811723262,0.1849915170690366
0,-14.48220919358078,-23.267953089575133,-40.3926171747756,-8.39269738854905,0.18999128780063046
0,-18.032398950767547,-26.83841507914445,-43.62357757350489,-17.103369220172745,0.19499105853222787
0,-19.52259078307201,-20.798879928913273,-31.164540290495225,-9.91404331381521,0.19999082926382172
0,-14.452784704286001,-12.66934764379482,-15.735505306354872,-10.934719675464281,0.20499059999541913
0,-18.492980726496572,-22.949818226699097,-24.54647259871284,-14.625398309922627,0.209990370727013
0,-14.643178860138146,-21.890291678711257,-20.997442142873204,-11.966079220818887,0.2149901414586104
0,1.6066208858481617,2.9992320008718973,13.811586087756798,1.7132375893600758,0.21998991219020425
0,-7.613581496398346,1.2687528141083506,9.540612120836041,2.792552118928529,0.2249896829217981
0,-10.893786014076316,-9.421729236354132,2.0096359839351177,-4.098135633524379,0.22998945365339551
0,-12.003992673717661,-6.452214147585255,9.378657703961549,-5.388825669347875,0.23498922438498937
0,-0.8442014809832791,5.827298083762016,30.167677307020973,5.730482010276577,0.23998899511658678
0,-11.764412440691938,-3.643192538627699,12.146694817960796,-0.07021259569214053,0.24498876584818063
0,-3.6146255569642096,7.736313988973604,24.295710259842142,9.209090511597406,0.24998853657977804
0,-6.364840833270801,10.085817670074402,32.1647236537032,-2.8216086693146303,0.2549883073113719
0,-11.425058272433965,-4.19468149226612,21.633735018300136,-6.672310140148186,0.2599880780429693
0,-6.1052778765684,-4.475183495394078,15.732744369926088,-6.8630139025399455,0.26498784877456316
0,-4.2154996470203345,10.014311663252965,33.05175172256827,2.5862800422814547,0.26998761950616057
0,-3.0657235844743855,8.233803986147574,31.24075708792154,-1.5844283065358817,0.2749873902377544
0,-8.775949689115093,-3.936706524645387,14.449760475109839,0.8248610503032319,0.27998716096935183
0,-5.366177960628631,3.5327801324958874,22.158761890728393,3.8041481120872205,0.2849869317009457
0,0.6035916018465366,9.572263958931176,30.787761339155605,7.24343287796063,0.2899867024325431
0,-12.236641000339608,-7.9882550442475795,6.536758822628769,-4.607284653229796,0.29498647316413695
0,-8.736875765324179,-4.7987768761362855,1.9557543414619065,2.251995517098872,0.29998624389573436
0,-0.7971126905614629,7.350698464278351,19.944747894676546,0.5012733874404547,0.3049860146273282
0,1.9826482271150057,3.780170978119184,18.25373948027925,8.060548956213307,0.3099857853589256
0,1.4624069911308488,0.12964066631321108,7.362729094971349,2.5598222215788797,0.3149855560905195
0,3.3321636048560737,7.609107529450059,17.71171673400263,2.719093181299247,0.3199853268221169
0,9.091918071427239,15.618571567697407,25.220702391203098,10.93836183271094,0.32498509755371074
0,0.13167039358924537,-0.7319672194570335,7.539686058805229,2.5576281726577537,0.32998486828530815
0,4.931420573631638,10.027491166674553,19.648667727340907,7.856892197392035,0.334984639016902
0,6.17116861343988,8.60694672408355,26.887647385702373,10.14615390253661,0.3399844097484994
0,-0.6090854854858295,-0.6436005498880281,6.566625021032215,0.5654132830479538,0.34498418048009327
0,0.0806582780226055,-1.1641506584294226,5.71560061877178,4.234670333265427,0.3499839512116907
0,1.1103999049665272,7.2652963950070575,19.11457416309255,-1.3460749528820892,0.35498372194328454
0,-5.409860603672445,-4.285259393175992,4.643545637139861,3.8631774183133682,0.35998349267488194
0,-11.430123246750235,-10.765818026639089,-9.367484976874348,-13.32757255951067,0.3649832634064758
0,-4.12038802264926,1.3936204911976058,5.761482302784992,-6.678324892485478,0.3699830341380732
0,-3.0206549290905986,-5.3769438426339295,3.5404474578037646,-1.1890795861716192,0.37498280486966706
0,-8.420923963208683,-12.297511030658551,-14.060589530143375,-9.149836645499894,0.37998257560126447
0,-5.211195121621169,-5.108081074842488,-6.271628679213683,-3.320596074870959,0.3849823463328583
0,-1.9914684004000156,-2.1786539764426927,4.617329992952428,-3.731357878177893,0.3899821170644522
0,-4.341743795128822,-7.719229736097217,-9.94371353078739,-1.6521220588616294,0.3949818877960496
0,-3.0020213010159673,-5.2198083539455284,-13.844759267179356,-3.292888620029965,0.39998165852764345
0,-1.2823009129503506,-4.7303898296051115,-7.545807232297647,-5.623657564504745,0.40498142925924085
0,-1.032582625555552,-8.850974162132335,-12.006857441239811,-4.134428894762519,0.4099811999908347
0,-2.482866433268766,-7.611561349974843,-19.397909908019567,-4.095202612858481,0.4149809707224321
0,2.6868476696042967,2.21784860906188,-2.8289646454543993,6.814021279518392,0.419980741454026
0,2.2765596888020996,-1.0927442823527316,-4.430021665219058,0.5032427807946059,0.4249805121856234
0,0.746269629971948,-5.443340021331106,-13.681080978148204,-1.1075381107328084,0.42998028291721724
0,3.2459774985896193,2.876061395161489,-4.29214259436843,3.85167860307727,0.43498005364881465
0,8.345683299901928,8.885459970247698,9.00679347666819,5.460892920225714,0.4399798243804085
0,3.7153870387794745,-2.2351442931184886,-8.19427277414292,4.110104838438453,0.4449795951120059
0,5.845088719578003,1.0742486077033464,-1.345341355839825,0.24931435505349697,0.44997936584359977
0,8.164788346102753,9.143638675119494,13.433587722596553,6.598521467055831,0.4549791365751972
0,2.024485921592873,8.43302591122345,3.9025144520282464,2.5477261711119064,0.45997890730679103
0,4.9341814487450435,2.3124103175425423,-5.498561177152389,9.006928463499086,0.46497867803838844
0,7.793874929779761,8.351791894959819,12.540360825043173,7.196128339976414,0.4699784487699823
0,3.073566366430209,4.271170643783375,2.50928044830669,0.9553257956905963,0.4749782195015797
0,-7.906744240014861,-7.329453436150806,-14.621802317989989,-0.995479174726625,0.47997799023317356
0,-2.6970568883895085,-2.310080345187597,-5.6028874844484475,-6.166286576846536,0.48497776096477097
0,-0.46737157729268225,1.219289916489743,1.65602493885274,5.212903583847079,0.4899775316963648
0,-1.157688305032856,-6.041342651058105,-9.935065057599404,-8.637908697960135,0.49497730242796223
0,-4.748007069730265,-5.5319780475332285,-17.75615748280276,-8.248723427356175,0.4999770731595561
0,0.05167213068006482,-4.732616272269155,-2.34725234495186,2.6704593909817436,0.5049768438911535
0,-5.878650701497574,-9.663257324083673,-18.098349651193473,2.3196397527771127,0.5099766146227473
0,-7.488975563649716,-9.923901201154333,-25.179449407501643,-4.391182346120357,0.5149763853543448
0,-7.889302452689923,-9.60454790085659,-20.980551618283172,-9.732006909794341,0.5199761560859386
0,-4.969631364892975,-10.525197419641438,-17.51165628595247,-11.952833941931152,0.524975926817536
0,-12.969962295827282,-20.96584975292445,-33.04276341080664,-8.063663445428496,0.5299756975491299
0,-13.550295240243727,-18.046504894822053,-35.19387299081994,-18.20449542217657,0.5349754682807273
0,-12.450630191844557,-10.21716283786837,-25.28498502119441,-7.705329872930533,0.5399752390123211
0,-13.60096714310489,-16.227823573015957,-43.38609949405542,-9.736166797264433,0.5449750097439185
0,-11.471306085235273,-16.94848708977868,-39.25721639825083,-16.457006193641163,0.5499747804755124
0,-5.831647008248561,-10.059153376245096,-20.788335719131222,-6.617848059428432,0.5549745512071063
0,-11.801989901117901,-9.299822419125562,-25.02945743874397,-6.048692390910823,0.5599743219387037
0,-8.552334751901647,-10.06049420396386,-27.030581536382897,-8.289539183473355,0.5649740926702975
0,4.30731845216668,10.76883128456368,2.038292010963623,8.119611568133717,0.5699738634018949
0,0.7069697243798281,5.738154062138617,6.1971632279432916,3.1387598694336036,0.5749736341334888
0,-1.433380921855144,2.057474144198555,2.6160321397731185,-2.0920942741720148,0.5799734048650862
0,6.756266526783751,14.36679154563296,21.224898771365822,9.57704914244926,0.58497317559668
0,6.2759120834248385,21.306106280571225,32.30376314666164,5.326190124114744,0.5899729463282775
0,3.1855557608080955,11.315418361945095,24.892625287785823,4.365328675167391,0.5949727170598713
0,9.82519757115075,14.394727801182587,28.431485214371577,5.214464799397234,0.5999724877914687
0,10.834837526054795,22.37403460820517,45.14034294325966,8.733598500066426,0.6049722585230626
0,8.164475636333794,11.823338791386485,40.419198488104094,5.112729779864357,0.60997202925466
0,4.244111911922383,6.482640357535948,29.038051858905007,5.3718586408505,0.6149717999862538
0,7.54374636198372,18.21193931212999,42.806903061945924,21.5709850843909,0.6199715707178513
0,1.8433789950664483,6.581235659500425,32.2257520999519,14.370109110865053,0.6249713414494451
0,4.943009819215548,4.130529402898539,21.184598972217337,9.729230719293334,0.6299711121810425
0,4.372638842052171,8.519820544699842,24.80344367497335,6.958349907333928,0.6349708829126364
0,3.4422660707983943,8.809109086596688,30.67228620184107,2.9474666716208167,0.6399706536442338
0,2.4818915122864382,2.3183950296009117,14.981126543985342,6.396581008098857,0.6449704243758276
0,6.63151517298507,1.6476783741034702,15.389964690259102,10.845692912154613,0.649970195107425
0,12.991137058921566,10.916959120037625,25.468800627540265,10.824802378496882,0.6549699658390189
0,-3.6192428244949246,-6.943762733057196,-1.3223656590191932,-6.186090598961364,0.6599697365706163
0,-1.5796244724085526,-6.834487185883894,-11.183534185563328,-5.786986026819785,0.6649695073022102
0,-1.610007880139797,-4.985214238970836,0.3152950313686719,-4.687883911612192,0.6699692780338076
0,-7.090393042859926,-9.095943892317278,-9.475878024426777,-4.148784259436915,0.6749690487654014
0,-12.040779955374896,-14.276676145223291,-22.417053368517124,-6.249687075903288,0.6799688194969988
0,-8.421168611838604,-12.167410996071839,-19.12823101540093,-10.960592366100904,0.6849685902285927
0,-1.2915590055693706,0.15185155782278992,-1.8294109780520125,-9.711500134435324,0.6899683609601901
0,-8.621951129157758,-17.04888847990618,-21.440593267966904,-16.162410384399422,0.694968131691784
0,-9.212344974602722,-12.409631104756853,-23.651777895306765,-17.353323118327157,0.6999679024233814
0,-3.1627405332619527,-6.620376311191953,-12.17296486863855,-10.844238337170204,0.7049676731549752
0,-5.28313779582943,-11.001124092578278,-16.52415419473494,-6.895156040487645,0.7099674438865726
0,-5.84353675244282,-14.251874441280247,-26.655345878652746,-10.69607622668832,0.7149672146181665
0,-0.5239373927679459,-0.32262734867452453,-7.876539923707676,2.713001106684425,0.7199669853497603
0,-3.614339706074739,-6.833382805259549,-14.107736331487555,-5.337924037321644,0.7249667560813577
0,-3.934743681327505,-12.274140800866718,-20.228935102076026,0.24114834467305735,0.7299665268129516
0,3.8548506927623896,1.5950986753058616,-7.070136234151647,8.640218256183765,0.734966297544549
0,-6.245556572337525,-7.3656643653170875,-15.77133972499438,-10.540714299315987,0.7399660682761429
0,-8.71596546497762,-16.486429910748853,-28.00254557049281,-17.311649318279393,0.7449658390077403
0,-6.066375973100518,-13.14719794821637,-25.17375376482893,-15.872586796468477,0.7499656097393341
0,2.653211915929264,-4.3279684638280385,-9.144964300065999,-6.13352672838477,0.7549653804709315
0,-6.057201784808183,-16.058741442562614,-24.336177166198944,-11.334469107245877,0.7599651512025254
0,-6.8576170619400605,-19.009516868313348,-33.36739235130926,-10.095413925216038,0.7649649219341228
0,5.88196609823151,-4.230294723712874,-10.958609841334306,4.7736388264173115,0.7699646926657167
0,-3.9084522903333676,-10.74107499011349,-21.319829619947523,-9.897310843006991,0.7749644633973141
0,-15.248872213497359,-27.42185764772388,-35.941051668723354,-18.35826292365697,0.7799642341289079
0,-5.619293656676496,-11.322642675404728,-21.72227596697995,-1.6992174049364794,0.7849640048605053
0,-3.449716604512486,-3.9534300504280675,-11.063502491540344,-3.3001742753052024,0.7899637755920992
0,-5.4301410409295805,-12.06421974874946,-18.194731217048847,-2.8911335225556742,0.7949635463236966
0,-2.7805669493471137,-10.505011745379454,-18.505962116442028,-9.962095134075463,0.7999633170552904
0,7.049005687156794,-1.1458060144599802,3.1628048388411667,-4.833059096783936,0.8049630877868879
0,-0.6214231144088571,-5.43660252937048,-5.318430321496397,-1.2440253970207007,0.8099628585184817
0,-0.8718533371714673,-3.9574012629626045,-7.319667567131834,1.3250059793334974,0.8149626292500791
0,2.737715035614168,-0.08820218770081945,7.029093132623071,2.98403504657139,0.819962399981673
0,0.12728202062980798,-0.08900527576283879,5.927851808626957,1.5930618189145096,0.8249621707132704
0,0.08684763447869948,0.6501895008043914,-3.9233915084282116,-1.4179136895792794,0.8299619414448642
0,7.8364118936481075,7.4493821699224245,12.29536321182716,6.00110853500681,0.8349617121764616
0,2.835974814394429,13.138572759230193,16.25411599932036,8.270128506388016,0.8399614829080555
0,-1.8444635873730875,5.987761295722897,5.4928668831598095,0.43914623788096296,0.8449612536396529
0,5.8650967039691135,6.8169478055431,11.111615891383202,4.198161742326586,0.8499610243712503
0,7.484655703806844,16.33613231398382,31.770363050892936,1.4371750322007686,0.8549607951028442
0,0.5442134271537,4.585314845437608,14.079108387093306,1.8361861197188654,0.859960565834438
0,-0.14623011139400133,-1.195504576606578,7.747851923534139,0.2451950168926038,0.8649603365660319
0,3.033325102507109,12.423674070686808,21.776593682088286,2.254201735586383,0.8699601072976328
0,3.7928790830500745,8.622850809630867,15.285333683185959,3.633206287525158,0.8749598780292267
0,2.2024318442116155,1.1820256618688099,5.774071945780156,2.262208684232086,0.8799596487608206
0,4.9719833996731815,7.351198648360242,11.89280848747499,8.241208936936056,0.8849594194924144
0,4.801533762774294,5.870369789521052,13.44154332478739,9.43020705642304,0.8899591902240083
0,-0.7689170535159271,-0.3104608947236952,2.5902764732231196,10.70920305280575,0.8949589609556092
0,0.4506309634777468,-2.641293384825976,-3.0009920525727005,-1.3818030646142656,0.8999587316872031
0,5.0501778262697234,7.0178723386075585,13.307737761542844,1.7171887128166907,0.9049585024187969
0,6.939723547182112,5.747036294832566,7.316465929308675,7.286178393398367,0.9099582731503908
0,2.5892681381615725,-0.6138014972216639,-4.4548075361160695,1.4251659851501244,0.9149580438819918
0,4.568811610684525,4.425358980997547,1.2239173779556802,0.08415149575659431,0.9199578146135856
0,0.5183539758188793,-1.3654822522170087,-0.18735931591416055,11.483134932590522,0.9249575853451795
0,-1.0421047556460268,-6.356325178682154,-6.778637605098521,1.1621163026556633,0.9299573560767733
0,2.3674354269440485,0.8428302198807129,-6.179917476763583,-1.4589043874936727,0.9349571268083743
0,8.826974534129688,2.7719839619514124,6.738801082278762,0.6000728684060137,0.9399568975399681
0,-1.90348742381608,-4.538863933897937,-10.662481914490684,-3.5609519234196845,0.944956668271562
0,0.8860495630467111,2.9802865509141347,-2.823766453368615,3.6480212433259798,0.9499564390031559
0,-0.15441449552201358,6.59943543494956,4.184947479654556,-2.543007625009307,0.9549562097347568
0,-2.1248795897858637,-0.8514172634005122,-3.806340101168577,-5.414038522033168,0.9599559804663507
0,-6.845345709918976,-12.86227152593188,-14.187629181425507,-3.5550714411740176,0.9649557511979445
0,1.7841871541360583,6.11687266568783,3.1710802536768075,-1.1461063755292127,0.9699555219295384
0,-4.07628098727908,-1.1639846699004297,-3.8602117805369143,-4.747143317862055,0.9749552926611393
0,-7.566750123563029,-8.984843513877674,-17.521505268288397,-5.248182260626989,0.9799550633927332
0,-5.257220243750846,-3.805703847211154,-6.832800193180913,-8.079223195878434,0.984954834124327
0,-1.497691336375838,-1.7065656504456785,0.6559034620594217,-6.620266115119576,0.9899546048559209
0,-5.978163389497272,-3.587428903697761,-11.895394284537344,-4.0613110092156255,0.9949543755875219
0,0.6713636091958513,-2.4982935867716876,-5.596693414368224,-7.672357868415847,0.9999541463191157
0,-0.3191103277128759,-0.5991596792113587,2.6720060917499087,-1.2034066824165413,1.0049539170507096
0,-0.8195851874970217,-2.350027160342895,-0.6292957465709967,-0.7244574404607129,1.0099536877823034
0,-3.48006095735732,-4.5108960093031065,-9.120598909536888,-3.4055101314976004,1.0149534585139044
0,1.1594623756168807,3.338233794976386,6.788096622818925,-2.576564744275278,1.0199532292454982
0,-0.26101517554151854,-3.002637726273478,3.336790870609833,1.9223787326585917,1.024952999977092
0,-6.281493597707467,-11.783510551674505,-14.894516146063452,-15.828679689012684,1.029952770708686
0,-3.0319728775821932,-6.034384659469185,-2.9458244069511976,-8.549739997155001,1.034952541440287
0,5.15754699840439,7.824739972682693,8.932866108635164,2.1991978211076453,1.0399523121718808
0,-7.512933955992189,-8.716136632490507,-8.758444578330012,-2.471866220701183,1.0449520829034746
0,-3.8534157268863525,-1.437014452106572,-1.9497564468110724,-2.862932108755989,1.0499518536350685
0,4.056101699843946,8.882106536862153,14.30893052430831,10.216000170864886,1.0549516243666694
0,-1.3743816614772915,3.1812263574248787,0.6376163560222747,7.804930631938319,1.0599513950982633
0,-0.9248657964955718,-3.8796549676994987,-4.803698931083246,-5.036140712206739,1.0649511658298572
0,-1.2253506908517053,3.01946258396028,8.714984683281777,-2.7172138486184654,1.069950936561451
0,2.3241636698721595,4.958579034781971,7.913667219219791,5.271711235620561,1.0749507072930449
0,1.5336773001031565,-3.1423055929936625,-6.037651303528042,-2.199365446512708,1.0799504780246458
0,-1.1268097858112518,0.23680872271839193,3.721029134431892,1.5495561179070467,1.0849502487562397
0,-1.8772975735900574,2.8559220039556075,4.549708552349516,0.9084759417302799,1.0899500194878335
0,-2.257786048902906,-7.584965727230285,-4.181613030647521,-4.062605962224947,1.0949497902194274
0,-1.3282751972699722,3.2141455512866557,-0.532935595546635,-4.723689581070479,1.0999495609510284
0,5.521234995922702,11.35325586169097,12.735740876619529,6.115225098276499,1.1049493316826222
0,5.24074454523724,2.962365225922724,6.704416404560967,0.5341380890125331,1.109949102414216
0,-1.9397465350352487,-5.708526334562261,-4.4169089935754915,-8.416950595711095,1.11494887314581
0,3.6697617691031956,5.970581201390242,11.061764699845414,2.5619590573064506,1.1199486438774109
0,5.639269471436439,9.769687854796901,13.32043750202898,7.400867061415944,1.1249484146090047
0,1.778776585481542,3.568793646317479,-2.8508905704638465,-1.4702265700951491,1.1299481853405986
0,16.40828312432882,17.617898595950237,17.767780498160125,4.438678175788048,1.1349479560721925
0,21.047789100316184,21.33700272272975,24.80645072282268,17.827581311721637,1.1399477268037934
0,20.287294524468475,14.646106044291924,9.205120117124812,13.526482849673798,1.1449474975353873
0,22.566799405999873,18.54520857657284,16.763788693019887,13.205382800452586,1.1499472682669811
0,27.686303752052783,31.594310333702886,30.322456460819808,22.22428117345387,1.154947038998575
0,28.19580756747737,28.753411327703894,21.25112342898118,23.533177976468806,1.159946809730176
0,29.94531085457035,29.78251156802135,21.229789603741924,17.97207321539019,1.1649465804617698
0,42.51481361279886,41.74161106118869,41.46845498895377,24.250966894044385,1.1699463511933637
0,37.68431583841623,34.000709810535284,33.90711958577451,25.399859014147534,1.1749461219249575
0,30.853817524116316,26.089807815978727,17.67578339226744,12.918749575251896,1.1799458926565585
0,32.04331865905239,31.868905074167387,26.514446403526367,14.957638574876187,1.1849456633881523
0,35.59281922907709,32.63800157873964,32.063108612080285,17.91652600882779,1.1899454341197462
0,33.09231921682338,28.527097320358894,23.521770007928815,13.915411871377335,1.19494520485134
0,29.301818601671734,27.78619228669769,18.17043057846363,12.474296155283403,1.199944975582941
0,26.861317359855075,31.945286462526393,30.889090308644334,20.0131788518431,1.2049447463145349
0,18.420815464746777,24.17437982978194,16.767749181144545,13.302059950881736,1.2099445170461287
0,12.460312887299713,13.983472367710126,8.016407176466707,10.130939440719288,1.2149442877777226
0,11.72980959658649,16.252564053287177,18.31506427333116,7.769817308332653,1.2199440585093235
0,9.059305560271643,16.941654861696296,16.13372044902482,6.918693539651412,1.2249438292409174
0,-3.861199255021573,0.3207447666248774,-3.827624320501369,5.54756811979149,1.2299435999725112
0,-6.101704883231049,-2.3101662593332697,-0.5189700602841396,-7.28355896672557,1.234943370704105
0,-5.502211358263682,-2.2610782440375217,2.3396832042735003,-1.0246877356132027,1.239943141435699
0,-16.792718713528313,-13.091991215238998,-14.341664552187195,-11.51581820240076,1.2449429121673
0,-15.903226981554852,-10.982905200166375,-13.723013354641623,-16.066950382058405,1.2499426828988938
0,-10.583736193637034,-3.6938202252108407,-4.544363227233342,-8.098084288625778,1.2549424536304876
0,-15.004246379696138,-14.904736315849323,-18.815714193044304,-8.549219935019627,1.2599422243620815
0,-18.634757568298514,-18.53565349660061,-20.067066273988672,-9.420357333134023,1.2649419950936824
0,-15.765269786558054,-10.106571790769472,-5.458419490577099,-11.251496493957772,1.2699417658252763
0,-16.485783059993683,-14.227491220265374,-8.73977386191528,-5.15263742757278,1.2749415365568701
0,-18.21629741249128,-23.528411805596765,-21.90112940596009,-12.5337801431666,1.279941307288464
0,-16.84681286629052,-16.22933356572158,-14.242486139473998,-11.024924649034936,1.284941078020065
0,-11.217329441990094,-10.150256517873348,-6.703844077785735,-2.2360709525395945,1.2899408487516588
0,-19.847847158635055,-21.541180677654786,-20.665203234828187,-20.227219060125442,1.2949406194832527
0,-11.528366033786169,-13.592106059152071,-12.046563623232583,-9.918368977257938,1.2999403902148465
0,-9.498886083564715,-5.18303267495599,0.5620747456646361,0.020479291699445012,1.3049401609464475
0,-15.00940732279678,-15.933960536351172,-10.869288138436405,-12.720674256671474,1.3099399316780413
0,-9.169929765138281,-10.034889653521734,-13.970652285087164,-4.6618296250867015,1.3149397024096352
0,-5.420453423139205,-1.3958200356078356,1.277982296950022,-0.3629868156219318,1.319939473141229
0,-8.260978308408951,-4.276751690903535,-0.2533844003451982,2.9458541701178675,1.32493924387283
0,-11.321504431773956,-15.207684627113716,-20.20475238450426,-0.13530666933883512,1.3299390146044239
0,-10.332031803232612,-9.108618851266147,-12.336121662428257,-10.816469335464896,1.3349387853360177
0,-8.162560431834246,-9.939554369438223,-3.567492239959729,-6.577633829494226,1.3399385560676116
0,-14.753090325636196,-21.21049118660692,-19.408864121792003,-14.318800152032942,1.3449383267992125
0,-12.003621491644756,-14.20142930646885,-13.950237311507019,-15.339968302740584,1.3499380975308064
0,-6.3241539357347305,-2.96236873128438,0.3983881885214464,-2.5111382801387925,1.3549378682624003
0,-8.154687662729998,-11.333309462077017,-9.762987623026639,-5.08231008170797,1.3599376389939941
0,-14.835222676552034,-15.904251498914197,-14.144364746704106,-4.023483704227846,1.364937409725595
0,-9.325758980179653,-5.6851948408689035,-2.335743182273302,-7.734659143992797,1.369937180457189
0,-10.566296575521122,-5.376139485967895,-5.837122928652103,-9.655836396764096,1.3749369511887828
0,-15.046835463384147,-16.197085431344554,-17.488503984020607,-6.9770154576139465,1.3799367219203766
0,-9.497375643448864,-4.838032673276453,-8.08988634572756,-1.0281963208727718,1.3849364926519776
0,-6.49791711426096,-1.778981207155611,1.618729989860707,-1.1793789803017902,1.3899362633835715
0,-11.128459873362159,-7.369931027681828,-11.352654972835605,-10.300563429304386,1.3949360341151653
0,-1.9590039174512461,-3.630882129071888,-2.2340412288618188,-5.811749660887228,1.3999358048467592
0,-4.16954924253125,2.1281654948747533,5.414571227182765,-0.8329376674991533,1.404935575578353
0,-5.600095844087402,-8.622788149317573,-7.306817599040432,-11.124127441030558,1.409935346309954
0,-7.990643717152173,-12.853743054780866,-17.298207701660925,-9.205318972810316,1.4149351170415478
0,0.388807143752101,-1.254699214041195,1.6004009257518974,3.813487746495652,1.4199348877731417
0,-5.621743255418329,-4.5456566188998355,-1.3409917096252957,-0.9177072732535848,1.4249346585047356
0,-13.352294908274743,-11.836615260563937,-12.34238560010076,-6.388904021985115,1.4299344292363365
0,-1.3628478078503112,-0.6575751296735464,2.586219262417404,-1.0401024894674296,1.4349341999679304
0,-4.393401946495947,-2.1385362162889905,6.004822886395257,0.9886973347827728,1.4399339706995242
0,3.9260426839295244,-1.0794985100720096,-2.0765747196203748,-2.602504538560266,1.444933741431118
0,2.035486091734435,1.2595379995005427,-3.8779735472157295,3.046291901250727,1.449933512162719
0,-2.7050717148341605,-6.32142667694491,2.280626412017387,-10.56491333496966,1.454933282894313
0,-4.9356307275766,-13.942392528549895,-6.030774833375979,-2.816120236186237,1.4599330536259068
0,-6.946190938105214,-9.883359543849298,-12.48217727460416,-9.777328790908129,1.4649328243575006
0,3.1532476623512573,-2.934327710463992,0.7164190976125129,-4.168538987039449,1.4699325950891016
0,-3.8073149170992,-6.32529701516575,-5.764985706839738,-6.219750811854828,1.4749323658206954
0,-13.407878667090074,-14.60626744405074,-14.236391677533097,-13.850964251985598,1.4799321365522893
0,-4.788443577794688,-1.517238982487393,-3.457798803402843,-4.3521792933110515,1.4849319072838831
0,-1.959009638694506,2.0717883848855663,6.1807929273183335,3.296604079058251,1.489931678015484
0,-8.439576838647373,-9.959185326110765,-8.450616473193243,-7.934614119486113,1.494931448747078
0,-5.300145166003483,-4.23016009933684,-9.342026992553386,-4.765833873260396,1.4999312194786718
0,-3.1907146085792926,-3.0311359182090034,1.7165613820182704,-1.797055166217803,1.5049309902102657
0,-2.3612851536883563,-4.832112765655937,-3.8648513362067223,-4.57827798189268,1.5099307609418666
0,-7.241856788245384,-9.563090624156146,-9.646265133587734,-8.829502303424096,1.5149305316734605
0,1.467570501198355,3.0659305243022885,6.712320003866154,-3.4707281134749572,1.5199303024050543
0,-0.2530032716011275,0.7149506981375857,3.3509040903980374,-5.27195539414663,1.5249300731366482
0,-2.193578092730993,-5.356030084066422,-7.210512859773457,0.06681587295724745,1.5299298438682492
0,6.155846051755017,7.472988196316448,5.818069167483364,16.96558570645893,1.534929614599843
0,2.595269175714637,8.39200555783885,6.966650186257,8.884354124660474,1.5399293853314369
0,-3.3653087072067693,-3.6689779812754812,-6.894769789549083,10.64312114499358,1.5449291560630307
0,-0.19588758351212554,-0.8299624031643027,-4.966190746185496,-7.858113216059548,1.5499289267946317
0,2.743532560305923,3.899052309915218,5.402387330231933,-6.479348942494271,1.5549286975262255
0,-10.827048262172774,-13.091933824240733,-11.739035546165825,-10.690586018109295,1.5599284682578194
0,-4.037630037155131,-9.842920787557084,-9.80045936093663,-1.2818244260719676,1.5649282389894132
0,-3.1982127504004776,-0.9039085613253032,1.8481159009165165,1.8669358510664074,1.569928009721007
0,-3.288796387175583,-3.0448971261415947,0.21669025495525607,7.865694831007701,1.574927780452608
0,-7.399380932341233,-9.85588646211561,-12.714736282943996,-10.235547468647267,1.579927551184202
0,3.570033629623052,0.8831234510707748,4.153836303386283,-2.7567910303566783,1.5849273219157958
0,-0.18055268547838332,1.8021326341428665,4.052408030435644,-2.2880358363265776,1.5899270926473896
0,-2.49113986175176,-1.8088588919806012,-5.4090210852154765,-4.859281868375757,1.5949268633789906
0,-4.391727883251161,-5.02985110633349,-5.720451026991864,-9.500529107933746,1.5999266341105844
0,2.267683266135982,2.6291560121735698,9.968118221833885,3.6182224640292695,1.6049264048421783
0,3.7370936026666004,0.458162484779977,1.5766866780528788,5.956972866898003,1.6099261755737722
0,-0.11349685745346016,-1.2528316672409527,-3.7247456417514058,1.1457221200339296,1.6149259463053731
0,3.6659119017969832,5.636173577330162,9.583821278771353,2.1944702425094174,1.619925717036967
0,3.585319896227655,3.6551782395717485,4.082387455750219,-1.446782746856819,1.6249254877685608
0,-4.045272858568625,-4.495817659677543,-6.319047095015673,-1.688036829344811,1.6299252585001547
0,-0.7758663471151978,1.3231859002592503,2.129517642053938,1.8207080137877734,1.6349250292317556
0,4.683539446093115,10.142188940006003,11.348081682491376,3.0194518013042786,1.6399247999633495
0,6.3729445365136055,2.951191479960542,0.39664504160143044,10.708194551812415,1.6449245706949434
0,4.692348939292382,0.930193540067751,1.7152077342409213,1.8769362835035799,1.6499243414265372
0,-1.078247330874457,6.71919513984629,8.40376977486992,-3.6043229859303487,1.6549241121581382
0,-1.1788442596124915,2.9581962984653876,1.9823311775903507,-0.7255832390532179,1.659923882889732
0,-0.6794418326279844,-2.092802965250914,-2.929108043877442,4.263155541583847,1.6649236536213259
0,2.9199599644121434,11.776197367223206,11.419452123901186,16.091893373330585,1.6699234243529197
0,-4.06063885414515,5.585197314056367,3.1580116940710923,-1.209369726963748,1.6749231950845207
0,-9.621238273878468,-5.7758031070808755,-10.213429320595424,-4.100633743082855,1.6799229658161146
0,4.228161719923335,3.7231961211218847,4.085129092522146,-0.5818986590804756,1.6849227365477084
0,6.727561142260372,9.90219501582747,11.053686946104202,3.7768355410618737,1.6899225072793023
0,1.30696000806535,-1.4888064060627095,1.102244252635472,6.1555688733618865,1.6949222780109032
0,-0.783641668046212,2.270191871957886,-2.7691989758502755,0.6943013535842186,1.699922048742497
0,5.915756128286924,7.299189866086678,9.73935727235444,8.033032997114404,1.704921819474091
0,1.7151534112274245,2.618187592220435,0.2579130087254635,-2.5582361810403,1.7099215902056848
0,-1.4154498053001434,-5.44281493408745,-9.303531755506095,-7.659506166111506,1.7149213609372858
0,3.4439464924402,7.116182302518222,8.755022990834439,-0.20077694324943152,1.7199211316688796
0,0.03334231807439836,0.725179317305805,-0.6964227410130104,-1.1020484972996696,1.7249209024004735
0,-4.677262314845628,-10.365823874554431,-10.177868939824396,-7.213320812827443,1.7299206731320673
0,-0.8078673927258515,-1.2068272577990355,0.8906844057356931,-7.244593874086573,1.7349204438636612
0,-3.188472901783903,3.6721691831601957,3.209237307296778,-3.485867664841659,1.7399202145952621
0,-6.499078827977099,-8.34883453583507,-10.082210223308747,-1.2471421683177553,1.744919985326856
0,-1.519685156930601,-1.799838398770592,-8.703658174026915,4.021582632613621,1.7499197560584498
0,3.6597081260652997,6.259157610596626,6.474893467653403,6.510306755117873,1.7549195267900437
0,-4.390898964109102,-5.161846491364872,-5.006555285339865,-4.780969783864174,1.7599192975216447
0,-8.201506412473728,-13.172850688214455,-17.998004419810563,-9.982246967542821,1.7649190682532385
0,1.6878857962217206,6.796145036814847,5.900546077918162,2.126475221093424,1.7699188389848324
0,0.8372776775651483,-1.6848592990963864,3.0490962221006876,2.145196799432749,1.7749186097164262
0,-3.2833307526907487,-8.715863678569487,-10.65235397276464,-4.916082214964588,1.7799183804480272
0,0.3660605212624548,3.2431319159429615,1.796195507923413,-2.5573618044723507,1.784918151179621
0,0.4554515153108165,-1.237872497765116,1.5747446789917539,0.4213580487098243,1.789917921911215
0,-2.1551577545959493,-7.10887690172229,-4.076706444571043,-4.599922637399966,1.7949176926428088
0,3.7742327275156553,5.770118722200169,0.5918421522828832,9.828796155345449,1.7999174633744097
0,2.9036229775749405,6.039114392223877,13.050390484607117,13.097514444947487,1.8049172341060036
0,-0.4969869886445175,3.138110126373947,-1.7610614327837422,7.046232248796076,1.8099170048375974
0,0.5724028444545146,0.5871059422778115,-5.752513585463452,2.0349495834074114,1.8149167755691913
0,3.501792492358536,4.906101857221928,4.356034040850641,0.8236664646069689,1.8199165463007922
0,3.6611819704199853,5.055097888207807,6.514581460469075,6.932382907832201,1.824916317032386
0,4.190571293737891,-0.8059059480938053,-4.446871312437526,2.43109892821452,1.82991608776398
0,1.59996047707682,4.043090364675023,4.801675736071493,-0.330185459457561,1.8349158584955738
0,1.9193495348872731,4.252086842624497,9.470222619739468,5.368529759317078,1.8399156292271748
0,-8.561261518557664,-12.468916498321706,-11.40123064795823,-9.302755401123758,1.8449153999587686
0,-2.401872668896582,-2.589919642169418,-0.40268405370190385,-4.294040926392526,1.8499151706903625
0,5.067516098516206,8.189077427416132,11.715862415923194,2.164673198200887,1.8549149414219563
0,-3.283095201492885,-6.43192527301825,-6.575591225678772,-6.936613012313273,1.8599147121535573
0,-9.343706554034856,-13.392927726847724,-12.817044965214137,-11.017899542586571,1.8649144828851512
0,1.2156820560103831,1.796070082919103,1.5915012108704678,-7.50918637672972,1.869914253616745
0,0.17507064412294826,1.3250681738177357,-1.839952683342174,-1.3304734981043445,1.8749140243483389
0,-6.275540773980386,-7.685933436301994,-12.501406633354273,-14.981760889363484,1.8799137950799398
0,4.3538478175648505,5.943065270550014,3.4971393757215976,5.196951467471551,1.8849135658115337
0,1.7232364347237055,7.052064312413865,7.335685359134734,0.9956635908720339,1.8899133365431275
0,-5.007374906557133,-7.148936292836688,-8.225768667806154,-3.075624500512965,1.8949131072747214
0,-4.16798619031472,-1.8699365274977218,-4.907222689839194,3.8930872119449584,1.8999128780063153
0,0.211402599628721,2.819063626216093,7.041323308474603,-1.4182012531553891,1.9049126487379162
0,-3.9592085202663725,-7.791935813731568,-6.0201306572256215,-7.149489877210603,1.90991241946951
0,-7.259819533274952,-10.852934829135172,-12.31158457116679,0.14922135853172724,1.914912190201104
0,-0.9804304223241405,3.046066598683968,3.116961582783265,4.637932473064052,1.9199119609326978
0,-2.181041169943491,-0.9349315110949787,-1.0244921787594372,4.656643485414828,1.9249117316642987
0,-4.821651758343538,-8.265929139019224,-12.705945838854024,1.0653544143631954,1.9299115023958926
0,-0.3022621694678058,-3.186926265389239,3.8426006197629423,-6.065934721584778,1.9349112731274865
0,2.4571276149678996,5.81207712984283,8.471147214679775,-0.007223903955752009,1.9399110438590803
0,0.19651761332840412,-2.6989189330767607,-4.1903060365206155,4.611486885863004,1.9449108145906813
0,2.2559078439069657,-0.20991443391924436,-4.911759116449091,-1.669802333476476,1.9499105853222751
0,4.755298324847762,5.819090647490343,9.546787992268396,8.098908456537881,1.954910356053869
0,3.4346890740561844,5.258096331191319,3.825335306979965,2.607619274153808,1.9599101267854628
0,0.464080109121233,-0.842897363091082,-5.9361171552268726,2.3863301372577257,1.9649098975170638
0,7.103471447322498,9.356109583999547,12.732430622460148,9.085041063340316,1.9699096682486577
0,5.4928631056034,4.585117191431116,6.770978656567535,5.393752069438302,1.9749094389802515
0,-1.3277448995099443,-4.275874522267241,-7.220473036842954,-2.837536827931673,1.9799092097118454
0,11.911647448092035,8.933134461093031,14.418075557857263,9.911174387323111,1.9849089804434463
0,14.441040164012266,15.992144159373197,19.456624455848463,15.969885730873708,1.9899087511750402
1,1.7104332630555108,-2.748845410188286,-0.9148263285492957,1.5685972176669516,1.994908521906634
0,12.999826759096141,11.890165768865936,10.993723217921508,11.527308861733918,1.999908292638228
0,19.029220665089397,22.06917771222585,28.012273107551923,16.586020676217355,2.004908063369829
0,13.568614992840146,9.588190434520833,12.09082335137945,10.574732673235252,2.0099078341014227
0,11.498009752730757,10.707203949002723,8.089373958812589,8.323444863701308,2.0149076048330166
0,18.467404953712947,21.006218267574646,19.26792493775468,21.162157257337284,2.0199073755646104
0,11.216800603353926,11.875233400796784,15.166476294787095,10.990869862620196,2.0249071462962114
0,11.096196707843298,2.7842493578368237,5.025028035116804,16.37958268661953,2.0299069170278052
0,9.895593272110567,9.01326614672924,8.823580162702257,6.778295734997156,2.034906687759399
0,5.324990300021016,6.652283774729768,6.612132680576486,1.4070090122464998,2.039906458490993
0,0.7443877946056604,-0.5086977515341751,-4.809314408896125,4.02572252208878,2.044906229222594
0,-0.5662142416221483,-1.929678425890454,-2.590761103705373,-3.6155637321469385,2.0499059999541878
0,6.863184193605908,15.229341757589106,15.247792598090168,6.493150252694232,2.0549057706857816
0,2.422583102346144,4.858362804474506,1.5563466982226015,5.321864479602317,2.0599055414173755
0,1.771982486343926,-4.702615280260047,-6.675098802037797,-1.2694210487284114,2.0649053121489693
0,1.831382347037896,6.406407507898536,6.0634560982924794,0.8792936700915868,2.0699050828805703
0,1.8807826856453025,6.335431173229469,3.1520114001431616,1.458008638298603,2.074904853612164
0,-4.329816496760801,-3.075544280272601,-6.1494328956637405,-2.883276141922461,2.079904624343758
0,3.019584800855446,7.653481151056414,10.429123211557927,7.5554393315705335,2.084904395075352
0,4.9989865795271475,3.922507470589462,7.987679722302625,10.574155060735716,2.089904165806953
0,2.94838884013149,-1.2884653186314858,-2.9137633633623747,5.322871047026765,2.0949039365385467
0,-0.15220841675486851,-0.019437213843829328,-6.105206045769973,-2.568412708769375,2.0999037072701405
0,-4.1228051907746375,-2.1204082123667325,-2.7966483252389374,-7.0196962062584385,2.1049034780017344
0,-2.7734014815495187,-6.951378311417109,-3.968090201750397,-7.41097944493022,2.1099032487333353
0,-7.713997288450506,-10.692347507891814,-14.019531674835019,-11.01226242374051,2.114903019464929
0,-2.354592610443907,-1.1633157981144493,-0.4209727434291451,-5.003545140889039,2.119902790196523
0,-7.495187446018545,-10.344283177744627,-11.562413405762827,-7.414827593783189,2.124902560928117
0,-10.345781793126855,-10.995249641777884,-16.32385365930417,-9.23610977909747,2.129902331659718
0,0.13362435090769598,-3.9362151844468007,2.014706499382021,0.212608307177102,2.1349021023913117
0,1.863030989322094,5.152820200741283,9.21326707450607,1.4013266695840063,2.1399018731229056
0,-3.967561874375333,-1.1381434793651517,-6.498171929512112,-3.809954687081747,2.1449016438544994
0,1.691845763401723,0.1608937820838418,0.0003894916194328857,-2.9512357579145663,2.1499014145861004
0,2.861253906279666,8.689931991821307,8.188951342143465,5.0774834621358105,2.1549011853176943
0,-3.1193374421422266,-3.581028843619006,-5.782486373759274,1.0062029781818738,2.159900956049288
0,-4.84992827828074,-3.141988717911385,-5.023923651996235,-7.625077204732216,2.164900726780882
0,4.689481401570765,9.457052375206963,8.294639511608768,3.173642918461522,2.169900497512483
0,1.8488916012293495,1.9560944419057007,5.563203121270559,4.742363352948036,2.174900268244077
0,-1.7516976755566975,-5.394862511907435,-2.3182328190628887,-1.9089158961279822,2.1799000389756706
0,6.977713574809009,6.144181519486643,9.730331694179059,2.939805176202726,2.1848998097072645
0,4.917125355713379,9.773226541689784,11.70889666415742,6.408526574733762,2.1898995804388655
0,3.136537670181017,2.4722725599457753,-4.55253790655698,0.33724830401065364,2.1948993511704593
0,5.545950520787437,7.921319578916201,3.796027984043828,5.34597036824431,2.199899121902053
0,7.895363909648324,10.220367602641828,15.16459433760499,8.644692771276414,2.204898892633647
0,5.884777838342216,2.7794166344884874,2.4731611552882242,11.023415516428607,2.209898663365248
0,-2.2558076921243493,-4.331533322800526,-7.09827156238046,-1.927861393682302,2.214898434096842
0,-2.2763926811170405,0.8975177332194704,8.230296184765022,-4.5591379570104476,2.2198982048284357
0,0.8130228719399789,1.2965698049916425,1.3088643967890154,-1.1104141716429032,2.2248979755600296
0,-9.50756103223728,-8.844377104962726,-16.48256692631845,-8.42169003544198,2.2298977462916234
0,-4.7581443926324845,0.9946770060440928,-1.1239977843641389,-3.1129655458826884,2.2348975170232244
0,-1.5287272077629535,-0.9062678590328495,-1.2954281765994848,-6.574240699961754,2.2398972877548182
0,-9.01930947565367,-11.067211696977926,-17.476858101703467,-4.675515494161719,2.244897058486412
0,-6.239891193842064,-7.2981545041987,-8.21828755770435,-9.006789924429285,2.249896829218006
0,-9.800472359258501,-4.729096276476121,-3.3097165417333945,0.581936013854498,2.254896599949607
0,-7.601052968091556,-14.170037008847991,-12.021145050034374,-7.429337674177468,2.2598963706812008
0,-10.941633015712913,-18.540976695476264,-21.042573078002754,-15.340610982891436,2.2648961414127946
0,-10.312212496611156,-5.761915329359152,-2.994000619933538,-11.341883905898927,2.2698959121443885
0,-8.102791404329583,-3.522852902281898,-5.235427668935498,2.0168435641901645,2.2748956828759894
0,-9.19336973146894,-7.973789405147336,-11.416854217225325,-3.8744285644265037,2.2798954536075833
0,-1.9639474697804944,-0.8647248282767237,-1.0882802563428837,7.474299716793569,2.284895224339177
0,-1.114524610364784,5.034340838411016,5.380294222728551,2.8530284163550177,2.289894995070771
0,-0.5451011439470728,-1.7165923948677937,-2.001130770763543,2.251757542488141,2.294894765802372
0,4.254322938879267,4.792475482001456,1.0974447723698844,12.150487103031963,2.299894536533966
0,16.523747647375725,17.43154447885575,22.65602086110192,14.9792171052411,2.3048943072655597
0,8.853172990212126,12.260614604869215,11.774597503758105,10.367947555426193,2.3098940779971535
0,10.632598975074169,11.13968586810653,8.923174707480783,17.976678458679288,2.3148938487287545
0,9.912025608576341,17.408758275353527,18.441752478094255,12.305409818762149,2.3198936194603483
0,11.781452896315809,9.95783183209985,9.820330820163235,11.414141638067164,2.324893390191942
0,1.4708808429187075,1.0469065426045066,-4.191090262923766,2.4428739177433783,2.329893160923536
0,9.140309452183407,11.345982410176372,11.247489231393182,2.8016066580372945,2.334892931655137
0,4.98973872725414,6.635059437420887,9.206069305145713,-0.7196601413104684,2.339892702386731
0,5.649168670677865,0.8041376262764546,-1.4353500402185602,1.6490735192166628,2.3448924731183247
0,7.178599284406633,5.383216978104197,0.4832311961953212,8.587807638986318,2.3498922438499186
0,6.218030569796042,10.262297493811419,13.391813014948774,4.9965422170664775,2.3548920145815195
0,-2.652537472363547,-2.878620826183395,-3.849604583738193,-7.194722747902006,2.3598917853131134
0,-3.2431048416338264,0.8004620180924816,-9.411021599986775,-6.335987257466301,2.3648915560447072
0,-0.11367153759521098,7.349546026370148,5.847561966087016,5.372748687036973,2.369891326776301
0,4.175762440294668,7.508631198134242,7.556146114534714,4.581485084488629,2.374891097507902
0,2.515197092560249,-0.9422824675780275,-0.8852691547317332,0.7602219336550163,2.379890868239496
0,6.734632419493901,11.91680502776274,7.783316157812649,7.628959232978135,2.3848906389710898
0,-5.555931578935183,-3.0241063177790006,-0.24809794868245544,-9.532303019400024,2.3898904097026836
0,-12.526494902879008,-15.945016506426136,-16.329511475270643,-10.763564825364732,2.3948901804342846
0,-2.94705755214268,-3.865925540163783,-3.4409244227620235,-2.114826186368636,2.3998899511658784
0,0.722380474087513,5.633166579666466,6.457663208632933,-0.3460871032317638,2.4048897218974723
0,-7.68818082289852,-10.007740147805437,-9.053748580873485,-11.047347576301082,2.409889492629066
0,-8.528741441450443,-14.068645723134711,-15.02515979080978,-9.538607605466858,2.41488926336066
0,-3.8293013794053903,-1.349550146273787,1.9934295798438098,1.1801328100307302,2.419889034092261
0,1.63013936597687,4.139546583555914,2.8220195327712374,0.058873671541745845,2.424888804823855
0,3.1795807977721573,-0.7113555325107619,-5.369389930031336,-1.0023850193224386,2.4298885755554487
0,2.1990229190509236,2.8277435066285683,4.509201193475405,-7.773643260851577,2.4348883462870425
0,1.3084657326897142,0.9968437019345746,6.287792905297966,-0.6849010511140088,2.4398881170186435
0,0.15790924136438242,1.2659450542249773,-3.573614792739664,2.5938416121308623,2.4448878877502374
0,1.4273534476179,-0.9549524358086372,-1.5650218990237192,-4.557415268691372,2.449887658481831
0,6.666798353866408,13.56415123237832,13.053571587968127,0.4813283089222318,2.454887429213425
0,6.666243962259443,2.303256058984127,4.662165669517874,2.9900723475521365,2.459887199945026
0,3.7956902744817205,-0.677637956324838,1.3707603463686873,1.7288168497731093,2.46488697067662
0,0.055137291710756556,2.9314691857076745,9.499355618693832,1.2075618180171988,2.4698867414082137
0,4.554585014753348,6.660577484112252,6.827951486150614,6.02630725451151,2.4748865121398076
0,3.1040334441514257,0.159686937651559,-0.4534520521759493,3.975053161207728,2.4798862828714086
0,5.76348258014547,8.658797544721184,10.33514500225822,4.413799539673888,2.4848860536030024
0,5.422932422577958,8.29790930326947,11.653742647466936,5.692546391036515,2.4898858243345963
0,0.23238297084398923,1.2670222106741678,-4.237659119201924,-1.738706284000622,2.49488559506619
0,3.2018342239560726,-0.3038637362308423,-1.6690603009617981,-2.6699584850147815,2.499885365797791
0,2.3512861806591583,4.8752514590648754,5.32953909879013,3.1487897883606544,2.504885136529385
0,-6.069261160478117,-7.4356322070719285,-8.461860923328356,-5.662461463444729,2.509884907260979
0,-2.7698078008875893,-6.736514738230814,-12.023260370548435,-12.573712239826298,2.5148846779925726
0,-0.3603537417865533,3.7026038622949535,4.975340754350696,-5.3449625396942535,2.5198844487241736
0,-7.250898984104586,-7.06827640843769,-5.7060575508838,-15.41621236115674,2.5248842194557675
0,-8.50144352842553,-13.719155553041967,-17.967455288093827,-8.187461701360741,2.5298839901873613
0,-5.011987374805069,-5.630033573553745,-3.6388524585010753,-7.378710556439087,2.534883760918955
0,-7.012530522644879,-4.54091047119341,-5.130249062442487,-10.019958921576846,2.539883531650556
0,-14.533072970653205,-18.18178624637723,-22.111645099390167,-9.081206791097154,2.54488330238215
0,-11.963614716681354,-11.102660898624624,-11.90304056781992,-10.232454158443955,2.549883073113744
0,-3.3941557575366685,1.9464655736124254,4.665564535008707,-4.223701016165742,2.5548828438453377
0,-8.32469608905951,-8.16440682723968,-5.975829787236519,-9.774947355992744,2.5598826145769387
0,-15.945235706286544,-18.03527809813597,-23.867223530342997,-12.846193168880136,2.5648823853085325
0,-3.5757746033847493,-5.296148235241667,2.8613833106428865,-1.2074384449406437,2.5698821560401264
0,-13.036312773548959,-16.137017233648898,-13.820009258321967,-3.19868317350519,2.5748819267717202
0,-7.376850209042047,-11.107885087306917,-13.581401230348185,4.080072656564846,2.579881697503314
0,-4.1473869012613935,-3.0187517890478386,-2.7427925976186454,-4.071170943442037,2.584881468234915
0,-11.157922840827052,-13.369617330717801,-5.674183351399565,-5.702413962167256,2.589881238966509
0,-13.508458017594446,-17.890481703249485,-19.465573482185476,-4.173656388019093,2.5948810096981028
0,-9.128992420480877,-12.66134489643337,-15.17696297954759,-3.984898208997479,2.5998807804296966
0,-4.189526037365566,-4.592206898726071,-0.6983518318175213,1.5938605873012883,2.6048805511612976
0,4.9499411446744785,7.396932302462094,7.70025997370627,15.592620013428995,2.6098803218928914
0,-6.520590861060806,-9.533927279816268,-13.051127549869094,-6.548619918338197,2.6148800926244853
0,0.1788779588627919,1.4852143676333798,1.8574856106981774,0.18014080385020104,2.619879863356079
0,-7.661652381934911,-10.515642741770657,-7.553900531056004,-5.85109780827444,2.62487963408768
0,-10.782181869460008,-18.016498594111265,-16.56528596110772,-8.112335742730826,2.629879404819274
0,-3.992710489116182,2.8226468253561765,-0.286670664717776,0.8064270129042768,2.634879175550868
0,9.416761774312056,12.981793532133658,15.321945373544448,10.84519047140601,2.6398789462824617
0,4.306234936239466,-3.3590584581729237,-1.1994378307964104,1.1439546454822695,2.6448787170140626
0,6.6557090117547375,5.170090869659573,9.979179737301006,9.612719547388103,2.6498784877456565
0,-1.4548159845693858,-2.2207584694689455,7.0377980922644685,-0.7685148111615978,2.6548782584772503
0,-3.8553400385062364,-7.871606460742416,-8.863582752024186,-5.169748418846862,2.659878029208844
0,-0.43586313586800407,1.647546910812375,-5.88496278192423,-4.110981264409659,2.664877799940445
0,-8.59638526226807,-6.833298339519663,-1.0463419835536392,-10.352213336279942,2.669877570672039
0,9.053093596953001,6.135857803820432,8.872279657329011,8.996555377590559,2.674877341403633
0,-9.617426543359166,-13.70498464341694,-14.759097844925522,-7.284675110415015,2.6798771121352267
0,3.522054331735297,3.4541743347636267,5.279525524098025,0.20409521221126503,2.6848768828668277
0,6.54153623723357,9.673334754607238,11.948149778943014,9.942866358021774,2.6898766535984215
0,-18.25898081186478,-23.27750336756452,-19.2932250659082,-23.98836166041204,2.6948764243300154
0,4.9805031995881714,6.3316599847441095,1.145401004014567,-1.2395888302507712,2.6998761950616093
0,5.429988287071893,10.700824828403317,13.474028003453148,3.4591848619869587,2.70487596579321
0,2.8494744661394646,2.0599911802868087,1.7126559471660068,3.897959430243472,2.709875736524804
0,-0.15103824793321718,-2.2108409431717986,-6.938715150490359,-7.523265111538154,2.714875507256398
0,18.988450159751352,22.9683284740008,20.979914724484114,20.225511250426223,2.719875277987992
0,0.04793970353099519,2.637499447167871,-1.5114544142825617,-3.035711470394602,2.7248750487195927
0,-4.832569602935534,-7.983328009120564,-12.182822553659163,-0.6769332610330425,2.7298748194511866
0,1.0469222536585379,6.815846119196189,8.14581031931917,3.4918458911378902,2.7348745901827805
0,-1.473584713336618,2.7350218460837445,4.724444217744235,-4.209374001338798,2.7398743609143743
0,2.335909509529847,1.4341991853617544,-7.556920845352865,1.1294070740830242,2.744874131645968
0,7.5754049356635225,8.273378150547382,4.74171514291735,4.078189129969996,2.749873902377569
0,8.664901578177037,13.872558754711154,15.760352195344366,5.236972178797604,2.754873673109163
0,-0.9156005503470612,-2.058258989755269,-6.371009675645384,-5.504243767203723,2.759873443840757
0,-5.706101437784564,-9.519075071069182,-5.902370458079389,-7.935458695918475,2.7648732145723507
0,2.8533989278868326,3.410110522450093,6.136269859941129,-0.21667259498801444,2.7698729853039517
0,-4.3470994411756045,-2.3207021972721797,0.3249112904384458,-3.597885451634396,2.7748727560355455
0,-7.127596532625201,-9.121513218079047,-12.806446154536749,-1.5790972527478433,2.7798725267671394
0,-0.858092333812374,2.2876774724544813,1.572197537243138,3.949692014980852,2.784872297498733
0,-5.3485868316852265,-3.04313011291498,1.090842378383309,-6.921517635046518,2.789872068230334
0,-9.219080012774056,-14.14393596111783,-15.960511618187986,-13.482726189261431,2.794871838961928
0,-2.149571863112003,-2.324740058614932,-3.121864439134933,-10.49393363353687,2.799871609693522
0,-1.4800623681984473,-0.32554239123168205,2.086783929488438,-5.7051399528185325,2.8048713804251157
0,-2.3205515131471746,-2.4763429443225538,-1.7645664979159361,-1.3663451311510872,2.8098711511567167
0,-3.551039282831224,-0.3271417030252083,-6.235915706768109,-3.777549151976849,2.8148709218883106
0,2.4684743380815966,4.062061347618547,4.762736317667268,-3.9287519983695023,2.8198706926199044
0,3.357989365038337,1.1912662225349353,3.931389590243713,1.7800463468880805,2.8248704633514983
0,-4.692494186556866,-6.789527063462884,-10.229955874230052,-6.071154098749509,2.8298702340830992
0,5.797023698618116,9.789681504403697,4.288699939056022,5.617646682339619,2.834870004814693
0,0.5665430358153185,1.448891940860127,4.047357045031915,2.8664487078253593,2.839869775546287
0,-14.223936159758557,-16.741895739500855,-20.313984541278806,-10.804748004694503,2.844869546277881
0,0.21558612731531746,-0.4026815219263423,-4.3953248045210955,-2.6559434375474975,2.8498693170094818
0,6.115109912883611,14.946534608771906,19.143336271267977,12.062862427220782,2.8548690877410756
0,-4.315364786994664,0.04575266783161336,-4.838001297754876,4.261669607587694,2.8598688584726695
0,-1.8958379562858776,2.074972670042396,-8.349337495732735,8.300478121066144,2.8648686292042633
0,7.763690421049964,9.14419462972457,13.04932769305239,10.859287984467556,2.8698683999358643
0,-0.21677963899774283,1.7934185607969098,3.257994284287193,2.008099213846107,2.874868170667458
0,-5.127248120614258,-6.917355523208252,-10.803337706599118,-3.553088175395894,2.879867941399052
0,5.49228499193688,10.591872391044655,6.14533173566241,11.305725831773119,2.884867712130646
0,2.981819714385563,4.6411023167582055,7.074002626383798,6.264541250086073,2.889867482862247
0,-3.3586439376648602,-6.139665733169873,-9.417325019219057,1.6033580937749066,2.8948672535938407
0,-4.089105948715912,-5.660431746043307,-3.838651186019828,-5.4178236234170445,2.8998670243254345
0,-0.4295663031501894,1.5788042910090812,6.040024141298813,-3.699003887871987,2.9048667950570284
0,5.949975014836944,3.848042391124808,0.3487009782314707,6.979817314196317,2.9098665657886222
0,3.4495180210198755,-1.7527174325242612,-5.712620659770779,-0.9713600033328267,2.914866336520223
0,8.729062730853885,11.456524833062199,14.596059242656965,2.4774641732966773,2.919866107251817
0,4.678609159284982,7.095769200523061,10.254740700625074,10.156289857606668,2.924865877983411
0,1.2781573206981467,0.6650156819209752,-3.1765762713825745,5.095117062731478,2.9298656487150048
0,6.6777072290024515,6.80426428873364,11.082108340432445,4.4539458012286675,2.9348654194466057
0,5.527258897696672,2.7935150319890183,8.18079454932639,7.97277608505037,2.9398651901781996
0,7.606812339795174,5.842767922303736,1.5494823679569327,5.461607925572588,2.9448649609097934
0,4.606367567726839,-0.6679770301157469,2.8781718083771506,7.470441333562273,2.9498647316413873
0,2.64592459333911,4.091280184605532,5.926862882210659,8.679276319130675,2.9548645023729883
0,-4.534516571944632,-3.4894604238706997,-4.684444399227446,-2.931887108258746,2.959864273104582
0,0.575044083150823,-1.6201988459566556,-0.3357500248019502,7.446951060351244,2.964864043836176
0,3.7246065699371567,3.9290649279828527,6.792946016598446,0.6757908335826196,2.96986381456777
0,0.6041708997050496,2.2483309075929685,1.3916437360013945,-1.0753677802059016,2.974863585299371
0,1.6837370835976306,3.4175991023604033,-0.5796568558072543,-1.2265247728102222,2.9798633560309646
0,5.983305132564347,10.046869521459563,10.509044251694263,3.60231986395925,2.9848631267625585
0,1.2728750573023222,3.956142173592567,6.177747068680121,-1.618833861718988,2.9898628974941523
0,3.682446868192191,-0.3245829330967829,-2.63354839518816,7.95001405822951,2.9948626682257533
0,6.00202057528563,4.1546942091079915,2.155157869323918,12.628863631587562,2.999862438957347
0,0.8115961882815599,0.49397360767357146,7.463865871234697,0.4477148655547001,3.004862209688941
0,6.371173716503424,2.743255269869893,5.952575619292302,4.296567766648536,3.009861980420535
0,0.2407531689199619,1.2425392027752828,-4.868712878179564,-1.464577659081517,3.014861751152136
0,2.48033455418987,5.7318254132654385,7.270000386804817,-0.8657214057897684,3.0198615218837297
0,5.599917880708386,4.971113907930921,9.578715421983233,2.91313653231895,3.0248612926153235
0,2.9995031565811505,0.6204046929812471,-5.612567765288887,4.431996160983034,3.0298610633469174
0,5.869090389538247,7.069697774238919,5.316150831950963,-2.7791425142265966,3.0348608340785184
0,2.62867958688995,2.908993157157982,4.444871220436204,-1.9102794878872102,3.039860604810112
0,3.3982707555403744,0.7682908468134311,-5.426406593290698,4.498585245418862,3.044860375541706
0,1.467863902044631,0.22759084797786558,-3.447682602791905,1.8174516910991483,3.0498601462733
0,-2.0125409672894774,-2.513106834708325,1.3610431985037779,-0.5136801455807753,3.054859917004901
0,-1.9029438462461468,-7.993802196539508,-6.490229182595064,-7.634810259460763,3.0598596877364947
0,-4.653344728517499,-4.914495232503958,-12.681499738977339,-9.095938645192199,3.0648594584680886
0,-0.7637436075682168,-1.995185937106279,-0.18276846299706906,1.1129347030687087,3.0698592291996825
0,-6.914140476573869,-6.695874304372262,-5.1140353463597235,-4.388190208313526,3.0748589999312763
0,-0.8945353283831311,-4.76656032789432,-7.295300380246743,-2.5493133726244785,3.0798587706628773
0,5.655071844441855,4.60275599914619,6.643436444566039,4.599565217072751,3.084858541394471
0,-4.205318950567204,0.3920746838028005,-2.2478248624531596,-7.721554432156627,3.089858312126065
0,-1.9557077059071901,-5.588604266857753,-9.869084291755112,-5.342672313106005,3.094858082857659
0,5.643905585959836,4.400719154243152,1.7196581664039496,6.026211581710013,3.09985785358926
0,18.313520932462264,19.730044954123482,20.748402521974423,11.395097259916144,3.1048576243208537
0,12.953138340370604,8.529373139241667,5.087148784561623,14.24398472872969,3.1098573950524475
0,8.932757815291128,3.4487037150336106,0.5458969629040213,4.1528739944654385,3.1148571657840414
0,23.042379361518666,22.83803668589342,22.91464706488571,12.581765062425836,3.1198569365156423
0,22.702002981895568,18.837372055090515,25.52339909740714,12.650657936962117,3.124856707247236
0,23.221628677431926,18.25670982435424,12.402153065790488,13.479552621387732,3.12985647797883
0,30.071256446944254,33.22604999350189,33.000908973361284,21.28844911776465,3.134856248710424
0,27.500886286808296,27.065392560112077,27.839666821257822,15.187347426666818,3.139856019442025
0,24.180518190780283,21.68473751919943,14.568426608188878,9.476247547057776,3.1448557901736187
0,24.890152149998094,23.68408486319732,19.177188330495575,10.84514947644896,3.1498555609052126
0,31.499788153065534,35.20343458209447,32.865951982440926,21.604053211110546,3.1548553316368064
0,30.169426185970273,29.14278666328702,24.444717556113954,15.712958745971653,3.1598551023684074
0,21.699066231928917,24.48214109131757,17.85348504114347,11.221866074399372,3.1648548731000012
0,31.98870827141457,35.39149784785105,39.092254424675474,25.390775188166884,3.169854643831595
0,19.668352282282214,21.160856911743373,19.74102569133622,14.789686077414851,3.174854414563189
0,7.597998239981275,8.570218259216546,1.8297988232485218,9.478598730569713,3.17985418529479
0,12.247646118071644,17.96958186439062,14.128573800622842,6.687513134559431,3.1848539560263838
0,8.707295888811123,8.518947699852301,11.967350602467128,6.266429275250001,3.1898537267579776
0,0.45694752349015855,3.4083157369661117,-0.5138707931798112,1.475347137780667,3.1948534974895715
0,2.316600992711588,4.927685946182721,4.074909590916155,1.0842667067986758,3.1998532682211724
0,-2.263743733267725,6.227058297353418,10.393691731468037,2.1531879666645315,3.2048530389527663
0,-4.584086684256673,0.7264327598585838,-1.2775243952658002,3.5521109015510657,3.20985280968436
0,-8.11442788987965,-9.184190697251333,-15.868738813374929,-2.4889645045543864,3.214852580415954
0,-7.384767379309864,2.035187895077164,0.2900484532044645,-2.990038267774363,3.219852351147555
0,-8.235105181068993,-6.315431493833659,-4.231162618897647,0.34888959583054613,3.224852121879149
0,-12.065441322909065,-9.776048894303386,-15.842372052468146,-11.152180929592667,3.2298518926107427
0,1.8642241682301186,1.0033356638175266,3.8864201303123407,2.3267501404357076,3.2348516633423365
0,-9.636108733891737,-9.297277848790795,-6.034786092114785,-4.614317209216189,3.2398514340739304
0,-20.38644005488016,-21.337889460852047,-19.0559907407755,-5.6553829933488915,3.2448512048055314
0,-7.516769819418384,-3.298499200175373,-5.187193835977974,4.5235527735269425,3.249850975537125
0,0.5629019489577837,3.9608929064858267,8.471604602863863,9.442490077037935,3.254850746268719
0,-7.687424772424496,-8.23971316697124,-5.809595443144679,2.621428902565282,3.259850517000313
0,-10.12775000570257,-9.760317446323834,-11.850793992751726,1.1703692349985226,3.264850287731914
0,-4.68807377242597,-6.5809199568468175,-4.031991064354757,5.6493110588112305,3.2698500584635077
0,-6.358396093437389,-8.311520723071208,-3.833186675707002,-1.0617456418183524,3.2748498291951016
0,-18.39871698884799,-21.93211976866366,-23.904380843851502,-16.342800882837413,3.2798495999266954
0,-9.589036477854574,-8.572717116181401,-9.185573584882906,-14.133854679814997,3.2848493706582964
0,-23.299354578423106,-18.823312786814636,-12.736764913603535,-15.934907047290618,3.2898491413898903
0,-23.209671306973554,-24.623906800247436,-24.84795484341331,-11.86595799842258,3.294848912121484
0,-9.90998667810403,-10.734499174468972,-11.349143386203398,-4.387007545027847,3.299848682853078
0,-4.890300704667879,-2.2950899257829867,2.989669447666888,4.0219443020665135,3.304848453584679
0,-8.380613398279158,-15.195679069238459,-10.591516351072821,-2.3891024675037484,3.309848224316273
0,-8.30092476973617,-12.98626661894007,-11.892700791044117,-9.480147863954805,3.3148479950478666
0,-9.831234829089537,-11.316852587931004,-3.273883880175889,-9.191191897199918,3.3198477657794605
0,-8.611543585561147,-12.6574369880435,-10.645065625578344,-4.942234576518502,3.3248475365110615
0,-25.24185104739694,-31.42801982978793,-33.106246033427155,-24.773275910337713,3.3298473072426553
0,-10.932157221557267,-12.548601122016127,-8.62742510849839,-15.084315905927355,3.334847077974249
0,-9.922462113484187,-5.689180871714335,-1.8586028538580908,-0.44535456910604854,3.339846848705843
0,-12.772765727233903,-15.99975908433223,-16.24977927124204,-12.316391904422185,3.344846619437444
0,-15.083068065677491,-10.970335764158168,-10.270954361448176,-19.87742791546875,3.349846390169038
0,-3.0833691305250572,1.1190890855790738,6.547871875627232,-4.328462604775705,3.3548461609006317
0,-12.343668922414023,-18.35148453743969,-12.493300559213404,-10.979495973672137,3.3598459316322256
0,-11.493967441053709,-14.95205663467205,-18.25447166464225,-15.430528022408577,3.3648457023638265
0,-5.874264685219716,-2.9326272064837697,1.8543585614610838,0.34844124976557705,3.3698454730954204
0,-7.924560652757418,-9.023196252128045,-3.9468098778729117,-5.252588155518242,3.3748452438270142
0,-10.914855340682728,-18.823763769940665,-20.34797697894089,-7.753616236023465,3.379845014558608
0,-0.24514874524228958,0.6456702426890601,0.5108572626630835,-5.074642989016654,3.384844785290209
0,-1.605440862038962,-1.7348942107081198,3.819692852137294,-3.5756684112099477,3.389844556021803
0,-10.27573168625152,-12.805457125991557,-16.831470204809598,-8.766692498768771,3.3948443267533968
0,-4.766021212647987,-5.856018498510814,-8.532631902035183,-5.917715247307753,3.3998440974849906
0,8.703690564482411,10.383421676970027,13.1662077672493,7.201263348097015,3.4048438682165845
0,-1.236596348919905,-3.327136594009439,-3.0649511897710893,1.1802432926382735,3.4098436389481854
0,-4.296881946997181,-6.697693305946479,-5.136108765976037,-10.950775408518833,3.4148434096797793
0,-0.017166223925193264,5.041751546698308,5.842735045687576,-1.0417927501186377,3.419843180411373
0,1.8225508262439782,0.39119796960167796,1.3115802523046247,-0.49280872654966734,3.424842951142967
0,-1.4077307904646674,-6.909354031527903,-10.109573139080029,-4.313823331864628,3.429842721874568
0,5.85198893193222,9.050095549034916,8.719274878612636,2.195163440085518,3.434842492606162
0,4.051709999258087,1.829546716996017,8.358124312500188,-1.7658484044169782,3.4398422633377557
0,2.711432417030741,3.368999477831717,0.6069751694126805,4.063141140956305,3.4448420340693495
0,7.521156190374103,6.508453836651318,0.5458274557059613,4.27213208244601,3.4498418048009505
0,6.130881323958304,18.34790979807131,17.734681177335837,15.881124425973363,3.4548415755325443
0,1.1606078219317093,3.0373673659118787,-0.5764636602558921,1.610118176818794,3.459841346264138
0,5.300335687958542,12.096826542996489,4.7223929476930335,10.789113339448987,3.464841116995732
0,15.930064925239293,17.086287331152473,18.691251005301993,15.358109917502759,3.469840887727333
0,3.2597955363077467,3.2857497311435315,2.480110515953581,0.547107913711592,3.474840658458927
0,-6.410472477060834,-10.544786257219563,-14.731028517734472,-17.213892669935152,3.4798404291905207
0,9.07926088647025,11.72467936544948,9.92783390657926,2.1051081684987696,3.4848401999221146
0,7.158995628030985,9.634146598394052,12.876697791279954,6.544110431380249,3.4898399706537155
0,-2.6612682516022894,-4.246384559542792,-11.304436861510977,3.4431141212349066,3.4948397413853094
0,2.8284692479509443,4.343085889985762,-0.7755700500145278,2.862119240301627,3.4998395121169033
0,9.508208126811828,11.282557945001127,13.123298227526206,2.0711257904390266,3.504839282848497
0,-0.22205161521059807,-5.44796839683078,-6.477832027186838,-7.099866226729861,3.509839053580098
0,-4.6223099786740045,-4.528493138175715,-7.248960812641426,0.7691431904200953,3.514838824311692
0,5.0374330357054955,7.620983718262165,11.879911872700593,4.848154043657185,3.519838595043286
0,-3.5328225727732825,1.7804621698116359,1.7187860304202092,-3.7228336652136527,3.5248383657748796
0,-6.183076804757816,-10.53005778631261,-11.682338338090215,-4.333819934422736,3.5298381365064806
0,-1.4033296607018424,2.1194238471245392,1.8265387685270547,-5.024804762051329,3.5348379072380745
0,0.05641885925563914,4.7489070675725165,4.205417351872237,0.9142118541558044,3.5398376779696683
0,-8.253831244751806,-8.131608127417142,-14.295702586262571,-6.156770083219245,3.544837448701262
0,5.455920027646852,1.1378782597372468,3.333178956115652,4.4922494286435395,3.549837219432863
0,10.075672676936918,10.547366226693814,14.642061981238253,2.3212703926739913,3.554836990164457
0,-4.054573296615492,-3.7031442289960013,-6.649053508778725,-7.109707188231204,3.559836760896051
0,-0.734817893091726,-1.2336531100465147,-6.920167512144145,-7.7206833111117845,3.5648365316276447
0,2.314938887300153,7.795839580681945,8.738719972914408,5.32834202732383,3.5698363023592456
0,-4.88530295561014,-5.624666159755498,-6.582391051677792,-7.332631169276826,3.5748360730908395
0,-1.9555434219042254,-9.315170334342147,-9.843500583885476,-4.943602897020815,3.5798358438224334
0,5.814217488475207,1.8843270541771067,5.815391378600749,5.445426848256949,3.584835614554027
0,-4.656020224351498,-4.106173996533734,-3.995715161560394,-3.3055419290640633,3.589835385285621
0,-10.83625656021969,-11.306673488449544,-13.776820201461652,-11.216509224489547,3.594835156017222
0,-8.966491518605885,-5.497171423075542,-5.967923737759641,-7.677475033187057,3.599834926748816
0,-1.7967250982834602,1.8423321987071948,5.400974233566621,-1.0984393496734044,3.6048346974804097
0,-11.346957297293093,-13.498162623443886,-12.640126282938683,-7.909402167816846,3.6098344682120036
0,-8.557188112997274,-9.798655889347657,-8.58122528233936,-2.810363480980526,3.6148342389436046
0,1.7525824579522125,11.21085240182907,10.58767724081189,7.018676717860686,3.6198340096751984
0,0.09235441946020212,-0.3396377486759526,0.516581292289691,2.097718435849941,3.6248337804067923
0,-1.367872224349076,-1.2201263396980937,-7.34451312220001,7.926761679891417,3.629833551138386
0,3.5419025306665,5.849386629720501,6.194394002965448,1.8158064564547158,3.634833321869987
0,2.4216786885850086,2.118901160366863,5.213302673417401,8.134852771532316,3.639833092601581
0,4.901456253299208,4.828417252765239,-2.2077871053769718,10.683900630581476,3.644832863333175
0,-6.81876477154248,-8.202065092840282,-9.388875328136049,-6.847049961548791,3.6498326340647687
0,6.681015617574255,7.107454123687344,12.440038010490627,0.8920009995525745,3.6548324047963696
0,2.41079742410123,-1.2730250975111594,-1.3610470840761455,6.241053518177165,3.6598321755279635
0,4.410580651296927,-1.383502756344832,-0.7121306065903917,5.740107598498874,3.6648319462595573
0,7.890365302055152,10.096021147172875,13.47678744793307,8.77916324429032,3.669831716991151
0,-0.009848621182990833,-3.2444533871593997,-1.0442929158590382,-1.801779541245859,3.674831487722752
0,-4.910061116356335,-5.484926359757949,-13.38537169367967,-4.3927207553348175,3.679831258454346
0,3.489727818475657,2.824602228958438,7.073551118755407,3.9663396046981703,3.68483102918594
0,2.1995181852869874,1.7541323787093541,5.182475525958924,5.495401541548708,3.6898307999175337
0,-3.0706900139913023,-7.106335910734867,-8.488598467556976,-1.0855349422417506,3.6948305706491347
0,9.49910322245358,10.333197360406793,8.930329142592177,6.1435301555866015,3.6998303413807285
0,-2.7011021037432004,-3.7272678081139867,4.279258360688047,-10.267403162911773,3.7048301121123224
0,1.3786940088252275,-1.1677314166627906,-0.11181080924223667,4.6216651043080645,3.7098298828439162
0,-0.28150843858001434,-3.818193465625555,-5.762878363455826,-5.489265040556063,3.714829653575517
0,7.278290555222391,4.2413460447493065,13.5260557016936,2.4198064048564305,3.719829424307111
0,-1.7719090087596725,0.3708871142985075,0.6049913897064443,1.238879442990095,3.724829195038705
0,-2.9321071297245433,-5.019570257174594,-11.886071296212274,3.7179540762539296,3.7298289657702988
0,1.4176961930811247,3.0499739301435165,6.92286764707333,5.837030306859932,3.7348287365018997
0,-1.8024990395066567,2.5695196761248416,3.95180822284359,1.5861081366877687,3.7398285072334936
0,-7.3126928265331745,-7.27093301936828,-11.209249565616236,-7.164812432689306,3.7448282779650874
0,-0.9728851668105991,-0.631384156430161,-2.790305714971513,-2.785731399729298,3.7498280486966813
0,7.736923941127969,10.798166264978846,11.728639778379984,8.223351237315063,3.754827819428275
0,-1.183265501207083,0.6477182448161619,-1.8724130818828673,0.02243548025738927,3.759827590159876
0,4.116546507483626,5.367271782655735,2.156535707659023,3.201521330702142,3.76482736089147
0,10.176359968198472,12.806826877580232,17.385486150066136,7.8506087899440455,3.769827131623064
0,1.196174881511733,0.8563835280775903,0.24443824786955134,-0.14030214108015193,3.7748269023546577
0,-5.544008752462338,-7.774058267940228,-11.076607997014412,-5.601211461760922,3.7798266730862586
0,1.8758090661974582,1.9855014872401993,3.5523474171333027,2.6578808284257436,3.7848264438178525
0,4.545628337450379,-1.4749372085220664,4.7513044922090675,0.4369747300968662,3.7898262145494463
0,-10.44455093873201,-12.84537435714216,-17.719736769760026,-9.383929756044004,3.79482598528104
0,1.3452712376899174,-1.8158099601585236,-5.160776366476586,2.5551673708731575,3.799825756012641
0,1.3250948669741867,6.543755981387826,10.218185704930157,8.304266111921455,3.804825526744235
0,-3.5350800504541957,-0.06667653331492146,-0.022850552326602533,4.913366468074425,3.809825297475829
0,-0.34525351409955574,-3.8371075051703167,-6.163885135135284,-5.367531560089747,3.8148250682074227
0,0.49457447662765003,3.7224630648432053,7.93508195950092,4.39157202771376,3.8198248389390237
0,-6.285596077565964,-1.1779648242344851,-1.6659492654407955,-3.3693227682908002,3.8248246096706175
0,-4.815765175779655,-5.318391173344536,-7.996978807033583,-2.7002159478402112,3.8298243804022114
0,3.384067183203597,7.141184016633735,8.37199333769834,2.3388924894289125,3.8348241511338053
0,-1.4560989991467246,1.7107607448368403,4.140967171786036,1.9880025439649534,3.839823921865406
0,7.483736278660796,8.610339010183242,4.969942698028497,11.687114216097527,3.844823692597
0,-1.9864269820524871,0.009918811177484943,-3.151080081183516,-2.603772494225623,3.849823463328594
0,4.063411219799744,5.659500145889831,10.157898836222266,-3.154657587463724,3.854823234060188
0,5.123250885072901,-0.36091698796550553,0.4568794520367908,6.5944589357591035,3.8598230047917887
0,-1.8069079856369061,-1.6113325929152038,-6.874138232242781,-1.4864229252253705,3.8648227755233826
0,3.2529346080166257,4.138253328403461,7.394845784758185,-2.167303171184124,3.8698225462549765
0,-1.6172213337731178,0.6778407732814498,0.7738315044076468,0.3718181970792074,3.8748223169865703
0,-5.547375810845696,-12.47257026104053,-16.69718107194913,-3.3890588211520836,3.8798220877181713
0,7.092471177042233,5.167020222834849,5.851808057237673,6.050065773499126,3.884821858449765
0,3.962319630159467,3.2066122225733142,7.7607988938741075,0.5291919803873512,3.889821629181359
0,-2.537830451420619,-6.153794264089068,-10.990208560067687,-5.461680201253277,3.894821399912953
0,-2.5779790678307095,-1.4941992394243016,-5.551214302638469,-7.052550772158608,3.899821170644554
0,-1.7381262191769586,-2.234602705539186,-0.7222183315725712,-4.463419732715864,3.9048209413761477
0,-0.8382719053866491,-7.255004664256999,-4.743220644134736,0.3657129171815388,3.9098207121077415
0,-5.418416126191417,-8.405405117017692,-8.714221237192639,2.354847177985184,3.9148204828393354
0,3.0814411188786153,4.00419593524766,4.1647798927975375,3.4839830502061457,3.9198202535709292
0,1.821299830436063,2.3237984919935437,0.21378274971512998,1.2931205341951637,3.92482002430253
0,-4.768839990897104,-5.0465974472487645,-8.067212662427682,-1.4777403699063572,3.929819795034124
0,3.871021655485128,5.833008117008229,4.741793660492688,4.18140033790702,3.934819565765718
0,-0.5291152297914526,1.2526151842056024,0.360801722746291,2.8805426575226543,3.9398193364973118
0,-4.619250646096178,-4.977776246320015,-9.18018847132777,-0.9403134113610094,3.9448191072289127
0,-1.6193845927220132,-5.588166175233816,-7.751176917199235,-8.811167869167202,3.9498188779605066
0,2.5504829312199373,3.821445397027564,10.11783639008713,1.0379792838279385,3.9548186486921004
0,-4.649648073240196,-6.7489415297066895,-5.65314854422111,1.417128047641556,3.9598184194236943
0,-0.05977760498435472,-0.44932695541354106,-5.304131714831191,-5.193721577529667,3.9648181901552952
0,3.7200943372018087,5.930289120092417,9.874886883625898,-1.334569591377943,3.969817960886889
0,3.779967754518998,0.5299066970063551,4.213907256522901,2.364584006571687,3.974817731618483
0,-1.8301573520190144,-3.2404742246341933,-7.067070591024193,2.1337392168899703,3.979817502350077
0,3.5397190183960623,4.479146355098792,7.441953345865334,2.432896040058811,3.9848172730816778
0,1.8095968664276818,2.9987684360754465,7.580979071940164,-0.8179455236216098,3.9898170438132716
0,0.32947619258521843,-6.231607981957177,-8.369993408310048,-3.1087854739675227,3.9948168145448655
0,0.7193569972245976,1.318017100692878,1.6290359093831526,-1.5396238107524616,3.9998165852764593
0,1.6592392805965936,5.847643683777127,9.508067029266474,0.009539466406276648,4.00481635600806
0,0.7891230428612965,0.6372717669862029,-4.662900044518354,0.48870435802493606,4.009816126739654
0,-1.2509917159128483,-0.9630986502066374,-1.4738653080430917,-1.9321291353241934,4.014815897471248
0,-7.6511049956539985,-2.113467568465657,0.6351712425813253,-0.5829610130269123,4.019815668202842
0,-10.28121679602502,-7.983834988370882,-12.225790388587535,-3.1337912743771827,4.024815438934443
0,-9.641327116074565,-11.34420091014206,-15.326750197059937,-7.634619918480807,4.029815209666037
0,-5.921435954010894,-2.244565333360087,-1.327708177524775,-5.155446944085804,4.0348149803976305
0,-1.3515433072408642,-4.674928256901081,0.7613356762104904,-6.82627234941438,4.039814751129224
0,-7.421649172579358,-13.215289679039923,-14.88961862909335,-9.187096132073217,4.044814521860825
0,0.44824645358887594,-4.31564959740897,-1.1205710862081928,-0.0679182890235085,4.049814292592419
0,-2.181856424778403,5.0839919910437725,2.0284783126423904,-6.468738816652186,4.054814063324013
0,-7.171957803454064,-8.48636491019378,-12.61247042433887,-9.829557710861033,4.059813834055607
0,-7.452057677876951,-5.2567202973953195,-7.543417288552312,-7.960374966970125,4.064813604787208
0,5.707843956973147,7.542925833460025,12.545637729127156,2.888809420393754,4.069813375518802
0,-6.892252893520554,-12.837426513344612,-12.525305361834317,-19.642004542777446,4.074813146250396
0,-4.762348223761156,-5.007777333278855,-8.636246551810688,-6.062816849828334,4.0798129169819894
0,3.92755797209849,6.371873378588031,9.472814169174598,1.9563725067278224,4.084812687713583
0,0.3274657001145968,-1.218474372511336,8.301876811361002,5.375563534979553,4.089812458445184
0,-0.8826250336444079,-7.758820581300009,-7.209058615229746,-6.065243756882804,4.094812229176778
0,-2.1727142231542325,-4.339165242366006,-5.249992100849789,-5.766049360693207,4.099811999908372
0,-2.792801862320196,-1.979508349905167,5.63907636434578,1.9731467319215827,4.104811770639966
0,-1.6528879448706022,-5.319849897677882,-3.7718532095957333,1.9823445296001294,4.109811541371567
0,-4.212972464307764,-7.860189879042044,-9.6427808125107,2.7615440410214016,4.114811312103161
0,7.776944586063156,10.889471713038663,11.796293565959974,6.290745274673309,4.1198110828347545
0,1.9468632129465777,-4.910865114206128,-2.384630063687703,-2.290051761256657,4.124810853566348
0,-0.09321657717108203,-2.421200353586397,-7.445551691027362,-4.4108470588074296,4.129810624297949
0,7.3367052219192574,9.428466002051643,8.853528694353319,13.648359389920026,4.134810395029543
0,0.1566286161555911,5.468133959740345,5.242611102877357,1.2775675926631334,4.139810165761137
0,-2.9034463887876054,-8.922196473822112,-4.70830445525881,4.896777556721245,4.144809936492731
0,-4.353519787322514,-2.112525292122099,-3.429217970084987,0.18598928892109,4.149809707224332
0,-1.633591573687965,3.1571475115216203,6.819870568401451,1.795202795780929,4.154809477955926
0,0.6363382581420425,-0.34317805602344303,-3.471038829733861,10.344418083578464,4.15980924868752
0,-1.0337302856322776,0.8664980121038577,-4.601946154449687,-0.2663648417587724,4.164809019419113
0,12.78620280117963,14.256175722605178,19.89714860426782,13.762854025196665,4.169808790150714
0,-2.533862475495491,-1.8341449181962508,1.3862454561505075,6.192074689246334,4.174808560882308
