labels,F4,F3,Fz,Cz,timestamps
0,-0.1768349846120807,2.1475958384848646,2.8545900579027075,-1.0002915298165218,-2.0000277681360075
0,0.3338927641557488,3.1171664318055137,3.354454101188562,6.671376766164235,-1.995027698715667
0,7.374626807675232,4.446743031191364,3.1643225928179697,4.4830417256109065,-1.9900276292953265
0,-0.654632849491507,2.6163256343943875,0.06419554182887773,1.4247033876960944,-1.985027559874986
0,5.456113796924075,5.725914238816294,4.494072957015117,5.236361791205072,-1.980027490454649
0,4.996866750869275,9.555508841438678,6.993954846919103,-1.1119830253987617,-1.9750274210343086
0,1.907626015930189,5.635109438675883,0.09384121972722534,1.6996689761103805,-1.9700273516139681
0,-3.291608404645578,-7.365283973654342,-5.146267916710878,-4.5786821661491715,-1.9650272821936277
0,2.4191634922310916,-2.715671400011908,0.053627445378704605,-1.1270364140093312,-1.9600272127732872
0,17.029941709529815,13.633947155200117,14.063527313826718,10.814606270793046,-1.9550271433529467
0,-0.019273750214654273,3.6935716874684537,0.06343169624274794,-7.923754073551641,-1.9500270739326062
0,4.911517114842782,2.0132021917905045,0.19334059975049395,2.51788259098445,-1.9450270045122657
0,1.5623143059895561,-1.8371613373246074,-3.126745968857011,-5.850483697562829,-1.9400269350919288
0,7.453117824146007,12.91248109435206,7.653171997148595,6.861147098977616,-1.9350268656715883
0,0.9139276698697285,8.552129480678296,-1.0769054955756172,11.482775018740698,-1.9300267962512478
0,13.414743843273497,12.631783814787497,10.523021559385386,23.56440009931471,-1.9250267268309074
0,1.5555663439104541,3.171444088870801,-0.5870468319332741,6.866022377121272,-1.9200266574105669
0,2.336395170723043,3.8011102942703103,0.9228893361059758,4.017641887208617,-1.9150265879902264
0,5.37723032217547,4.840782421730745,3.712830068868408,2.1492586636192623,-1.910026518569886
0,5.41807179636326,7.780460461538757,6.422775371506085,2.1508727398725815,-1.905026449149549
0,10.78891959092155,14.400144403414787,13.8727252487754,11.002484149150783,-1.9000263797292085
0,5.049773702848028,4.589834236275749,10.10267970470279,6.124092924175363,-1.895026310308868
0,3.780634128436305,6.969529948139124,4.712638742354422,4.32569909702489,-1.8900262408885276
0,0.5815008634046368,3.9292315262632904,0.9926023639298839,-0.9626973008265083,-1.885026171468187
0,-1.0776260968638673,-0.11106104264267858,0.8825705710960672,-0.47109623825161173,-1.8800261020478466
0,-10.746746757038144,-8.981347772153246,-9.837456634654107,-15.829497684123643,-1.8750260326275061
0,-8.6658611214703,-6.211628675720663,-6.377479251634261,-3.957901606891961,-1.8700259632071656
0,-2.1349691938735025,-4.421903766311807,0.9725027223231361,-6.506307974273742,-1.8650258937868287
0,-1.114070977317444,-0.7121730563356503,2.6124892898133623,-0.7447167532907755,-1.8600258243664882
0,8.3768335254595,8.39756344213291,6.732480453506365,7.1068720894407935,-1.8550257549461477
0,3.7077443116367945,5.647305716951283,4.632476215800092,-5.671541412624659,-1.8500256855258073
0,3.458661378017966,7.497053755531465,6.302476578625024,-1.089957226089112,-1.8450256161054668
0,0.12958472098768825,5.686807544661703,2.6124815433942334,-2.6883753174737137,-1.8400255466851263
0,-5.5194856633057565,5.11656707049808,-6.907508888885516,-3.6467956530757766,-1.8350254772647858
0,1.6014502212987964,10.956332318580747,1.5825052826742265,-1.1752181989395587,-1.8300254078444453
0,22.34239237096456,27.006103273647625,26.53252405891185,21.986357078992253,-1.8250253384241084
0,-16.136659218515813,-16.82412008067812,-14.127452559798837,-12.892069785531723,-1.820025269003768
0,6.674295448181105,2.2056622383385625,6.922575426250828,6.289501240759047,-1.8150251995834275
0,5.105256366221743,-1.7045497867204111,-3.5373919835160397,3.3710701909058924,-1.810025130163087
0,-4.943776469310256,-13.814756172982952,-11.227354789592953,-7.0873629021402635,-1.8050250607427465
0,-4.332803063434216,-3.6549569371071406,-5.307312992120874,-4.345798005425456,-1.800024991322406
0,7.77817657890412,7.214847904826752,5.3627334093101044,10.64576491418276,-1.7950249219020655
0,-2.890837547165014,-3.78534166293408,-3.297215584512223,-6.912674110089654,-1.790024852481725
0,-2.2998454465760134,-6.105525656103254,-2.227159972704302,2.228884954898292,-1.7850247830613881
0,-10.808847124198529,-14.805704090170913,-9.787099754245972,-7.689557857699448,-1.7800247136410476
0,-5.597842584497648,-12.405876979919903,-9.6270349276922,-13.22800251444006,-1.7750246442207072
0,-6.726831831293778,-19.426044338999933,-10.276965490868365,-20.506448981164276,-1.7700245748003667
0,-4.6158148677320305,-6.356206179698163,-9.856891440686187,-12.13489722248298,-1.7650245053800262
0,-0.5447916963953217,-6.2863625130069,-9.686812773089214,1.8566527983949288,-1.7600244359596857
0,-4.89376231945644,-5.1265133489532,-7.266729483071649,1.7982011192277678,-1.7550243665393452
0,-2.1427267387829336,-1.8166586969256553,-0.8966415647886115,1.3297477780748759,-1.7500242971190083
0,4.158315044004539,3.863201434086942,4.33345098816113,7.081292812882676,-1.7450242276986678
0,-12.240636972540011,-11.236932964700456,-11.026451817590859,-13.437163738596738,-1.7400241582783273
0,-16.80958278953266,-9.057061901809606,-14.666349975146677,-16.01562183848828,-1.7350240888579869
0,-5.808522407285686,1.8728146147741782,-2.6762434769336525,3.365918551762786,-1.7300240194376464
0,-12.447455825007465,-2.4073034223842886,-4.966132314504435,1.7974574714866973,-1.725023950017306
0,-7.546383040860694,-6.087416020404047,-3.3260164787492554,-0.141005039678332,-1.7200238805969654
0,-3.335304052106476,-1.987523186146285,-2.1858959601281382,3.9205310578330943,-1.715023811176625
0,2.8457811446731616,2.352375073831521,3.214229251191388,1.5220658034241556,-1.710023741756288
0,11.506872553137303,9.532278753091946,13.594359165072003,9.523599236251352,-1.7050236723359475
0,17.97797017657943,16.91218784486218,16.86449379089871,8.275131395038807,-1.700023602915607
0,13.069074017305377,11.192102341495868,12.724633137006515,1.2466623178932492,-1.6950235334952666
0,12.480184076273524,12.932022234131328,9.44477721039718,-3.331807957632644,-1.690023464074926
0,20.491300353027786,17.661947512605593,17.284926016777817,11.629720605718932,-1.6850233946545856
0,18.332422845617764,15.861878165381015,16.035079560580304,-3.1687519550169747,-1.6800233252342451
0,13.613551550431351,15.22181417941285,12.665237844829434,-1.8972256030677481,-1.6750232558139047
0,9.91468646222063,12.661755540120495,8.625400871125844,-1.2957003017538304,-1.6700231863935677
0,14.255827574340842,16.771702231462744,12.835568639822256,2.3058239856973968,-1.6650231169732272
0,21.786974878862264,19.34165423594279,16.98574115013524,4.4273472960883975,-1.6600230475528868
0,17.1581283663748,21.881611534445714,15.065918400020355,14.248869665985694,-1.6550229781325463
0,18.86928802573198,22.63157410599386,19.106100385962925,15.670391131303877,-1.6500229087122058
0,15.480453843989556,15.631541927590968,10.626287102877317,9.461911726875288,-1.6450228392918653
0,10.771625806521909,7.241514974338674,10.096478544189335,9.773431486296476,-1.6400227698715248
0,16.222803897212017,16.82149321980455,15.70667470203758,11.104950442044663,-1.6350227004511844
0,18.493988098549856,25.82147663620631,19.006875567319472,17.766468625535282,-1.6300226310308474
0,14.115178391540137,12.161465194172811,11.217081129516203,15.337986066956095,-1.625022561610507
0,27.87637475553755,23.161458862498893,22.28729137656155,34.22950279493486,-1.6200224921901665
0,24.00757716800762,19.02145760812388,22.047506294745173,22.231018836069158,-1.615022422769826
0,25.298785604202287,17.301461396119443,22.457725868479148,22.08253421454885,-1.6100223533494855
0,22.680000036977713,21.77147018967007,20.497950080087634,22.5040489521507,-1.605022283929145
0,21.15122043683034,28.961483950017822,24.118178909756708,18.9255630684309,-1.6000222145088046
0,19.472446772032047,17.181502636262465,15.278412335560828,19.077076580873644,-1.5950221450884676
0,-0.8663209910920155,5.491526205358272,4.408650333660085,7.518589505079418,-1.5900220756681271
0,0.6349171124343624,-0.6384453873355547,4.1488928788108,-0.6798981448251605,-1.5850220062477867
0,5.296161046969635,-0.7884121872348704,1.699139944977849,0.131613644447637,-1.5800219368274462
0,-5.592589223343653,-11.148374239883482,-8.81060849421288,-3.686875114069151,-1.5750218674071057
0,-12.23133373435643,-14.368331590455394,-12.37035246503567,-10.945364407220914,-1.5700217979867652
0,-4.5000725215221715,-11.048284283277027,-8.16009199315962,-0.843854221444739,-1.5650217285664247
0,-10.048805619573129,-13.468232361522663,-14.479827103310255,-2.0623445426565876,-1.5600216591460843
0,-9.257533062444658,-18.18817586710642,-12.419557819130851,-7.610835356355938,-1.5550215897257473
0,-13.666254883211828,-12.8581148405728,-14.309284163074285,-4.119326647668832,-1.5500215203054069
0,-10.024971113945455,-7.488049321047878,-14.319006156300082,-7.85781840124035,-1.5450214508850664
0,-12.7636817856093,-14.347979346393515,-12.898723818627893,-1.69631060116508,-1.540021381464726
0,-10.972386928033634,-9.397904953367554,-10.548437168552162,-0.2248032310614786,-1.5350213120443854
0,-1.9810865699760765,-8.747826177660876,-6.378146223363764,12.656703725658755,-1.530021242624045
0,-6.459780739333635,-7.487743053967632,-9.557850999354853,10.608210285308406,-1.5250211732037044
0,2.68153053655411,1.0423443838300175,4.4124484879582635,7.129716463452455,-1.520021103783364
0,-1.3071527693580882,0.3024361023662292,1.42275222351093,6.611222274747328,-1.515021034363027
0,4.394169315960804,-0.507467931531496,1.68306019230407,7.0227277330497335,-1.5100209649426866
0,10.145496765395029,6.722632248944905,8.80337237914297,14.074232851480284,-1.505020895522346
0,7.196829551392585,4.0827366104198415,5.453688768462415,12.415737642280053,-1.5000208261020056
0,6.868167645715275,4.01284511915874,1.214009344185037,4.47724211663534,-1.4950207566816651
0,8.969511019366006,3.722957740996824,8.244334089731012,7.738746284737058,-1.4900206872613246
0,12.450859642565197,18.66307444127828,11.114662988020692,9.86025015597618,-1.4850206178409842
0,5.772213484656694,5.063195184603144,6.014996021302802,11.731753738965166,-1.4800205484206437
0,11.053572514061097,3.9233199346277505,6.845333171024894,13.603257041370936,-1.4750204790003068
0,13.10493669828159,14.653448654161249,14.525674417837454,14.054760069729348,-1.4700204095799663
0,0.9063060038768049,2.423581305261226,2.6560197415584095,0.6762628293861273,-1.4650203401596258
0,-2.162319603387416,-6.396282150696602,-6.063630878757471,-0.532234675241527,-1.4600202707392853
0,1.4590598418802319,1.453858247341123,4.306722535574419,0.9492675598196878,-1.4550202013189448
0,-3.279555694968618,-1.3259975395139967,-2.102920036784839,-6.3792304615224165,-1.4500201318986043
0,2.731833751476143,-0.8858495500250259,5.177441382818776,-0.12772873523019518,-1.4450200624782639
0,-8.766771853292585,-5.915697822845316,-4.022193227052557,-16.326227256950837,-1.440019993057927
0,-2.0253725435838765,0.3644576035695002,0.008176112096602406,-4.21472602175334,-1.4350199236375865
0,-3.9739683533604366,-4.395383308972713,-7.791450621157173,-4.313225023940225,-1.430019854217246
0,1.9074406837722222,0.13477940157818025,4.008926551993973,1.8382757428332446,-1.4250197847969055
0,-2.851145465573947,-3.445054302521964,2.959307610551397,-8.010223714725363,-1.420019715376565
0,3.150273165304095,0.02511554116598891,5.709692533452399,0.33127661034767175,-1.4150196459562245
0,6.691696543072346,3.6552888952078724,1.830081299326644,-0.83722327471206,-1.410019576535884
0,3.163124634158162,-0.36453427783524983,-0.06952611354655791,-0.875723362471088,-1.4050195071155436
0,22.544557404470556,16.77564598439127,15.610870272796243,11.995776354522235,-1.4000194376952066
0,10.605994819007986,2.305829643743788,9.091270435804812,0.47727588347609706,-1.3950193682748662
0,8.187436841518352,4.566016661368302,6.421674352089529,4.5487752311472365,-1.3900192988545257
0,12.218883434520608,7.416206997764242,11.49208199732247,3.5302744038556932,-1.3850192294341852
0,7.9003345594933565,2.6264006129091113,7.072493346302005,-3.9582265923906457,-1.3800191600138447
0,6.461790176973553,5.1765974662889445,2.2429083730088593,1.5532722482595236,-1.3750190905935042
0,6.643250246663804,2.7067975169428937,5.493327050758474,5.254770931619548,-1.3700190211731638
0,1.0247147275965665,0.11700072354524815,0.9537493524020434,0.9362694633864319,-1.3650189517528233
0,-2.8538164216523723,-8.562792955421482,-1.7958247495192032,1.5877678490202274,-1.3600188823324864
0,1.037656757318933,-2.7825835613507834,-1.9953952825905557,2.1992660937558925,-1.3550188129121459
0,-3.3208657770554604,-6.762371135233774,-5.424962274307051,-7.519235797291117,-1.3500187434918054
0,-1.4393840662261321,-3.572155717565866,-3.6045257518981906,-2.677737818931549,-1.345018674071465
0,-8.047898151445096,-7.981937348339908,-5.984085742212762,-5.736239965663723,-1.3400186046511244
0,-6.956408073599979,-1.8417160670311077,-3.6436422716540644,-4.824742231549828,-1.335018535230784
0,-9.544913873001164,-10.291491912587183,-11.493195366129001,-9.153244610158021,-1.3300184658104435
0,-3.5334155892466788,-9.391264923365016,-6.662745050921789,-4.281747094475522,-1.325018396390103
0,-4.21191326125516,-4.861035136993533,-6.46229135057153,-8.250249676848,-1.320018326969766
0,-0.7404069274348255,-3.180802590359109,1.8281657110758704,1.0812476509813502,-1.3150182575494256
0,-2.5788966258622494,-5.1205673197706805,0.7386261105929768,-4.067255102270388,-1.310018188129085
0,0.9726176055950038,3.079670638860701,1.8190898246538896,-2.6757579275833447,-1.3050181187087446
0,1.534135729172843,5.099911249811749,5.9395568298215125,-0.8042608156958562,-1.3000180492884041
0,2.0856577070896134,1.9601544772550048,-0.31997289758095326,-6.102763757097551,-1.2950179798680637
0,9.197183501393358,4.490400285057545,7.540500618466819,-1.6012667420024944,-1.2900179104477232
0,4.768713073758259,0.6406486367586641,4.670977353629189,-7.44976976027981,-1.2850178410273863
0,8.05024638529852,-1.619100504350793,5.521457283117928,-4.648272801378673,-1.2800177716070458
0,10.051783396459529,-0.3288471750832136,3.4119403816389173,0.8832241457096079,-1.2750177021867053
0,-0.1666759330228218,-0.02859141222684536,1.8124266234410953,-6.395278907629255,-1.2700176327663648
0,7.494868355953798,6.961666747436254,4.052915982418772,4.086218050248622,-1.2650175633460243
0,2.556416222004771,2.9019272669555023,-0.09659156781578115,-5.422284968839595,-1.2600174939256839
0,-1.772032376635606,0.6121901090544717,4.013903946113912,-0.670787952939574,-1.2550174245053434
0,3.079522518015442,3.832455236142964,9.524402497324122,0.970709110051154,-1.250017355085003
0,10.57108086375895,5.112722610371053,7.404904058483641,1.5622062323343395,-1.245017285664666
0,2.7926426180362194,-3.7270078063857053,3.8154086016136977,2.093703426073417,-1.2400172162443255
0,-6.835792262188306,-9.206736052388608,-3.2640839018650203,-7.124799296651599,-1.235017146823985
0,2.1757761798254514,0.5235378343103148,2.156426519156786,4.566698076264357,-1.2300170774036445
0,-0.7526520991137402,-1.7761861839470447,-4.233060164256705,1.1881955570078162,-1.225017007983304
0,-4.41107714208265,-5.575908144513676,-6.102543980923759,-3.2703068422497106,-1.2200169385629636
0,-1.9494989920214154,-0.9156280844932532,-1.0920249593852738,2.6511908906155677,-1.215016869142623
0,-3.0579176916394397,-4.755346040694094,-1.5515031278335942,-1.7673112322644042,-1.2100167997222826
0,2.2836667165995927,-2.04506204961652,2.4090214857769876,1.604186801252276,-1.2050167303019457
0,-0.07474580963901012,-1.2647761474732864,-0.3404511464447135,11.525685003217452,-1.2000166608816052
0,-1.6431553126735134,-0.2644883702486547,-1.6899210524146684,5.3671833853379765,-1.1950165914612647
0,0.5584381651788455,1.2958012461966018,-0.6893882600395447,2.108681958728403,-1.1900165220409242
0,11.580034581565254,13.166092665942816,11.241147202776801,14.770180733874653,-1.1850164526205837
0,20.781633893744512,20.056385852594694,20.12168530780282,11.84167972055367,-1.1800163832002433
0,7.123236057998863,4.606680768729085,4.502226025906337,4.043178927605473,-1.1750163137799028
0,4.9948410293628225,11.406977375680604,10.732769326775411,1.5846783629571026,-1.1700162443595623
0,1.6264487619016361,-0.08272436623063628,2.2233151790999814,-5.35382196599658,-1.1650161749392254
0,-4.311940790813732,-4.392424497306465,-1.1961364491005861,-6.7223220519175895,-1.160016105518885
0,-12.340327675257923,-8.212123057994843,-6.685585590106973,-7.5108218871266255,-1.1550160360985444
0,-12.34871193744168,-12.811820088372526,-10.375032276050344,-10.699321463329284,-1.150015966678204
0,-17.347093622423802,-22.671515627658955,-18.444476538437,-13.507820771418604,-1.1450158972578635
0,-16.46547277396262,-21.491209713695685,-17.173918407669262,-12.7363198012659,-1.140015827837523
0,-23.063849434265943,-22.73090238247253,-23.003357912625688,-24.02481854148643,-1.1350157584171825
0,-19.962223643758144,-22.38059366787424,-19.272795080366677,-12.323316979176294,-1.1300156889968456
0,-14.220595440942997,-14.280283601662136,-8.49222993606088,-9.331815099804633,-1.125015619576505
0,-12.948964862507578,-11.229972213679195,-11.181662503233879,-12.040312887427056,-1.1200155501561646
0,-19.257331943560448,-20.159659532167264,-16.431092804118613,-15.258810324925674,-1.1150154807358241
0,-7.055696717757428,-6.689345583942342,-5.000520859785187,-5.267307394037437,-1.1100154113154836
0,-17.78405921736842,-20.369030394436756,-13.429946690176306,-12.915804075384443,-1.1050153418951432
0,-9.692419473366414,-9.71871398772379,-5.709370314221536,-4.90430034860743,-1.1000152724748027
0,-13.27077751546873,-18.648396386496987,-14.898791749908296,-16.08279619243684,-1.0950152030544622
0,-11.469133372168852,-11.91807761203122,-12.548211014218522,-6.951291584642536,-1.0900151336341253
0,-5.637487070818699,-4.157757684244229,-2.467628123049477,-3.739786502018571,-1.0850150642137848
0,-16.055838637733352,-16.42743662190362,-11.257043091312998,-4.938280920560116,-1.0800149947934443
0,-14.614188098182002,-15.25711444272859,-17.206455933055928,-8.866774815686451,-1.0750149253731038
0,-15.46253547619035,-17.406791163186664,-14.075866661272581,-6.9752681622435535,-1.0700148559527634
0,-22.250880794312707,-26.02646679818066,-23.00527528755712,-15.583760934346177,-1.0650147865324229
0,-8.679224073489998,-8.706141360819062,-7.974681821892251,-0.46225310522546426,-1.0600147171120824
0,-6.297565333135891,-15.705814862435073,-7.16408627273606,3.3092553526713866,-1.055014647691742
0,-9.015904591502213,-11.615487312851075,-9.423488647376926,-3.529235532723497,-1.050014578271405
0,-15.634241865949308,-16.81515872056015,-20.152888952155564,-5.897725733370188,-1.0450145088510645
0,-5.742577172886661,-9.764829092726448,-5.932287192317865,-4.1962152210091315,-1.040014439430724
0,-10.480910527689838,-11.414498435214133,-7.78168337190941,-7.554703966950331,-1.0350143700103835
0,-2.5592419448199952,-8.034166752723738,-2.2710774940068776,1.3668080579891164,-1.030014300590043
0,-4.487571438029464,-10.743834048937378,-5.780469561045714,-6.591679116586573,-1.0250142311697026
0,-5.12589902054648,-6.743500326603808,-3.419859574991121,3.1098345392285105,-1.020014161749362
0,0.23577529481310366,-3.863165587626304,3.5507524625680995,0.7113490555127673,-1.0150140923290216
0,-1.8125485044480478,2.367170166728303,0.07136655023471491,0.6428644623629487,-1.0100140229086847
0,13.159129569280081,11.43750693543682,11.541982686528781,15.824380789701582,-1.0050139534883442
0,7.690809503331381,10.987844717178943,5.242600869588791,9.10589806695035,-1.0000138840680037
0,8.652491284361977,9.508183509857446,7.053221096937702,10.117416322650547,-0.9950138146476633
0,5.354174898195202,8.768523310395405,11.103843365386442,12.878935584295748,-0.9900137452273228
0,15.475860329845029,20.608864114692704,17.774467670911516,11.840455878307289,-0.9850136758069823
0,14.337547563409332,16.03920591743077,15.035094008355566,10.521977229980477,-0.9800136063866418
0,13.889236581802606,15.62954871178125,12.735722371155124,23.70349966340364,-0.9750135369663049
0,11.86092736659678,11.339892489324692,15.956352751289906,14.525023201247464,-0.9700134675459644
0,20.53261989799856,17.830237240170266,20.2569851392879,12.736547864557666,-0.9650133981256239
0,16.274314154757505,11.270582953031575,12.167619524125785,8.728073672844408,-0.9600133287052834
0,18.766010113988266,19.030929615209416,17.008255893173114,11.489600644372592,-0.955013259284943
0,5.787707751147205,7.5912772125800005,5.838894232315681,4.561128796381345,-0.9500131898646025
0,12.949407040264106,12.651625729679278,13.089534526176617,10.412658145226748,-0.945013120444262
0,7.881107954237419,-1.0880248500673926,4.500176758330634,4.094188706485243,-0.9400130510239215
0,5.102810465014963,-2.5676745439555884,2.480820911504628,-1.834279504915503,-0.9350129816035846
0,5.8345145437455415,1.132676630460407,7.9514669677971375,-2.472746474419373,-0.9300129121832441
0,-2.9937798390024293,-3.6269713443364333,-2.6278850911503517,-3.5712121874834306,-0.9250128427629036
0,-7.51207271292717,-5.926618485710284,-8.45723528395849,-16.809676629267134,-0.9200127733425632
0,-6.3203641075692465,-12.16626481068688,-6.866583629114128,-9.698139784258485,-0.9150127039222227
0,2.971345947977529,2.164089664289313,1.934069855376491,4.0833983639816696,-0.9100126345018822
0,-2.6469425750040863,-5.605555076634029,-8.305274848016795,-6.175062167384552,-0.9050125650815417
0,-4.945229705045536,-4.23519904889355,-3.344617756453159,-8.07352136080516,-0.9000124956612012
0,-5.563515470461687,-4.4748422675695,-10.503958886648988,-3.7819791983240605,-0.8950124262408643
0,-2.811799899187654,-5.454484747321794,-7.493298254705454,-2.8504356614554096,-0.8900123568205238
0,-11.900083018677897,-7.814126502329335,-6.592635875986787,-7.938890731222576,-0.8850122874001833
0,-1.738364855817891,-8.343767546195757,-6.001971765109367,-11.807344388138667,-0.8800122179798429
0,-6.536645436873987,-10.453407891812564,-5.861305936020378,-6.235796612009395,-0.8750121485595024
0,-1.9649247875713325,-3.983047551263928,-3.560638402077987,-3.984247381821588,-0.8700120791391619
0,-3.2432029332137398,3.3773134640747435,3.3100308238272187,-3.1026966758827874,-0.8650120097188214
0,-1.02147989877816,-2.8723248567856015,1.6207017290237435,-1.0511444720496925,-0.8600119402984809
0,-0.15975570900971903,0.38803747527080934,2.9713743007833386,9.480409252037939,-0.855011870878144
0,-1.0280303885152193,-0.9415995505971941,-0.5079514738094841,-2.558035481337093,-0.8500118014578035
0,8.433696038123141,6.658764054786882,7.302724392129857,2.943521349850292,-0.845011732037463
0,10.535423546100656,11.179128280411764,10.143401885182628,7.265079767378696,-0.8400116626171226
0,11.747152110003437,13.889493114686775,12.294080991335516,11.796639792674819,-0.8350115931967821
0,6.108881703508947,2.91985854510029,2.014761695718768,-1.1117985534367405,-0.8300115237764416
0,6.020612299373336,-1.4597754417414794,1.6854439826620098,2.559764749254623,-0.8250114543561011
0,3.242343869612592,6.680591140249449,4.016127835994858,4.011329720582028,-0.8200113849357642
0,-0.465923614273704,1.7709582768853274,-2.033186760723377,-2.2471036198445056,-0.8150113155154237
0,-4.734190181047314,-5.068674046260316,-9.512499824026776,-5.765535252526338,-0.8100112460950832
0,-4.882455859424135,-4.548305843680984,-5.041811370220364,-5.4139651578233225,-0.8050111766747428
0,-5.9907206778010185,-8.457937129606874,-6.681121415073545,-11.422393315652245,-0.8000111072544023
0,-10.818984664064798,-5.15756791775179,-9.760429973704637,-11.110819705233016,-0.7950110378340618
0,1.1927521545191742,5.13280177871521,3.560262939407585,2.120755695056371,-0.7900109684137213
0,0.8644897512223956,6.553171946882345,2.040957310236533,3.532332907482484,-0.7850108989933808
0,-0.583771900444517,-4.4764574263049,-2.298346875132775,4.073911954462699,-0.7800108295730439
0,-4.092032826927238,-5.826086354089685,-1.4376496306523197,3.195492858183408,-0.7750107601527034
0,-3.8502930545547125,-3.025714849581911,0.9530490297682075,6.447075640465784,-0.770010690732363
0,0.05144739059576309,2.3746570744493027,2.323749092277211,3.368660322716549,-0.7650106213120225
0,-13.956811517225226,-10.264970594480376,-12.235549456944186,-8.179753074027872,-0.760010551891682
0,-4.16506980328554,-6.244597868545314,-6.104846631479437,3.2318354711482353,-0.7550104824713415
0,-6.613327492178825,-4.184224759406514,-6.744142444337528,1.4234259792511028,-0.750010413051001
0,-17.4715846077409,-16.41385127805956,-15.223436907764503,-17.494981528580492,-0.7450103436306605
0,-6.509841172912459,-3.5434774347114715,-2.522730033149447,-10.553387030798238,-0.7400102742103236
0,-3.6180972096302195,3.2468967612368487,1.9979781689242544,-8.091790504963218,-0.7350102047899831
0,-7.286352738995431,-7.322728699095243,-10.27131231160851,-6.620191927595985,-0.7300101353696427
0,-2.994607781515454,-1.3523538243344064,-5.250601484450081,-7.09859127435363,-0.7250100659493022
0,-8.902862357177087,-6.8019786228229915,-5.949889358796033,-12.646988520140043,-0.7200099965289617
0,-4.881116485411653,0.3683968974682857,-3.299175943247742,-10.715383639016924,-0.7150099271086212
0,-4.509370185061741,-0.32122727111268834,-1.9684612459065378,-9.983776604047899,-0.7100098576882807
0,-8.927623474392911,-2.4708511360344048,-7.09774527448493,-17.092167387208214,-0.7050097882679403
0,-10.675876371049744,-2.5104747046460187,-3.4270280363135006,-10.230555959290601,-0.7000097188476033
0,-1.994128891939225,-4.6900979841109125,-0.3263095383098761,0.9210577100876538,-0.6950096494272628
0,-2.4523810532706394,-1.2197209813171679,-1.9455897870623178,-2.15732634784947,-0.6900095800069224
0,1.4493671291856385,-3.049343702857082,-0.5348687889692252,-11.11570810143728,-0.6850095105865819
0,-6.0088843601368245,-6.9589661550321065,-4.264146550290779,-10.594087518557778,-0.6800094411662414
0,-3.4471355366182697,-5.058588343774066,-5.733423077078708,-8.542464566329748,-0.6750093717459009
0,-1.555386415345691,0.7017897254402932,2.4773016249196798,3.9491607889817146,-0.6700093023255604
0,-2.813637011088728,1.072168047483213,4.1380275501881645,4.160788581629004,-0.6650092329052235
0,-3.8618873383472296,-0.19745338265783485,1.7387546931751443,1.6824188458808345,-0.660009163484883
0,-4.440137411337481,-2.037074570003837,1.8494830480969129,-3.5459483842099098,-0.6550090940645426
0,-3.0083872439319275,2.1933044804372934,1.8502126089363793,-6.604313074650368,-0.6500090246442021
0,4.9933631503147975,-0.8863162363174264,2.1609433694818323,5.7473248087420785,-0.6450089552238616
0,3.975113757942689,-1.8959367252474233,-1.3383246766459225,7.578965300279728,-0.6400088858035211
0,-1.1631354346794036,-2.6255569912784296,-1.9675915359166898,-2.339391565921934,-0.6350088163831806
0,7.028615558554213,3.7648229607822,6.493142785193007,0.7222542439290873,-0.6300087469628401
0,12.80036672341531,8.24520312613277,7.20387828009596,7.203902763428017,-0.6250086775425032
0,4.662118045083165,3.5755834996868967,7.284614941804371,-7.36444597397578,-0.6200086081221627
0,0.32386950798916114,0.09596407589391184,0.06535276274296464,3.507208065059463,-0.6150085387018223
0,1.3556210960248298,6.926344848803984,6.006091734818018,0.7588649138733512,-0.6100084692814818
0,2.167372792832092,6.396725812119081,7.92683184951651,-4.389475394177756,-0.6050083998611413
0,6.619124581872344,12.967106959029406,7.297573097823184,5.482187174267329,-0.6000083304408008
0,7.580876446287984,10.877488281939984,8.698315470055919,2.9338526525378716,-0.5950082610204603
0,19.45262836861407,16.207869772220924,19.769058955703883,14.96552107370477,-0.5900081916001199
0,17.414380330354263,11.528251420025288,12.569803543155484,7.387192470213426,-0.5850081221797829
0,20.00613231153209,14.54863321420083,17.98054921940423,13.308866873598502,-0.5800080527594424
0,20.297884290403157,13.55901514227656,15.131295969920767,24.250544314269572,-0.575007983339102
0,18.72963624334247,13.149397190460338,10.5720437786591,8.222224821238749,-0.5700079139187615
0,12.711388144855816,11.82977934364804,11.362792628180044,12.57390842198694,-0.565007844498421
0,14.853139967749264,15.620161585453257,14.013542499817715,17.57559514260975,-0.5600077750780805
0,17.104891683319273,21.170543898145414,16.284293373700862,11.687285007895799,-0.55500770565774
0,8.296643261428848,12.980926262460597,8.9850452286554,-0.9610219586423334,-0.5500076362373996
0,2.528394670659517,7.641308657546466,4.515798042254291,5.970674265562512,-0.5450075668170626
0,9.780145878661806,12.80169106120209,12.136551791077181,14.3223737024887,-0.5400074973967222
0,10.231896852387303,7.8220734501427645,11.357306450856147,6.994076373458048,-0.5350074279763817
0,-4.476352441903865,-2.4975441998241465,0.61806199643451,-1.6142177010316257,-0.5300073585560412
0,-5.094602038438954,-4.247161913448584,-3.8411815980736845,5.827491498880905,-0.5250072891357007
0,-14.792851971375612,-9.21677971549823,-8.80042435877979,-3.850796007260298,-0.5200072197153602
0,-12.661102274201903,-4.426397630320703,-8.079666311477224,-2.3390802000187656,-0.5150071502950198
0,-7.899352979357998,-5.796015681665698,-8.628907481296924,8.082638940058466,-0.5100070808746828
0,-9.357604118180607,-4.255633892703491,-7.798147892580213,4.574361432342287,-0.5050070114543423
0,-3.145855721072307,-8.965252286070774,-5.737387568878401,4.806087295848846,-0.5000069420340019
0,-8.824107817694449,-5.264870883830099,-8.626626533006386,-0.9721834508666541,-0.4950068726136614
0,-6.85236043706081,-5.344489707417094,-7.885864807067907,4.3095492104123085,-0.4900068031933209
0,-0.35061360756021176,-1.2541087776927657,-0.7251024124689582,3.5212852976665117,-0.4850067337729804
0,-4.688867357059915,0.2162718848888343,-2.3243393700501707,7.733024828580864,-0.48000666435263994
0,-12.627121713003216,-6.2133477398854655,-11.6335757002538,-1.6552321795653986,-0.47500659493229946
0,2.934623297678641,14.287032327890417,6.1771885768740304,14.986514290061077,-0.47000652551196254
0,5.036367648529271,12.547412067927723,6.6079534415826044,16.488264253679787,-0.46500645609162206
0,5.488111313165002,11.23779145919168,9.83871887397232,14.520017726465195,-0.4600063866712816
0,6.579854264850118,16.87817047950279,11.60948485351194,17.43177472217511,-0.4550063172509411
0,-1.5184035236433653,10.238549105405205,5.440251358796642,15.133535253028336,-0.4500062478306006
0,7.743337920042154,4.338927312200542,7.071018367542589,17.205299329678255,-0.44500617841026013
0,6.665078567896601,0.8393050742263881,6.011785856715518,17.737066961186695,-0.44000610898991965
0,-1.9931816085253216,-3.050317634692261,-6.777446197286003,9.26883815502352,-0.4350060395695792
0,-7.751442637997508,-0.5199408408514139,-7.336677818277979,1.020612917267687,-0.43000597014924224
0,-7.479704549195166,-3.4895645704488754,-3.2659090298189852,5.822391253062681,-0.42500590072890176
0,-2.9279673703029143,-1.439188849500317,1.3548601449980942,8.344173166988286,-0.4200058313085613
0,-7.156231128915637,-2.138813703814701,-0.3543703166095036,2.895958663109668,-0.4150057618882208
0,-3.1144958520994277,0.8815608409863366,0.4163995626557607,14.497747744879945,-0.4100056924678803
0,1.5672384335245393,5.901934759358319,7.707169760033804,16.919540414952756,-0.40500562304753984
0,-12.461028298321619,-8.377691974307309,-5.362059747405131,3.651336674895201,-0.40000555362719936
0,-12.079296073476522,-11.627319385568569,-8.151288982699635,9.583136525139349,-0.3950054842068589
0,-6.057564917011099,-9.376947499485954,-9.760517968624928,13.274939965169388,-0.39000541478652195
0,-2.405834853100466,-4.886576340269285,0.9302532726562993,12.666746993526228,-0.3850053453661815
0,-14.07410590518274,-14.27620593124579,-12.568975280375511,-1.5314423922875702,-0.380005275945841
0,-7.922378095996804,-9.735836294857968,-8.358203648630624,3.4103718044016382,-0.3750052065255005
0,-0.8906514474736318,1.8645325473749086,-1.4674318523109355,9.512189579794079,-0.37000513710516003
0,1.3110740191166976,-2.7950994253618338,-7.706659910929735,8.474010929641311,-0.36500506768481955
0,4.4627982827556725,2.8252677664240036,-1.5158878434695424,18.1758358489578,-0.36000499826447907
0,8.34452132228779,8.505634102220032,3.434884331470804,15.58766433165779,-0.35500492884414214
0,4.696243116135649,1.4759995612509709,-0.5843434045352853,8.619496370295398,-0.35000485942380166
0,3.9679636421624394,6.476364122304007,4.876428930028357,17.501331956044737,-0.3450047900034612
0,0.9396828777268327,1.6167277637204893,1.2572013164989126,8.553171078797533,-0.3400047205831207
0,1.1614007998472258,-3.1229095365031707,-2.152026263990151,7.585013727244921,-0.3350046511627802
0,0.7731173853501994,-2.5725478005042755,-0.9412538304069635,11.916859889031162,-0.33000458174243974
0,-8.765167388993934,-9.402187050265177,-8.090481401629994,9.64870955085918,-0.32500451232209926
0,-10.763453546196764,-8.291827307328429,-9.559708996202504,-1.989437301463195,-0.3200044429017588
0,0.96825889128046,7.818531407342704,4.231063367870556,12.24241931715726,-0.31500437348142185
0,-5.570030098412727,-1.4511109268490932,-0.8981643269622417,1.8142793912700879,-0.31000430406108137
0,-3.048320536690477,1.2692456695001852,-3.957392098077813,-3.533857095056587,-0.3050042346407409
0,8.263387555300756,9.879601175616429,7.893380037182517,5.778009841945192,-0.3000041652204004
0,13.615094156373,12.229955570351938,10.12415206136477,11.189880185844602,-0.29500409580005993
0,2.656799244795421,5.3103088318459095,8.354923956531252,8.441753919750536,-0.29000402637971945
0,2.9785027980750587,8.130660937363508,6.125695703964531,10.163631025976796,-0.28500395695937897
0,3.810204793144666,4.561011863392373,3.886467284175431,7.145511485930043,-0.2800038875390385
0,-7.198094793369327,-8.308638414141344,-5.5227613228753905,-2.2326047197885863,-0.27500381811870156
0,-10.756395984826929,-8.138289919456279,-7.5919901373886205,-9.950717611022277,-0.2700037486983611
0,-16.154698804075583,-9.927942676369662,-13.791219179226172,-13.188827207447122,-0.2650036792780206
0,-11.753003272953876,-8.047596707936133,-11.16044846745798,-4.496933528015074,-0.2600036098576801
0,-8.251309412066695,-6.287252036364652,-7.78967802011295,-2.5350365908165697,-0.25500354043733964
0,-5.8196172408954485,-5.676908683091169,-5.548907854205801,-2.703136413316743,-0.25000347101699916
0,-0.8879267780878433,-2.0465666689148785,-3.7881379859538242,2.0787669873542525,-0.24500340159665868
0,0.7537619582100368,-5.126226014144453,-0.17736843101982813,1.8206735941916803,-0.2400033321763182
0,2.3454489500447893,4.354113261261061,5.663400795223351,9.722583390094565,-0.23500326275598127
0,-7.1228658205221205,-2.705548862475267,-0.7658303225973174,-2.6755036423612233,-0.2300031933356408
0,-3.931182371330177,-3.8252124050629757,0.2849381999827292,4.016412479030029,-0.2250031239153003
0,2.8904992800573917,7.915122613857407,6.465706347272076,12.048331736152,-0.22000305449495983
0,3.652179116288527,5.585456174597607,3.1664741033771824,6.820254110413187,-0.21500298507461935
0,5.213857119922566,1.9657882571419172,6.877241452047007,11.522179582463929,-0.21000291565427887
0,0.8455332732082501,4.256118841027381,3.408008376566801,9.764108132047571,-0.20500284623393839
0,0.5372075580727218,-0.5135520945655427,-2.5012251402131374,-0.22396026198923402,-0.20000277681360146
0,5.71887995621536,2.5467754293033433,4.259540884281074,6.44797437848785,-0.19500270739326098
0,12.490550449048033,8.587101391363056,13.930306432401206,9.629912031097257,-0.1900026379729205
0,3.3522190174315023,0.8574257700216935,-0.4789285139523096,0.2618526729321551,-0.18500256855258002
0,-2.506114358439591,-3.7822514566829035,-1.978163973453464,-1.0562037194215632,-0.18000249913223954
0,2.3155503012156693,4.128069689098157,-0.13739996507402152,4.165742830338658,-0.17500242971189905
0,12.237212975980496,14.708389185088478,12.81336349213811,13.737692298303948,-0.17000236029155857
0,-0.8111263548980168,1.938707008578095,6.494126378839942,-4.290355339870792,-0.1650022908712181
0,9.600532287299503,5.309023136162353,4.574888675049062,10.321599890913802,-0.16000222145088117
0,1.8021888807655193,-6.590662456106301,-5.254349639843662,-4.426442034670131,-0.15500215203054069
0,-4.486156596729365,-12.420349792270326,-4.623588586695778,-3.684481142176884,-0.1500020826102002
0,-4.024504167575394,-3.9400388959459565,-1.402828186201273,-1.902517457122526,-0.14500201318985972
0,-3.2528538539838334,0.39027020992624417,-4.4220684587251595,2.129448995189893,-0.14000194376951924
0,-1.171205677833855,0.8205775028773095,0.04869057567101598,3.6414181895685536,-0.13500187434917876
0,-14.349559660645504,-11.789117039352403,-13.190551102771359,-4.786609899245821,-0.13000180492883828
0,-10.957915823375556,-14.118813438664924,-11.629793513304303,-0.8246352965645758,-0.1250017355084978
0,-2.3462741861266276,-1.0585117162037914,-1.2290366743812593,7.467341972348457,-0.12000166608816087
0,10.345365231748774,6.801788107669558,7.891719396271354,11.159321882104598,-0.1150015966678204
0,21.50700241095549,17.92208601277341,22.11247468100894,22.011304406685127,-0.11000152724747991
0,9.8486373313608,9.5323819782946,8.723229161408078,12.413289518876336,-0.10500145782713943
0,5.860269971533054,11.472675982304393,12.073982817766694,11.805277189968097,-0.10000138840679895
0,10.001900308889915,10.742968001702883,10.014735629122637,16.73726738980404,-0.09500131898645847
0,11.86352831994972,13.833258012284388,13.645487573398144,8.71926008689983,-0.09000124956611799
0,11.355153980303427,8.343545988725383,9.316238627414211,2.5012552485682313,-0.08500118014577751
0,5.3167772645214155,2.5038319046473854,6.0969887669121885,6.603252841223665,-0.08000111072544058
0,-3.981601853695942,-4.1158842670713165,-4.912262033219594,-4.784747169256495,-0.0750010413051001
0,-4.119983401069554,-0.42560255382828216,-5.471513798471907,-2.002744817222048,-0.07000097188475962
0,-1.52836740426357,-1.435322982963422,-3.5407665542067432,-9.070740136919667,-0.06500090246441914
0,-4.176753889664191,-4.605045581653131,-5.7300203253823865,-3.078733162207061,-0.06000083304407866
0,-5.505142883342685,-3.4347703768530398,-7.2392751364814885,-7.716723926410975,-0.05500076362373818
0,-7.043534410977898,-10.464497395165356,-7.39853101143599,-18.754712462209845,-0.0500006942033977
0,-6.001928497728402,-13.004226662612268,-11.817787973500577,-6.282698801375425,-0.04500062478306077
0,-4.200325168164785,-10.013958204344112,-8.027046045111508,-7.020682974592297,-0.04000055536272029
0,-5.788724446295519,-8.373692044465805,-9.856305247793694,-10.548665011576377,-0.03500048594237981
0,2.042873644341988,-2.563428206116431,-6.885565602164115,-2.5166449412476948,-0.03000041652203933
0,-0.7755309194844004,-11.2231667116755,-6.394827128005714,-2.974622791852128,-0.02500034710169885
0,2.566061839087417,1.9870924170971944,-0.12408984440447224,5.107401408797106,-0.02000027768135837
0,3.7376518968495978,8.757349158863747,4.166646229992322,3.9594276329725795,-0.015000208261017889
0,2.449239230400432,1.8876034922775644,1.907381076626812,2.711455852734331,-0.010000138840677408
0,-2.159176183902772,-0.38214460435139785,-5.171885323183809,-5.236513960141175,-0.0050000694203404805
0,-0.6375943698420679,-0.23189515299674934,-2.591152988152266,-4.414481833951033,0.0
0,-0.9260153511819247,0.6183518242843036,-0.9204219368038666,3.9575522031931833,0.0050000694203404805
0,-1.0144391515973092,-3.29140369455392,-5.649692187399028,-8.300411876594287,0.010000138840680961
0,-6.21286579463822,-6.301161731453542,-4.268963757906673,-14.068374100916161,0.015000208261021442
0,-6.971295303596827,-7.860922308048549,-6.9882366659032735,-9.596334496740717,0.020000277681361922
0,-8.369727701287998,-8.110685445425611,-11.767510928425827,-11.664293090039298,0.025000347101702403
0,-7.9881630098617755,-9.410451163956079,-10.786786561765082,-7.502249905709833,0.030000416522042883
0,-5.9866012507233215,-3.1802194832364217,-3.8360635812991806,-7.640204967676381,0.03500048594237981
0,4.914957555375154,7.4000095777581185,6.744657998368561,2.3018417009265804,0.04000055536272029
0,4.166513388000926,7.840236000219177,5.345378162913107,-3.786109922536127,0.04500062478306077
0,-12.401933773290162,-7.379540234943155,-10.01390310214804,-22.034059860325822,0.05000069420340125
0,-6.520383948834548,-6.229319147048422,-1.9731858113765246,-5.352008134006009,0.05500076362374173
0,-1.1688371584828126,-8.999100755176066,-4.052469979067609,-5.699954764091174,0.060000833044082214
0,-13.127293421461648,-13.628885077743947,-14.521755619045376,-14.40789977011522,0.0650009024644227
0,-14.975752756309657,-15.088672132220736,-14.00104274443847,-9.445843170730445,0.07000097188476317
0,-15.814215180557138,-15.87846193485608,-21.200331367263914,-4.723784983632541,0.0750010413051001
0,-22.952680710335905,-24.12825450042831,-19.10962149801692,-15.011725225580474,0.08000111072544058
0,-18.651149360082243,-21.918049841964176,-16.36891314542305,-16.65966391237598,0.08500118014578106
0,-24.30962114231615,-24.397847970448467,-27.96820631634027,-13.637601058610858,0.09000124956612154
0,-22.448096067492546,-13.82764889470233,-23.407501015610578,-15.925536677445127,0.09500131898646202
0,-18.91657414392177,-18.877452621523798,-15.826797245872136,-13.853470780571547,0.1000013884068025
0,-5.595055377894338,-12.377259155942907,-8.0560950076936,-4.581403378302051,0.10500145782714299
0,-2.4835397741644316,-6.637068501473184,-7.325394300083904,-5.489334479827012,0.11000152724747991
0,4.747972663347858,4.873119339499955,4.015304878923807,8.072735906349614,0.1150015966678204
0,-15.950518068953663,-17.176695634764346,-13.713997468157848,-14.605192227987233,0.12000166608816087
0,-9.079011974301336,-16.166513425430995,-11.2833013383328,-13.893118890746136,0.12500173550850135
0,-9.167509055168118,-12.716334032644903,-8.852606727828283,-8.161044089076938,0.13000180492884184
0,-7.116009313068533,-8.65615745520933,-11.061913631866938,-9.518967829058772,0.13500187434918232
0,-12.384512748616007,-19.23598369063691,-14.001222044635222,-10.906890115747371,0.1400019437695228
0,-13.423019361501987,-13.725812735163894,-18.910531959175323,-19.35481095318397,0.14500201318986328
0,-9.831529150349901,-8.725644583648362,-11.819843367162022,-15.962730344161072,0.15000208261020376
0,-3.150042112689532,-3.125479229694291,-0.8691562588778164,-6.890648290010547,0.15500215203054424
0,-0.20855824521018007,1.6246833339306987,3.041529376374722,-0.6885647907706177,0.16000222145088472
0,-2.207077544148019,5.054843114798701,1.2522135496457927,6.983520154252155,0.1650022908712252
0,5.204399994428301,8.535000120376942,9.662896271879239,4.8656065458425175,0.17000236029155857
0,9.155874374371894,11.535154357648995,11.383577553598764,7.947694384421047,0.17500242971189905
0,2.9373455991606976,-0.9046941671213512,0.3742574046472028,9.239783669815381,0.18000249913223954
0,3.4788136717310967,-4.064545448283763,1.4749358341903651,12.99187440109786,0.18500256855258002
0,5.410278594540305,0.8856005196059364,7.43561285096338,20.803966576337203,0.1900026379729205
0,-4.6082596303121175,-7.484256257883604,-3.9837115365886966,10.85606019228073,0.19500270739326098
0,-9.616801000856679,-4.414115774902877,-4.763037320203216,-1.9218447557088698,0.20000277681360146
0,-3.7253455148507433,-0.9239780252124365,-0.972364491541271,0.39025172679326475,0.20500284623394194
0,0.2361068304670083,3.3861569977672805,-0.9916930420076815,-3.007650366100441,0.21000291565428242
0,4.387556038224373,3.7262893006972613,4.058977037167827,-7.0055510401947245,0.2150029850746229
0,-5.560997888382421,3.4664188900523123,-1.5003542452466796,-4.253450300985943,0.22000305449496338
0,-2.2695549461530145,-0.6834542279857878,-0.15968688056148544,3.868651846436021,0.22500312391530386
0,-8.468115131683593,-3.003330047438352,-4.24902086009732,-9.869244602708095,0.23000319333564434
0,-7.956678441125468,-10.843208562269714,-6.978356175009327,-10.197139652890243,0.23500326275598482
0,1.7947551299523354,-4.903089766045132,-2.26769281610236,1.0849666919509087,0.2400033321763253
0,-4.683814413524292,-3.492973651715628,-7.597030773719515,-8.022925571510765,0.24500340159665868
0,-1.1623870663282057,2.1771397883009724,-4.216370037715155,-2.1608164461243797,0.25000347101699916
0,-0.3809628230260297,-0.28274943815167236,-1.455710597455805,-1.9487059343464281,0.25500354043733964
0,7.340458321925746,-0.03264132318708346,1.824947558068362,2.463405961667462,0.2600036098576801
0,6.481876373923425,4.0974641410353865,5.345604439991846,7.005519239831832,0.2650036792780206
0,15.643291337857756,5.757566962216448,9.126260059258588,8.687633897807794,0.2700037486983611
0,6.284703217788537,5.967667147733224,4.406914426332533,13.099749932661384,0.27500381811870156
0,-1.1038879831466915,7.337764704462746,5.5975675510615845,6.941867340594088,0.28000388753904204
0,-2.1424822624189215,0.7678596387155845,1.5382194427316325,12.043986116832674,0.2850039569593825
0,6.6789203823037955,7.337951956290622,6.738870110183694,6.2161062556472055,0.290004026379723
0,4.2803199532316185,2.8380416625475964,1.479519561865606,3.6182277504457634,0.2950040958000635
0,-0.4682835477116157,-2.7418712375375365,3.6901678058492893,1.2703505939770712,0.30000416522040396
0,-3.846890118873407,-3.7817867391860216,0.09081484988900235,-2.6975252213798204,0.30500423464074444
0,-14.135499758548898,-12.981704837461695,-11.2785392984076,-7.805399703306911,0.3100043040610849
0,-6.874112464522232,-0.22162552692320653,-2.6778946312424914,2.7567271407337324,0.3150043734814254
0,-10.212728233733763,-8.531548801489071,-4.78725114033715,-2.3011446964300677,0.3200044429017659
0,-7.561347062211793,0.3085253454756248,-4.786608816894647,-3.139015221789639,0.32500451232209926
0,-11.449968945102421,-1.421403078997197,-5.005967651662872,-11.356884442126365,0.33000458174243974
0,-6.058593876671095,2.598665932341195,-4.115327634934406,-4.454752363764245,0.3350046511627802
0,-3.107221850351265,-3.851267613204104,-2.554688756558066,0.9973810075810622,0.3400047205831207
0,1.1841471410382758,2.4487962916886725,0.05594899398054931,3.899515666603663,0.3450047900034612
0,-6.044486894983259,-0.11114234563142283,-2.5034143725653495,-6.118348391918492,0.35000485942380166
0,-6.793123950637801,-7.051083517781449,-6.792778845256115,-13.276211173117675,0.35500492884414214
0,-6.701764017730917,-9.09102721718325,-8.022144412831269,-10.814072681613618,0.3600049982644826
0,-13.770407087433,-14.600973435703336,-12.401511063451391,-9.161932921097868,0.3650050676848231
0,-2.389053150117295,-0.1809221643469252,-3.6808787844786717,6.080208105680438,0.3700051371051636
0,-7.277702195347115,-4.370873393290417,-6.690247562455503,0.5923503964993616,0.37500520652550406
0,2.923645787937716,2.8191728877964586,3.2403826167049328,3.054493949170055,0.38000527594584455
0,5.024990811102395,5.0292166893976145,8.511011767367517,11.756638761245123,0.385005345366185
0,5.026332885444424,1.9592580218671514,3.031639903738663,9.308784829769872,0.3900054147865255
0,-1.1423279780643416,-2.4307031046994934,-4.097732960373271,-0.9590678489383226,0.395005484206866
0,-0.4109917687453923,-3.460666680337741,-3.1971068113785,-0.8169192791779829,0.40000555362719936
0,2.0803415239661467,-2.3006326949743596,0.8635183644099833,-6.804769465450656,0.40500562304753984
0,3.8716719105717727,1.2593988616858847,3.214142580835858,-3.5726184120734703,0.4100056924678803
0,3.6829994013991545,-3.250571999889422,1.5847658517265115,-2.750466122985122,0.4150057618882208
0,2.2243240064816003,-1.5505452691130202,-2.564611809232166,0.4516873982411048,0.4200058313085613
0,-1.1243542644354663,-5.620520935223718,0.7760096115611528,-8.656157851698211,0.42500590072890176
0,1.9969645982133986,-0.4404989871925241,1.8866301277141053,-3.23400187580331,0.43000597014924224
0,8.89828060385557,6.429520586243886,9.127249752755938,10.158155323264893,0.4350060395695827
0,5.669593761608578,-1.390462203636748,-0.7721315000727929,1.5303137429136897,0.4400061089899232
0,8.63090408003226,6.959552654244877,4.8384863820732305,9.562473380216284,0.4450061784102637
0,4.702211567010922,0.6795651706911925,3.2591034116956967,0.5246342317265873,0.45000624783060417
0,4.803516229778391,3.1295753562097945,3.7097196009821536,12.086796293462665,0.45500631725094465
0,6.634818074994594,7.43958322100071,6.76033496175522,12.088959560814317,0.46000638667128513
0,11.056117108747989,12.02958877483638,7.360949505384436,7.1111240283206385,0.4650064560916256
0,4.777413336440658,4.079592026819202,6.561563242662162,9.083289689552714,0.4700065255119661
0,8.308706762713106,6.399592985274026,8.36217618371515,13.095456537153597,0.47500659493230657
0,8.739997391466089,7.299591657837724,5.042788337974392,12.44762456279309,0.48000666435263994
0,17.941285225791436,10.599588051498744,11.703399714168256,14.319793757006652,0.4850067337729804
0,16.242570267693974,12.739582172462388,16.604010320210115,20.881964109026967,0.4900068031933209
0,9.433852517807296,5.99957402598353,11.064620162940425,10.074135606609333,0.4950068726136614
0,5.545131975417767,5.559563616368914,5.075229247977483,5.146308236046188,0.5000069420340019
0,4.956408638796969,8.019550947147275,8.51583757988478,8.218481982489976,0.5050070114543423
0,2.317682505551186,-2.3004639787607353,0.16644516246059826,6.5806568302931225,0.5100070808746828
0,1.3189535728478932,-1.7304811588327038,3.7570519989744042,5.572832763126706,0.5150071502950233
0,3.360221837563644,1.7894994093397996,2.3676580923460175,0.6150097640506731,0.5200072197153638
0,6.541487296317628,-2.2805222717939424,-0.15173655475507508,5.7171878156609806,0.5250072891357043
0,0.2727499454001811,-0.7905461997335129,-4.121131939809711,-2.940633099765744,0.5300073585560447
0,2.804009780748022,7.109427628047514,9.519471939668954,5.981546999824752,0.5350074279763852
0,9.745266797981143,8.959399213921644,10.420075086012597,3.3137280962854105,0.5400074973967257
0,11.766520992261833,11.809368559744602,11.160677500984022,8.345910171155193,0.5450075668170662
0,13.987772357954569,18.789335666474667,13.85127918540319,10.348093205458998,0.5500076362374067
0,12.459020888323122,13.749300533835873,14.861880138942594,13.120277179467355,0.55500770565774
0,12.460266575394757,15.199263160096555,14.732480359981578,8.952462072475576,0.5600077750780805
0,8.121509409977083,12.499223542046941,7.823079845545604,7.194647862734456,0.565007844498421
0,3.3827493818151577,4.3491816751421934,7.353678591440434,5.696834527576148,0.5700079139187615
0,-2.25601352009032,-10.490862446115338,-9.88572340738306,-5.130977956335528,0.575007983339102
0,-6.3647793070419985,-8.560908827471023,-8.485126156229335,-1.4687896126406839,0.5800080527594424
0,-10.633547990172339,-12.620957474184154,-9.49452966000416,-0.9966004649335023,0.5850081221797829
0,-11.992319580015439,-11.971008390591825,-10.483933922812932,-5.644410536604151,0.5900081916001234
0,-14.631094086166046,-17.611061579899246,-13.913338947806807,-11.632219850732131,0.5950082610204639
0,-16.05987151703014,-12.28111704401082,-13.452744737050626,-9.240028429818127,0.6000083304408044
0,-7.828651879683249,-11.561174783450367,-4.912151291430718,1.7921637044204672,0.6050083998611449
0,-9.307435179937539,-10.991234797442363,-4.961558610788726,1.3743565308685217,0.6100084692814853
0,-11.416221422543522,-6.671297084074667,-5.390966694221496,-3.5434499713697925,0.6150085387018258
0,-7.995010611295792,-4.7113616404861425,-4.530375540284308,-1.6112558231323262,0.6200086081221663
0,-12.973802749024568,-12.371428463043992,-8.33978514702299,-6.359061045093793,0.6250086775425068
0,-10.422597837553065,-6.5014975473729075,-7.4191955119092805,-1.1368656576302811,0.6300087469628473
0,-4.091395877688476,7.628431111621516,4.231393368188993,3.7653303191800753,0.6350088163831806
0,-17.750196869284864,-14.621642480495694,-15.028018503106725,-18.41247313451481,0.6400088858035211
0,-9.639000811222667,-14.691718317758864,-8.567431121679636,-15.940276038091492,0.6450089552238616
0,-10.607807701271934,-9.881796393396625,-9.546844482654816,-0.16807840995083423,0.6500090246442021
0,-10.386617536072016,-8.221876699500466,-9.526258580214485,-6.71588026744026,0.6550090940645426
0,-4.085430311253387,-6.201959227116287,-5.06567340762858,-11.813681627165913,0.660009163484883
0,-7.334246021606887,3.257956033471808,-2.0850889573980442,-4.491482505071404,0.6650092329052235
0,-4.613064661249272,10.997869092320173,3.8654947784773865,7.240717083560093,0.670009302325564
0,2.5381137762296477,2.4277799592847513,3.636077808140592,-3.9870828762141155,0.6750093717459045
0,10.929289297484152,12.927688643640321,14.266660139498255,8.995117600623601,0.680009441166245
0,11.160461908898842,11.867595153898215,16.99724177979315,6.477318498827645,0.6850095105865854
0,6.221631616114796,10.727499497617268,9.037822735164713,8.479519802668541,0.6900095800069259
0,10.412798423870214,11.587401681261188,10.828403010476709,8.471721495726669,0.6950096494272664
0,4.7039623360542455,6.127301710214804,6.408982609459077,5.973923560817837,0.7000097188476069
0,1.345123355834503,-2.2428004110293562,1.3095615349583878,-1.643874019933191,0.7050097882679474
0,-8.833718514064193,-8.712904678442447,-4.379860210736714,-5.571671264803593,0.7100098576882807
0,-0.6425632709250046,-2.903011087903715,-0.929282625495392,0.5005318079251371,0.7150099271086212
0,-2.901410911736484,-5.703119634851287,-3.638705707052006,4.742735180136945,0.7200099965289617
0,-6.45026143314694,-7.253230314208433,-2.5681294529051026,-3.775061166248496,0.7250100659493022
0,-6.099114831434638,1.9366568795985732,0.12244613969134144,-3.4328572493504117,0.7300101353696427
0,3.662028897557831,11.176541952449702,7.393021073622749,5.8793469127788125,0.7350102047899831
0,3.4531697582755876,3.496424910072152,-1.196404648316895,-7.458448697822466,0.7400102742103236
0,-5.565692244832478,-0.3636942423012887,-7.095831023519391,-2.956244099024005,0.7450103436306641
0,-2.234557107345937,0.32618450015757605,1.714741950648704,-9.114039308418597,0.7500104130510046
0,-6.233424824656107,-6.623938857830708,-7.484685722931663,-8.281834343072005,0.7550104824713451
0,-4.832295391775998,-5.634064311374237,-7.604114041033791,-3.619629219376142,0.7600105518916855
0,8.608831196661965,12.575808144715653,9.93645699996838,7.242576046862546,0.765010621312026
0,13.349954946076638,11.295678515617857,10.42702740384553,8.0247814400032,0.7700106907323665
0,24.131075861256182,18.155546805843787,19.94759717386031,12.766986944004913,0.775010760152707
0,21.41219394560286,23.0754130186375,20.67816631208766,18.789192541954225,0.7800108295730475
0,30.053309200554732,30.785277155479136,24.878734818903776,26.471398215613178,0.7850108989933879
0,28.414421625195505,35.63513921552815,30.659302692588277,29.683603944872353,0.7900109684137213
0,25.40553121599429,31.734999195086164,28.119869928969052,22.965809707257012,0.7950110378340618
0,16.806637966800437,22.364857087353666,19.160436521220554,8.778015477837316,0.8000111072544023
0,17.127741869146423,13.584712882689717,17.56100246001899,12.130221229672037,0.8050111766747428
0,11.008842912674268,10.454566569251979,6.5215677340016125,10.432426934400453,0.8100112460950832
0,10.709941085504038,13.244418133628708,10.852132330301053,17.554632562504693,0.8150113155154237
0,6.7810363745314834,10.91426756117052,8.54269623495198,8.28683808325854,0.8200113849357642
0,6.712128765683145,10.244114836078628,12.33325943304331,8.269043464714809,0.8250114543561047
0,-1.356781755844985,6.413959941481055,1.2338219087397708,6.671248673890237,0.8300115237764452
0,8.124304794650367,9.563802859570526,10.844383645385978,11.363453676959661,0.8350115931967856
0,6.6353884014799265,7.443643571711576,10.364944625601805,4.545658439297849,0.8400116626171261
0,-0.44353095150920663,-1.4865179414715364,-2.464495168731406,0.2778629255387157,0.8450117320374666
0,0.2975467191065938,-2.3466816998479016,-1.4939357563143028,5.080067099796375,0.8500118014578071
0,1.5286213965397701,-0.2668477234130504,3.486622843940621,9.402270925812505,0.8550118708781476
0,-5.120306936043637,-5.1370160320480505,-4.832819386884313,-2.275525633105181,0.860011940298488
0,-1.1392382954063827,2.6228133545510843,4.817737532305782,5.416677385903986,0.8650120097188214
0,1.1518273018574807,0.9726404168268381,2.798293582572998,5.728879945357074,0.8700120791391619
0,-11.277110160648792,-7.297534864726571,-5.6911512551345025,-6.988917992525009,0.8750121485595024
0,-10.27605069896701,-5.587712509471195,-7.660596999872958,-8.286716465628437,0.8800122179798429
0,-8.95499432844436,-9.407892536348987,-6.790043670360216,-11.99451551148177,0.8850122874001833
0,-10.35394106350336,-10.19807496363462,-6.829491284706276,-4.242315166857733,0.8900123568205238
0,-9.972890917608089,-10.23825980876809,-6.3689398603468845,-13.860115467658053,0.8950124262408643
0,-6.361843903281513,-8.008447088255691,-1.2083894140935878,-4.8879164489204,0.9000124956612048
0,-6.820800032180335,-10.51863681766491,-3.2278399622681437,-0.2557181448798098,0.9050125650815453
0,-6.389759315216762,-12.608829011626439,-2.6572915208571075,-12.81352058914365,0.9100126345018857
0,-11.578721762612782,-4.419023683795444,-6.876744105554255,-14.151323814709396,0.9150127039222262
0,-7.9676873838214375,-0.10922084695331641,-4.0461977316785624,-8.239127853675637,0.9200127733425667
0,-8.98665618742692,-4.959420513315988,-9.225652414058398,-10.886932737042953,0.9250128427629072
0,0.1943718188162123,-0.1996226947891629,-0.46510816696335777,-1.18473849481687,0.9300129121832477
0,-3.8646033722353264,-1.2598274030551482,-1.9345650041625504,-8.712545156235528,0.9350129816035881
0,-6.103581767332896,-12.10003464956333,-5.964022939074622,-8.340352749916027,0.9400130510239286
0,-4.202563372863377,-5.590244445353257,-1.6634819848261384,-8.958161303805127,0.945013120444262
0,-3.0915481947750956,3.6395431991234024,-1.8429421542229423,-4.615970845077932,0.9500131898646025
0,-5.120536238585873,-4.310671726140879,-2.012403459796459,-6.053781400178242,0.955013259284943
0,-4.359527509408388,-3.090889230952967,-5.67186591385062,-5.9815929949274675,0.9600133287052834
0,0.3614779880351767,2.3188906750441656,3.078670471559254,-1.2194056546064287,0.9650133981256239
0,4.3024802492920085,2.818667982329953,6.739205684528868,5.372780595895481,0.9700134675459644
0,-3.866520730049008,-8.291557318617901,-4.750260286943904,-4.845034268185708,0.9750135369663049
0,-4.045524954419349,0.1282147627390273,1.2002725449612852,-0.7928502716215485,0.9800136063866454
0,2.5854675718662663,1.4179842171476793,2.2608041680121413,-0.010667439109681043,0.9850136758069858
0,-7.373543155308476,-10.392248964436618,-7.2686654300032965,-6.278485795196103,0.9900137452273263
0,-13.002557139774222,-7.262484790765242,-14.028136261118178,-2.536305364208663,0.9950138146476668
0,-11.70157438474216,-10.612723270004075,-11.34760833675091,-16.144126170080828,1.0000138840680073
0,-4.900594892470159,-13.152964409470561,-9.177081667312786,-2.971948236089743,1.0050139534883478
0,-13.959618664223106,-17.403208215428343,-12.106556262116491,-7.739771584702437,1.0100140229086882
0,-6.578645700342016,-8.953454692879365,-8.90603212943051,-8.157596237631434,1.0150140923290287
0,-4.207676000282996,-5.313703845554744,-4.635509276541382,-1.0754222159299491,1.020014161749362
0,1.7232904372019324,3.8660443237513054,-5.674987709913738,0.9167504598733576,1.0250142311697026
0,-5.985746386247849,-8.704210187278468,-4.48446743538582,-4.601078230459545,1.030014300590043
0,-2.0447864687536716,0.6855326192890908,-0.08394845831207623,-2.568908306995794,1.0350143700103835
0,-2.693829808169225,-1.414727258364669,-2.8134307836976173,-5.736739789553268,1.040014439430724
0,-6.192876402034398,-7.66498982181409,-6.982914416289498,-6.644572697569572,1.0450145088510645
0,-14.641926247465058,-15.035255072267159,-9.0223993604779,-9.872407049959726,1.050014578271405
0,-13.600979340832541,-18.42552301014335,-13.541885620026838,-14.800242864910777,1.0550146476917455
0,-14.19003567739018,-17.235793634564065,-15.41137319775969,-14.058080159605822,1.060014717112086
0,-4.599095251124501,-4.1360669431198565,-3.4908620953460443,-4.345918950038285,1.0650147865324264
0,-3.7381580549503166,-0.2963429321288625,1.339647686567861,-5.143759251130473,1.070014855952767
0,-3.4772240810727744,-10.286621597156543,-4.239843852084446,0.18839892291219656,1.0750149253731074
0,-0.20629332127715583,-2.3869029332866587,-0.17933671113663707,-1.9794444417310455,1.0800149947934479
0,-5.965365767060339,-4.047186935112151,-1.8688308902615143,1.3027106413055987,1.0850150642137883
0,-1.8344414096480897,1.2125264032046528,-1.8583263889744357,6.55486415841463,1.0900151336341288
0,-4.383520239951483,-1.8877629122478443,1.442176793344782,-2.1629839041582897,1.0950152030544693
0,5.847397751404181,9.041945124678348,8.212678657344467,2.70916643960954,1.1000152724748027
0,1.9783125738800584,5.861650519939383,3.253179203458586,6.881315175544575,1.1050153418951432
0,-9.800775763147676,-8.618646720890423,-8.066321568234024,-8.88653771072642,1.1100154113154836
0,-14.199867250165195,-13.92894659236502,-10.58582365772022,-19.424392233546307,1.1150154807358241
0,-4.368961877011525,-8.85924908852817,-6.865327064522725,-11.262248406575731,1.1200155501561646
0,-12.198059632600097,-12.699554202447487,-13.854831787348646,-12.710106242239588,1.125015619576505
0,-3.8671605049594233,-2.4998619261507633,-2.714337823994056,-3.8279657516916723,1.1300156889968456
0,-6.986264481341376,-2.180172250827444,-5.223845171419024,-7.15582694509179,1.135015758417186
0,0.194628451634407,2.499514832825689,-1.9633538259662582,-6.4136898318687505,1.1400158278375265
0,-1.6144816922219911,-6.770800665690279,-5.732863783554682,-9.151554420807324,1.145015897257867
0,-7.083594898831166,-3.3911187367112716,-5.6823750397130315,-18.599420719925146,1.1500159666782075
0,-8.972711153791176,-11.941439370218584,-10.401887589479765,-13.907288736166857,1.155016036098548
0,-6.981830442140796,-6.971762555586511,-7.661401427234097,-8.515158475146071,1.1600161055188885
0,-7.920952748191469,-8.172088281409952,-9.810916546556095,-15.873029941155929,1.165016174939229
0,-9.960078055483809,-11.102416535451018,-8.49043294016678,-7.900903137291049,1.1700162443595694
0,-13.989206346716685,-6.9327473046182515,-12.919950599893712,-12.038778065509447,1.1750163137799028
0,0.7916623963452298,-1.5130805749952594,-7.23946951661036,0.6033452732476033,1.1800163832002433
0,3.4525281926999476,2.256583667931092,0.4910103197216993,9.415466878696106,1.1850164526205837
0,6.4433910615938395,4.536245438882702,8.111488919710755,16.54758675054091,1.1900165220409242
0,4.3542510220296435,4.75590475243901,6.721966293963275,6.989704887755748,1.1950165914612647
0,2.0051080925680744,-1.0744383771415233,1.2524424526497746,4.901821288277023,1.2000166608816052
0,-0.1940377086152515,1.5652160641185486,1.5829174054554005,6.663935949165993,1.2050167303019457
0,-4.383186363531568,-6.955131909903653,-4.676608838203722,-0.003951133128678962,1.2100167997222862
0,-6.192337854116358,-1.0954822852146673,1.603863731062825,0.04816003743589378,1.2150168691426266
0,-5.361492161968636,-5.08583504754092,-3.655664877246021,-3.719730543267653,1.2200169385629671
0,0.0993507317767588,-4.156190182259996,-3.455194653475883,-6.747622879276965,1.2250170079833076
0,-5.839809153608648,-8.796547674339608,-10.484725587701751,-6.895516974289416,1.230017077403648
0,1.2310282014461076,-0.9169075082456754,-2.784257669520543,2.1765871684892786,1.2350171468239886
0,2.9318628167073433,3.1627303320126083,0.7062091120239156,1.5386895462306238,1.240017216244329
0,5.782694711931356,9.252365862565977,4.006674768223905,13.170790156117203,1.2450172856646695
0,11.203523906564826,12.0819990992061,10.35713931031669,18.12288899483359,1.25001735508501
0,9.584350419431928,15.181630056929093,11.357602749072427,14.894986058000725,1.2550174245053434
0,0.18517426855510033,6.311258749636666,5.128065094472497,7.007081339841532,1.2600174939256839
0,5.525995471260064,13.760885190088121,7.078526355639423,8.97917483328812,1.2650175633460243
0,3.2068140444104083,6.6105093899935,5.508986540961967,12.671266530247992,1.2700176327663648
0,5.257630004495131,4.520131360125727,3.64944565822067,5.893356421694966,1.2750177021867053
0,5.788443367586328,10.269751110469924,4.859903714672463,6.585444497695085,1.2800177716070458
0,-4.080745850662865,6.699368650310637,-0.6396392828502795,-5.772469252389877,1.2850178410273863
0,-4.319937634833007,0.618983988240013,-6.989183327757742,-4.220384839492719,1.2900179104477267
0,-7.209131969380459,-2.7414028676706863,-6.988728413364158,-8.258302274378085,1.2950179798680672
0,-0.9083288383568404,0.8782080904631451,-0.27827453257031415,2.9237784326260274,1.3000180492884077
0,-11.547528225329039,-22.082183129316736,-9.747821677782145,-15.414142728344649,1.3050181187087482
0,-7.896730113299597,-10.33257651833677,-6.067369840907592,-5.132065766628813,1.3100181881290887
0,-4.965934484560221,-2.762972066853266,-2.506919013286947,-0.35999069089561553,1.3150182575494291
0,-3.325141320686987,-4.473369764118205,2.0935308142489135,4.752082490710777,1.3200183269697696
0,2.0456493972578413,4.166230401187319,6.213979651079405,10.39415377009906,1.32501839639011
0,-6.993562311506191,-9.394171559368727,-10.575572493482598,0.07622313879107528,1.3300184658104435
0,-8.0927764275031,-6.914575633973854,-5.395125610095707,-1.1217094121802278,1.335018535230784
0,-1.2519929308252822,-4.674981810349796,-2.9846796890463807,0.5403561079584733,1.3400186046511244
0,0.5687881989137118,-0.3653900756462886,-0.754234720128028,7.622419689895149,1.345018674071465
0,4.12956698234822,-3.295800416587743,-0.41379069280793723,1.2344813241328276,1.3500187434918054
0,8.390343440019262,2.873787180333637,2.6466524035739707,7.306541000815496,1.3550188129121459
0,10.041117592045126,5.503372728679684,8.817094579610876,11.12859870960662,1.3600188823324864
0,-2.3081105420964727,-5.337043758111657,0.06753584559882131,-3.289345560424806,1.3650189517528268
0,-2.757340943451606,8.012537733227896,0.7579762114437907,3.3027081792596045,1.3700190211731673
0,1.933426406778214,1.9521172158028128,1.8584156867886343,8.844759916867256,1.3750190905935078
0,0.9841915274346338,3.6116947024520507,1.5088542811388468,3.7868096402591074,1.3800191600138483
0,-5.045045562624535,1.6212702056825945,-0.35070799612199416,-3.521142663157875,1.3850192294341888
0,-0.19428484448326389,-1.4591562622572638,0.8797288642888603,-0.42909700626208347,1.3900192988545292
0,-7.353526299026881,-8.979584689188163,-8.269835128352721,-11.067053401872375,1.3950193682748697
0,-3.282769906818185,-4.500015062692725,-2.1493999645895423,-9.885011862397997,1.4000194376952102
0,0.8579843519586354,-6.280447369852275,1.8910343653598312,-4.982972399542745,1.4050195071155507
0,-1.481263502591852,2.689118402780513,-5.558532128460961,-11.700935024182781,1.410019576535884
0,4.969486549733924,4.798682268951796,1.521900564150978,-6.408899746382199,1.4150196459562245
0,-1.5497654709190674,-3.181755757607459,-2.937667546450078,-7.286866575394393,1.420019715376565
0,-7.359019544473754,-9.552195663233299,-8.00723644972129,-13.594835519663267,1.4250197847969055
0,-8.148275650679746,-3.622637434024061,-2.0468061348079543,-10.782806586742725,1.430019854217246
0,-2.0275337687994135,-1.11308105558594,1.4336234095394724,-3.8907797831873867,1.4350199236375865
0,-5.606793877525584,-8.34352651306287,-0.5059478051729729,1.241244885304587,1.440019993057927
0,-9.456055955039584,-3.773973791185479,-5.245519767348504,-11.446732586437294,1.4450200624782674
0,-1.4953199789794906,4.425577125734143,-2.475092465251924,-6.564712203151174,1.450020131898608
0,-3.694585926430487,-1.1348737463687693,-1.794665886881798,0.7573060309928802,1.4550202013189484
0,-4.183853774042749,-3.545326391528924,-7.844240019923841,-1.0906778876761987,1.4600202707392889
0,1.4968765018551298,0.72421920625771,0.9961851482795938,7.301336037353821,1.4650203401596293
0,5.117604925118562,0.07376306310704062,6.736609630665066,7.133347802436407,1.4700204095799698
0,10.058331519487115,8.093305195151116,10.507033440107307,18.81535740339107,1.4750204790003103
0,0.18905630825565,6.2228456182879395,4.417456588975677,5.287364835115457,1.4800205484206508
0,0.8597793142094254,-0.4576156520351682,-2.462120911006491,3.069370091454746,1.4850206178409842
0,-0.1494994401709453,-4.168078600759015,-3.1016990484965317,-0.5186268345133472,1.4900206872613246
0,3.72122006748,3.451456787072023,3.7887221878204382,6.603374049907332,1.4950207566816651
0,8.531937859367861,12.190990526380606,7.689142809266048,8.78537273710943,1.5000208261020056
0,12.362653957278527,2.8105226317537273,9.159562826870031,4.797369218995997,1.505020895522346
0,7.763368382247318,9.240053117149849,2.51998225107144,10.309363486811783,1.5100209649426866
0,-0.5359188455576348,-3.5104180040971205,-2.869598908280804,-2.3386444688652337,1.515021034363027
0,4.004792293383438,-0.13089071904691774,2.630819358354366,9.403345341996463,1.5200211037833675
0,-7.574498181705833,-13.161365014789956,-11.818762939486309,-13.524667090913834,1.525021173203708
0,-5.743790251561968,-7.571840878015943,-5.528345791985711,-1.7726817779152368,1.5300212426240485
0,7.086916103356142,7.77768170522765,4.2220708111661365,4.4493012709680535,1.535021312044389
0,-3.312379097192306,-0.8527972506928017,-4.977513119318359,-3.528717954038193,1.5400213814647294
0,3.4883241665393543,-0.523277731406668,0.19290242744548558,-1.7367394626483699,1.54502145088507
0,-6.110974085768464,3.676240277334813,-3.866682537527435,-4.734763264474647,1.5500215203054104
0,-0.9402738343689288,0.22575678968216084,-1.7162680030274708,-3.5627893688702166,1.5550215897257509
0,1.940424940653239,1.0352718196577977,5.19414604233093,-1.150817784857141,1.5600216591460914
0,2.561122259313628,1.554785381154681,-0.905440390031588,-6.398848521135016,1.5650217285664247
0,0.6318181415489985,1.644297487952333,0.0349727112034568,-5.506881586056227,1.5700217979867652
0,-0.04748739285235182,-5.436191846259998,-0.8846146427247958,-3.564916987533558,1.5750218674071057
0,-0.036794324199127315,2.8733173922174515,-1.1442024405586317,-4.6329547330011795,1.5800219368274462
0,9.28389736711581,7.322825217119025,6.876209328981876,5.3190051704900645,1.5850220062477867
0,4.884587700441528,4.812331641988895,2.2966206770592774,6.0409627160134525,1.5900220756681271
0,6.275276694632939,3.441836679928687,1.677031614550716,3.7429178964123087,1.5950221450884676
0,9.385964367930423,8.071340343535399,9.607442151991082,10.594870704051388,1.600022214508808
0,9.316650737884618,3.2808426449022425,5.727852299486569,8.53682113067094,1.6050222839291486
0,2.85733582127521,-1.0096564043596488,0.1282620665971529,1.2287691672794554,1.610022353349489
0,3.9080196341830344,0.059843207047999725,1.348671462418545,-1.1792851957291717,1.6150224227698295
0,3.6087021921827915,-1.0306585096638416,5.869080495775142,2.1226580317372163,1.62002249219017
0,-1.4106164894997515,-3.441161543236001,-4.140510824713991,-1.6154011603097833,1.6250225616105105
0,-6.779936395806885,-5.961665882246568,-8.73010249052344,-9.03346278182109,1.630022631030851
0,-7.959257511527239,-0.6921715149739802,-7.489694492869647,-8.721526842459305,1.6350227004511915
0,-5.228579820964571,-2.2226784293583837,-3.399286822382056,3.780406648658657,1.6400227698715248
0,-1.02790330782453,-1.2831866130865726,-3.978879469071331,-2.75766231711175,1.6450228392918653
0,-7.047227955317677,-4.833696053650394,-6.068472422455048,-6.295733748178866,1.6500229087122058
0,-5.066553746240132,-1.1642067383115124,-3.1180656716099,-5.943807652701517,1.6550229781325463
0,-5.1258806629181,-4.314718654055975,-5.047659205166583,-10.911884038351953,1.6600230475528868
0,-3.745208687168107,4.404768212377046,-0.517253011344758,-3.709962912127008,1.6650231169732272
0,-7.944537800312853,-2.5857461256282948,-8.126847078003546,-10.208044280289723,1.6700231863935677
0,-8.093867983140292,-12.886261654594934,-10.886441392577698,-10.79612814835121,1.6750232558139082
0,-6.303199215789892,-7.2867783606740755,-12.576035941819908,-15.514214520935749,1.6800233252342487
0,-4.832531477706431,2.1827037706538706,-4.155630711552786,-6.512303401584738,1.6850233946545892
0,-1.5518647477321907,-4.567815245520906,-1.855225686712849,-5.150394792757249,1.6900234640749296
0,2.3388009956943696,2.1916646061656677,1.8351791483229243,1.4915113038850454,1.6950235334952701
0,3.2994657742690263,1.0311433411762811,6.395583809338102,-1.216585112907468,1.7000236029156106
0,-0.11987039040881964,-2.9593790250158776,0.1659883119637805,1.975315955744128,1.705023672335951
0,0.3007925230924846,0.7500975230669404,0.8563926715546477,-2.502785491274927,1.7100237417562916
0,6.991454536064541,5.009573000923272,2.856796903254099,6.359110544891466,1.715023811176632
0,10.602115669535863,2.53904742395261,5.3972010220286375,1.8510040629839977,1.7200238805969654
0,8.162775943965462,6.1085208072720505,5.017605042557099,1.542895061505603,1.725023950017306
0,0.16343537905346683,-0.6820068343650504,1.57800897911383,1.4647835387049062,1.7300240194376464
0,-2.2859060060894594,0.22746451349442443,-3.311587154376624,-6.513330507305194,1.7350240888579869
0,5.054751807402997,0.46693486515570604,3.288816655858158,5.1685529216133315,1.7400241582783273
0,-1.8045911616851793,-0.1135957651154137,-0.16077957643685425,1.5404338236556565,1.7450242276986678
0,2.1760651053310687,3.63587263690908,0.029624162438160906,1.3423121969319782,1.7500242971190083
0,-0.9032793729544562,2.2353400853462824,2.3000278861143806,1.1941880393710134,1.7550243665393488
0,11.497375421937868,14.794806594036274,13.680431608066268,13.64606134866963,1.7600244359596893
0,12.448029508122534,13.58427217620625,13.22083534127133,16.197932122010183,1.7650245053800298
0,3.3486829029807605,6.583736844095632,4.8012390977989625,3.719800355620502,1.7700245748003702
0,-1.5406643769096,2.8432006088961312,1.8316428887612908,0.2916660447053576,1.7750246442207107
0,5.889987684537097,5.542663481035065,7.682046724598276,9.633529183790275,1.7800247136410512
0,1.2006391031537336,1.6821254704476292,4.042450615273775,0.9253897669616225,1.7850247830613917
0,3.851289894522825,-0.7084134132792818,2.282854570284742,4.557247787872277,1.7900248524817322
0,-0.6480599260410983,-2.5389531607399776,-0.1367414012724238,5.219103239763111,1.7950249219020655
0,1.6725896565770733,1.1805062374770179,-2.126337290513346,4.300956115473849,1.800024991322406
0,-1.0767613426200757,1.4299647908457043,0.09406691142199353,4.8928064074025395,1.8050250607427465
0,-3.556112908650185,-7.620577491125572,-7.385528786496775,2.714654107499659,1.810025130163087
0,8.784534973504433,4.938879401161771,8.084875624880405,14.35649920724645,1.8150251995834275
0,-9.334817681150234,-3.911664522554058,-1.9847198452013126,-1.1516583024624734,1.820025269003768
0,0.07582914239264404,0.8077907475521133,-1.4943151875552418,3.2401815686556525,1.8250253384241084
0,11.32647545921591,8.667245221302188,11.90608960688967,9.25201881042365,1.830025407844449
0,-3.1328787156821947,-3.34330109163734,-2.5335054530156462,-2.2761465877239617,1.8350254772647894
0,19.607766632294528,16.786151818067093,15.826899641157235,13.605685363208773,1.8400255466851299
0,-7.651588482850676,-1.7443960407430672,-7.782695102688238,-10.11248534821219,1.8450256161054703
0,0.4790559523600859,3.855055340207957,4.197710322925501,0.319341266324563,1.8500256855258108
0,5.839699951178583,10.68450596871256,9.818115925229243,-3.868834804802508,1.8550257549461513
0,-2.689656473220118,4.5239558520746606,1.1785217111463269,-5.177013572935946,1.8600258243664918
0,-1.2290133077656336,5.243404996982736,0.9489276871531973,-3.595195049076106,1.8650258937868323
0,-3.058370539387008,1.502853409539385,-1.520666140595941,-3.693379243831998,1.8700259632071727
0,-13.557728154780069,-17.29769890445089,-16.42025976593345,-15.861566167344828,1.8750260326275061
0,-8.537086140101618,-12.568251938895761,-10.15985318220379,-4.799755829086547,1.8800261020478466
0,-2.3664444807080147,-5.56880568679983,-5.239446381840913,-3.64794823769818,1.885026171468187
0,-0.7058031612336376,-2.609360140144878,-4.069039356347401,-7.806143401101634,1.8900262408885276
0,2.544837834065017,0.40008470976319677,1.271367903405878,0.5456586733160766,1.895026310308868
0,-0.6245214789900039,2.089528871903565,1.991775406841719,3.9274579785328294,1.9000263797292085
0,-9.003881084568672,-9.921027644652444,-6.687816836540419,-13.960745492290558,1.905026449149549
0,-0.14324096665517483,-6.481584830622449,-3.5774088171340686,2.5910482542204756,1.9100265185698895
0,10.56739889103347,8.617857323690297,12.562999474865176,9.602839211730618,1.91502658799023
0,5.098038504719973,-0.18270117176056372,7.8134080491894355,0.864627373886658,1.9200266574105704
0,-1.6913221098134275,-5.013260307082886,-5.316183084917926,-5.993587265977557,1.925026726830911
0,0.11931706281202581,-4.763820072397332,-0.4657739186502804,-7.841804714616805,1.9300267962512514
0,2.1799560378329503,0.9356195424210836,1.8046355567258732,1.6999750215355103,1.9350268656715919
0,-2.899405169543638,-5.894941452192639,-2.164954649987661,0.31175193642876237,1.9400269350919324
0,5.411233455854115,3.544496954431062,3.71545547001928,1.2635260241630393,1.9450270045122728
0,10.241871929056487,9.00393477304221,8.825865925450392,9.155297278746332,1.9500270739326062
0,-9.137489735240173,-11.346627985751184,-14.633723275210496,-6.282934306061819,1.9550271433529467
0,7.103148477351096,1.9528086885441778,2.676687876460475,3.098831263265354,1.9600272127732872
0,-9.956213418843651,-10.747755193387043,-11.522900610809575,-15.449406019728233,1.9650272821936277
0,4.5644245906170795,-3.1383196204291393,1.0575112721836986,-2.5076461611233927,1.9700273516139681
0,-2.9649374796718844,-2.058884580963265,-1.852076464923936,-1.87588916640062,1.9750274210343086
0,1.2257003849811818,0.24054993704259553,1.008336187768402,-6.684135040505451,1.980027490454649
0,5.78633819926184,12.489983945755599,5.578749240213437,-0.8323837879921762,1.9850275598749896
0,0.20697597771093645,-1.7405825428903683,3.6591627022093816,0.48936458690817053,1.99002762929533
0,7.997613734594777,13.788850482547653,9.849576583187124,12.83111008007859,1.9950276987156705
0,1.1682514838201628,6.568283032894894,4.9199908920323585,11.252852687063854,2.000027768136011
0,5.248889238902111,12.377715118203659,8.340405636977803,11.324592402590314,2.0050278375563515
0,7.599527012942593,8.85714674760595,7.8208208255631115,8.966329220327598,2.010027906976692
0,2.2301648185753997,7.396577929276878,2.5612364646375414,7.678063132915015,2.0150279763970325
0,8.560802667916322,9.356008670489778,6.681652560428651,11.009794132065139,2.020028045817373
0,0.8714405725683234,-5.554561022237571,0.5920691186630993,0.40152220865279836,2.0250281152377134
0,1.332078543691657,-1.2651311428200054,-0.13751385530060714,1.9732473528867236,2.030028184658047
0,3.392716592139832,6.494298314748739,7.082903643656385,6.594969554558711,2.0350282540783873
0,-2.1666452714246054,-9.136272643502886,-6.48667837952962,-2.8633111968319307,2.0400283234987278
0,6.583992963510889,6.563155988463359,4.353740079949552,9.918405087931873,2.0450283929190682
0,8.074631307238509,7.852584216661386,8.234159026812003,7.3001183977134225,2.0500284623394087
0,9.605269769586526,5.092012046826057,6.604578465489907,13.961828720780076,2.055028531759749
0,6.865908359665843,-0.3985605158201586,3.6149983998660575,2.743536044552204,2.0600286011800897
0,9.636547085773719,9.180866533481554,6.165418833228985,14.52524035554724,2.06502867060043
0,8.59718595538637,12.950293199030325,12.065839768301196,10.076941639382003,2.0700287400207706
0,8.81782497513962,13.129719484373604,10.626261207092192,12.948639880666558,2.075028809441111
0,-1.5915358491269005,0.03914539204431769,-2.2333168492456217,-2.0196649370295408,2.0800288788614516
0,5.0191034878449585,-1.101429076269466,3.487105599753262,-0.5079728308921079,2.085028948281792
0,6.989742990939602,2.897996080729392,0.2075285542173491,5.773716181567135,2.0900290177021326
0,-0.679617335322553,2.2874208642129945,-4.84204798583762,-6.424597917274805,2.095029087122473
0,0.2010225132255245,-0.08315472478137133,1.018375979637054,-5.732915145037325,2.1000291565428135
0,-0.4883374594263189,0.2262693146372021,-2.5111995491698247,0.1487644808966977,2.105029225963147
0,0.55230275068705,-0.10430701671576453,1.7892254280610023,9.350440943414865,2.1100292953834874
0,-2.127056852453508,2.3851162819432616,-0.24034908829663376,-5.127885774618813,2.115029364803828
0,-0.44641626482117547,-3.8254607886385243,-2.3199230978602086,1.8337843094632968,2.1200294342241683
0,-0.56577548230841,5.243961772261693,-1.7594966001986352,3.935451178218673,2.125029503644509
0,4.514865499244032,5.883383965285264,1.7909304052303698,-0.37288518588802133,2.1300295730648493
0,14.035506683844126,15.092805790725752,13.36135791896657,8.868775199406665,2.13502964248519
0,-1.4638519249812791,-1.3077727518026299,0.37178594121324476,-9.349567683886994,2.1400297119055303
0,1.5467896757019555,10.281648336557673,4.032214471619804,-4.677913853841271,2.1450297813258707
0,-8.932568511472079,-4.118930945917395,-4.167356490588026,-5.736263328251777,2.1500298507462112
0,2.9880735162243046,6.410489398674468,8.223073053629898,7.055383875527194,2.1550299201665517
0,1.5687157617344365,-1.960090632001104,5.0135031031351165,-1.362972259641629,2.160029989586892
0,1.3793582280533427,3.5893289595513123,1.8339336564310933,-3.1313317509332137,2.1650300590072327
0,-6.309999081894629,1.1487481706729903,-1.6556352883699421,-4.439694615505846,2.170030128427573
0,-8.809356165084258,-10.08183300138357,-9.155203733299427,-11.308060870236634,2.1750301978479136
0,1.1912869819038145,1.7775854407512595,-0.2647716801790337,-2.5164305314646334,2.180030267268254
0,1.5019303629182188,4.0670034946975875,-1.2043391304525655,-7.964803614879552,2.1850303366885875
0,0.6125739819766612,-3.8035788418268033,-2.613906085276726,-6.843180135540926,2.190030406108928
0,0.7032178430467748,3.015838428839666,-0.9534725456314748,2.988439892061388,2.1950304755292684
0,9.073861949959124,19.265255304196902,9.676961487592907,8.730056453770532,2.200030544949609
0,14.684506306182307,18.924671781118256,16.88739601327421,17.45166953521714,2.2050306143699494
0,19.405150914358337,25.30408785510783,16.537831029463288,14.533279121167851,2.21003068379029
0,19.65579577577417,14.993503519783836,13.588266532879498,10.714885195102841,2.2150307532106304
0,-7.913559109834237,-9.377081233046233,-12.09129748109004,-11.90351226069605,2.220030822630971
0,-8.892913743764806,-10.787666412559924,-10.840861017699176,-10.891913264442419,2.2250308920513113
0,-8.88226812735239,-13.428252027767153,-7.920424081879343,-3.750317833976486,2.230030961471652
0,-9.191622261261529,-15.048838086727788,-13.249986677680619,-13.428725986341748,2.2350310308919923
0,-2.250976145330519,-3.7494245963023083,-8.329548808154119,-7.187137737736933,2.2400311003123328
0,-5.690329778700914,-2.7300115623008363,-3.2191104753832467,-4.405553103510899,2.2450311697326732
0,-3.9396831599929594,-1.8305989898706172,-5.598671680666376,-12.48397209821741,2.2500312391530137
0,1.9809637125760364,4.068813116143602,1.3117675752293365,3.3676052642926715,2.255031308573354
0,1.6716108410274715,-0.30177524904404884,3.7622072918150913,-1.2508210293004927,2.2600313779936876
0,4.542258227371687,8.247635909650324,5.382647468584995,6.80074900788103,2.265031447414028
0,3.8129058734002026,4.167046587007338,5.043088104737355,-0.7676846374059685,2.2700315168343685
0,-3.576446219385579,-0.22354322261104276,0.8235291990454038,-0.44612197862224323,2.275031586254709
0,-0.925798049650985,-6.124133525151509,-7.4960292500295,-4.304563029321347,2.2800316556750495
0,-3.585149616007713,-3.604724326533022,-5.295587243997775,-2.853007802941266,2.28503172509539
0,-5.6745009168467675,-4.095315632358246,-5.075144783985648,-3.701456312654767,2.2900317945157305
0,-0.4438519502442706,4.454092552125127,-2.0047018706138373,-1.949908571320869,2.295031863936071
0,1.096797286029573,3.2535002218155955,2.485741495891428,2.5616354084641992,2.3000319333564114
0,11.887446794279779,13.652907371408572,14.436185315383991,12.883175614141933,2.305032002776752
0,3.458096576507503,0.3123139950623277,6.976629587313052,7.214712032772605,2.3100320721970924
0,1.0487466341650764,6.471720086283535,2.2170743103683774,1.4762446507107223,2.315032141617433
0,4.399396968229492,3.4611256380360294,5.007519482534208,5.99777345364578,2.3200322110377734
0,5.220047579343911,0.9805306428664128,1.8779651013216239,5.509298426778974,2.325032280458114
0,0.2906984678155387,1.3999350930032028,-0.15158883608111334,-2.889180445103309,2.3300323498784543
0,-6.028650366322487,-4.630661019490904,-2.291142332673578,1.3123368224905914,2.335032419298795
0,-9.537998922997659,-7.65125770248958,-8.880695391414255,-10.06614978598276,2.340032488719128
0,-8.337347201672458,-12.661854963474127,-9.760248014912204,-6.144640285796125,2.3450325581394686
0,-20.62669520098768,-19.68245280911401,-19.999800205034482,-15.20313469162577,2.350032627559809
0,-6.586042918467894,-8.89305124486817,-8.67935196252154,-5.571633017282585,2.3550326969801496
0,-7.435390350417701,-14.103650274819154,-7.908903286832872,-8.840135275621998,2.36003276640049
0,-21.38473749203633,-24.964249901672943,-20.53845417624611,-20.48864147854827,2.3650328358208306
0,-3.5340843374241047,-7.254850126631646,-8.758004627863489,-5.557151636881482,2.370032905241171
0,-4.1834308795663615,-6.835450949369789,-5.077554637547402,-3.5756657602867397,2.3750329746615115
0,-4.392777110625406,-2.7760523684195686,-5.6371042001344405,-8.83418385753319,2.380033044081852
0,-8.932123022233222,-13.326654381586218,-10.566653309735507,-13.902705936699256,2.3850331135021925
0,-2.1114686055062237,-7.107256985994921,-5.626201959786508,-9.511232005022944,2.390033182922533
0,-9.080813850997302,-4.297860177975797,-5.635750142998804,-8.919762068711758,2.3950332523428735
0,-3.6801587486936267,0.5915360468432287,-3.4052978514278984,-7.448296132970803,2.400033321763214
0,1.140496711938597,0.5609316932276064,0.31515492335872985,-0.616834202178252,2.4050333911835544
0,8.851152541718905,5.32032676602301,7.715608190034352,2.4046237198352247,2.410033460603895
0,-4.038191248620926,-6.060278730026286,-4.8339380427798515,-13.003922370482126,2.4150335300242283
0,0.8524653514164124,1.959115209748119,3.916516233362155,-5.102472476361092,2.4200335994445688
0,4.5031223522038255,-1.4914914099354781,1.2769710267900418,-7.831026600441163,2.4250336688649092
0,-2.6262202359651607,-1.2020985842719227,-1.412573654261524,-8.799584744628913,2.4300337382852497
0,-2.365562402880255,0.6372936916134513,-0.05211780163574481,-11.708146910055742,2.43503380770559
0,-2.414904138276551,-2.7233145773356027,-4.431661407150171,-5.746713096989773,2.4400338771259307
0,1.0757545682844054,0.75607661390157,4.128795537487955,-0.06528330486914719,2.445033946546271
0,-1.8535862726104526,2.4854672704032215,2.51925304062776,-3.323857532561767,2.4500340159666116
0,4.307073349677681,3.814857397198903,5.1997111104823,3.407564221338748,2.455034085386952
0,-1.132266554253278,-2.2857530008537226,-3.3098302450062427,1.6489819583032586,2.4600341548072926
0,2.158394026088794,1.6136360809446106,-0.7093710180884482,-3.099604320261324,2.465034224227633
0,6.889055101050746,3.1630246472099595,2.761088798964744,9.701805386945015,2.4700342936479736
0,2.2297166807199273,5.372412702422288,3.3315492138707077,0.34321108103601483,2.475034363068314
0,-2.639621225151831,-3.06819974919178,-1.9279897657872835,-6.945387237128651,2.4800344324886545
0,2.401041392974649,7.291187296341815,5.882471867401155,-0.6939895667469393,2.485034501908995
0,10.961704544513239,11.860573842709352,12.192934120601228,2.0374040931747235,2.4900345713293355
0,-7.657631761378469,-5.750040106881166,-5.36660299947351,-4.861206256198433,2.495034640749669
0,-1.4969675157914848,2.6493454503101366,-0.3961394865548258,1.1501793863953318,2.5000347101700093
0,3.543697290197205,2.6487305168193402,0.9743246654937361,2.571561022306779,2.50503477959035
0,7.234362665554624,7.408115095043798,2.564789462839737,2.5129386528718434,2.5100348490106903
0,-3.8949713809516746,-4.3225008128992215,-3.6147450883829584,1.1443122792663005,2.5150349184310308
0,2.405695159185096,3.906882794837319,-0.45427898206477413,6.1156819024399605,2.5200349878513713
0,-3.813637705619139,-5.5837340799987665,-4.793812211991927,-1.3929524769174153,2.5250350572717117
0,0.08703003310661711,-3.6043514355845985,-0.9433447717389208,-1.7015908583376602,2.530035126692052
0,7.467698383890612,2.93503073010772,8.397123345299123,9.849766758523169,2.5350351961123927
0,-6.291632644808043,-11.715587580650121,-6.522407854283735,-14.008879626085585,2.540035265532733
0,1.2190369553645948,-0.31620636528456697,-2.4319383639734684,3.0824699880964266,2.5450353349530737
0,6.129707192742356,6.36317437912516,6.348531822802778,10.73381560147266,2.550035404373414
0,1.0403780755667609,-1.6074453443663173,-0.770997287334842,-7.594842785600799,2.5550354737937546
0,0.8510496118337678,2.8419344671641094,3.459474312099016,-5.83350517292876,2.560035543214095
0,1.5517218093143013,0.9413138164703483,-1.5800533725970463,-11.412171560107291,2.5650356126344356
0,0.9523946756422927,1.2006927061725707,6.130419664729876,-2.890841946104925,2.570035682054769
0,4.493068218316904,-3.269928861212186,2.5908934300467945,0.10048367078586184,2.5750357514751094
0,2.6937424446339597,-0.050550883171108535,5.801367929015289,-3.938194707288109,2.58003582089545
0,1.8044173616156578,1.3788266428861404,4.701843166892746,-2.5668770779311454,2.5850358903157904
0,-3.0649070239540173,-1.8717962803982442,-3.777680851467204,-9.635563438468242,2.590035959736131
0,-3.154230705357208,-1.952419650353878,-3.6072041214255215,-5.444253785766583,2.5950360291564714
0,-1.7735536757355497,1.6269565357624196,-0.026726638267860037,3.5370518838554634,2.600036098576812
0,-0.4328759280072276,-2.753667719220452,-3.6662483970602944,-0.36164642555533916,2.6050361679971523
0,-3.4321974548978376,-5.114292412375967,-3.8157693926461236,6.019651290082426,2.610036237417493
0,-6.2515182489336185,-5.044917540549454,-2.895289619600435,-3.889054965312925,2.6150363068378333
0,-0.8408383023360775,1.3844568997721742,2.995190927781934,0.2422348120375959,2.6200363762581738
0,-9.200157606936578,-11.436169087536516,-5.1243277446136055,-15.706479373999446,2.6250364456785142
0,-12.179476154063478,-9.356795498162166,-11.713845630722107,-12.14519751905182,2.6300365150988547
0,-4.55879393432682,-4.627422327120435,-3.9833627240372254,-11.063919617792948,2.635036584519195
0,-1.648110937541924,-2.8880495686850893,-1.2628790174122875,-3.392645663780722,2.6400366539395357
0,-5.047427152932863,-5.108677216561737,-6.452394503169716,-1.6613756496860943,2.645036723359876
0,-6.1767425693192335,-1.30930526404864,-5.281909173228719,-3.4001095676505213,2.6500367927802095
0,2.313942824869431,0.9400662958673323,2.1885769808991316,2.891152590460024,2.65503686220055
0,3.9846290414803125,4.169437470340932,4.249063967979579,4.802410832865876,2.6600369316208905
0,6.165316092323323,5.2588082664217355,4.219551796737454,2.173665167643204,2.665037001041231
0,7.916003988845403,6.6881786908236585,8.040040475569898,0.1949156025898955,2.6700370704615715
0,2.3666927419503305,0.6475487497941437,1.0705300124001802,-4.693837854685926,2.675037139881912
0,5.117382361988896,-3.3230815508124705,0.9810204146976178,-6.092595196515619,2.6800372093022524
0,8.448072858820138,12.016287794647262,9.101511689592092,-0.4713564149241234,2.685037278722593
0,-6.071235758159357,-4.5943432083828215,-6.457996156080911,-8.110121501541318,2.6900373481429334
0,-0.8905434798471723,-3.7849745546861837,-2.6575031156744156,-3.0288904475852862,2.695037417563274
0,0.6901497028621593,-0.4056062390558768,-2.677009182452042,-4.107663243832544,2.7000374869836143
0,4.9908437991544785,3.333761743881317,5.483485650553006,1.6135601193434375,2.705037556403955
0,5.341538818096125,5.693129399518024,8.44398139032438,9.374779651745143,2.7100376258242953
0,-2.877765231552631,-7.897503266932714,-4.595521956450703,-8.984004636939105,2.715037695244636
0,-2.987068341265396,-2.9681362503341915,-6.005024383362692,1.337207262833585,2.7200377646649763
0,5.5636294974689555,1.8912304546406484,3.3854741160533273,5.148415360631384,2.7250378340853096
0,5.4543282931394454,7.040596853496132,1.815973548447353,-1.4503803339805128,2.73003790350565
0,1.975028053976418,6.159962951578749,4.756473920447797,6.620820188391789,2.7350379729259906
0,9.025728787791607,5.899328753763972,5.286975238422739,19.852016936779606,2.740038042346331
0,5.486430501903998,3.608694264353698,3.977477508348402,14.233209919406306,2.7450381117666716
0,-3.6628667968892783,-6.831940512804845,-4.6820192641873,-8.365600856677876,2.750038181187012
0,1.9778368978536713,-1.0325755740047757,1.4284849262057155,-1.8444153852515925,2.7550382506073525
0,-5.391458407495896,-8.113210915338996,-3.201009915055106,-5.033233660179793,2.760038320027693
0,3.5492472935279555,-4.093846532495588,0.21949621756090837,1.1679443249728658,2.7650383894480335
0,-5.220045992493916,-10.934482420633465,-4.209996670283857,-10.620881423043034,2.770038458868374
0,-1.919338258851563,-9.355118574234778,-9.929488572702917,-1.559710897117153,2.7750385282887144
0,-1.3886294986431669,-7.3357549869606835,-2.3689794833863247,-3.318544089691109,2.780038597709055
0,1.0820802952368849,1.353608348330852,1.4915306044890242,-11.147380992749312,2.7850386671293954
0,0.232791129994536,-5.437028560655495,-3.4979583019146867,-2.9962215977618305,2.790038736549736
0,-2.4864969871483655,-7.327665705851817,-3.317446195266311,-6.22506589559167,2.7950388059700764
0,-5.075784048904697,-8.048303078752735,-6.186933068010783,-17.723913876440292,2.800038875390417
0,-4.3950700477588915,-8.84894067021088,-7.386418912199842,-7.542765529663848,2.8050389448107502
0,-2.1743549758297043,-9.889578470297945,-8.04590371932823,-7.071620843573989,2.8100390142310907
0,-5.413638824851413,-6.730216468239582,-6.895387480212242,-14.910479805474672,2.815039083651431
0,-9.112921586153645,-7.9208546524239125,-9.994870184928034,-8.199342401707113,2.8200391530717717
0,-12.9722032504876,-9.431493010448058,-7.4743518227696795,-14.338208617562755,2.825039222492112
0,-5.751483807775209,-6.992131529123451,-6.103832382230022,-9.377078437220664,2.8300392919124526
0,-3.89076324704617,-3.862770194489417,-3.8733118510722044,3.0140481561643764,2.835039361332793
0,6.0899584433087295,1.3665910080338821,6.707209783460666,10.105171180043495,2.8400394307531336
0,1.660681275101994,-3.4940479066167933,1.0577325342916402,6.096290651790808,2.845039500173474
0,5.941405259976232,6.665313076626073,5.738256414168428,8.60740658819391,2.8500395695938145
0,5.072130409213391,7.624673972739561,8.17878143547232,12.27851900526943,2.855039639014155
0,7.482856733632219,10.594034796283815,8.569307610055956,6.339627918171036,2.8600397084344955
0,10.07358424346709,7.403395561096147,9.709834949059532,11.19073334113475,2.865039777854836
0,9.054312948219767,4.192756280194955,6.13036346280273,16.66183528744089,2.8700398472751765
0,7.935042856541154,7.282116965877299,4.890893160812465,11.862933769252518,2.875039916695517
0,6.495773976228345,7.8614776298172,5.691424051949397,-1.805971202464601,2.8800399861158503
0,8.376506314297583,10.960838283017273,8.181956144499381,11.945120382319871,2.885040055536191
0,3.4872398770543063,5.170198935691511,2.6324894461674457,6.146208532982948,2.8900401249565313
0,-6.952025329751424,-2.6104404026918826,-5.506976035838249,-1.7127067417018678,2.8950401943768718
0,-7.481289300525379,-9.16107972304928,-3.316440294485616,-15.041625433332634,2.9000402637972122
0,-6.350552029334237,-10.161719016109322,-3.7559033225518528,-15.2705475332069,2.9050403332175527
0,-5.289813509637373,-6.062358271949492,-7.775365112435712,-3.1094730316788604,2.910040402637893
0,-1.579073734297708,-1.692997479879307,-4.014825656070766,-0.2184019180903889,2.9150404720582337
0,2.661667304235974,0.29636337135594126,3.7257150550795677,8.242665818747836,2.920040541478574
0,13.052409613596199,9.855724293215253,14.026257029735268,12.433730189927235,2.9250406108989147
0,0.973153201066109,-1.5249147030060914,-0.45319972371333517,1.4947912059485016,2.930040680319255
0,1.0738980733651728,-1.8555536063211435,3.207344802536683,-2.644151123360344,2.9350407497395956
0,11.204644236750037,4.073807594091192,8.737890615808684,6.146903211447848,2.940040819159936
0,1.5953916970513486,-4.836831090972604,-2.321562276962915,1.2979542196471212,2.9450408885802766
0,-6.293859540341092,-6.117469650655578,-6.611013869142938,4.049001910285824,2.950040958000617
0,1.5368905297677322,4.121891926112038,4.83953584588928,10.100046292071148,2.9550410274209575
0,4.997641912628579,2.4412536506009594,1.8000868748690835,-1.3189126267442546,2.960041096841291
0,1.638394613447447,2.740615534034028,7.0006392244448605,-7.25787483830699,2.9650411662616314
0,-1.6308513627801695,1.6799775874044074,0.3811929009483861,-7.35684033476467,2.970041235681972
0,-0.45009601120887477,2.4193398214652215,4.1117479103473435,-2.755809107833378,2.9750413051023124
0,-4.619339326963943,-4.291297753206143,-2.0876957416721194,-2.944781148689687,2.980041374522653
0,-6.338581304973385,-7.381935126029141,-5.017138049545208,-13.143756448036221,2.9850414439429933
0,-6.577821939782002,-4.502572286128151,-5.646579007576837,-12.182734995960244,2.990041513363334
0,-7.837061225378857,-13.563209222076013,-9.58601860966673,-19.57171678156533,2.9950415827836743
0,-9.386299155082916,-12.073845921671255,-8.585456849087727,-3.62070179267322,3.0000416522040148
0,-6.345535721460421,-12.164482371694541,-11.944893718312832,-9.959690015864973,3.0050417216243552
0,-6.134770916312499,-7.615118557784974,-7.964329208894118,0.39131856320061753,3.0100417910446957
0,0.9059952692121658,-4.485754464548008,-3.163763311466641,-3.1676760405529496,3.015041860465036
0,1.6767628443684377,0.8236099241630566,0.606803984041219,2.3833261881100567,3.0200419298853767
0,4.51753181849707,-1.927025375090161,4.737372688040783,9.974325264472837,3.025041999305717
0,3.988302200759092,-3.5376603455519424,0.31794281092882715,5.805321203529443,3.0300420687260576
0,0.43907400000424346,-4.4782949702755825,-4.7414856370448675,-1.1136859802652512,3.035042138146391
0,-0.6901527751899852,1.481070767956929,0.09908735435364208,8.51730372705034,3.0400422075667315
0,-6.809378116328499,-7.679563113364447,-8.03033820445916,-3.3817096609104236,3.045042276987072
0,-0.5386020147575897,1.4798034035049454,-0.8697623027557013,1.1892738692208653,3.0500423464074125
0,-4.787824461517171,-2.1108296634418355,0.07081507053217934,0.590254330704103,3.055042415827753
0,1.0029545526521235,-2.0214622960240036,-2.5986060732864344,12.47123173669453,3.0600424852480934
0,-0.6662649627808978,-1.9020944759122618,-1.818025722760885,0.4622061000119817,3.065042554668434
0,-2.895482998230678,-4.81272618458522,-1.0774438662912755,5.3231774329552515,3.0700426240887744
0,3.105300455969484,1.8366425967159499,2.543139507862506,4.014145747344296,3.075042693509115
0,1.8360854095152843,8.646011886886985,5.873724411442652,5.0451110545900395,3.0800427629294553
0,-0.8631281279764835,2.085381704662327,1.2943108559839687,7.80607336565241,3.085042832349796
0,-6.212340146954223,-8.915247931551447,-3.0551011472603373,1.167032690981142,3.0900429017701363
0,-6.441550637708879,-8.815877003374919,-2.184511587156325,3.767989040542023,3.0950429711904768
0,1.8992404098509952,0.6134945080045624,1.9460795475164439,4.118942423919775,3.1000430406108173
0,15.620033006067793,16.1928666218125,14.286672267989493,12.689892850308372,3.1050431100311577
0,-3.3591728389515563,-2.2877606428593107,0.3872665851456264,3.100840328324797,3.110043179451498
0,0.6716228844008887,5.871612732548056,1.6978625092911115,4.031784865898407,3.1150432488718316
0,-2.987579814535065,4.540986766108265,2.6684600503014946,6.5527264703744486,3.120043318292172
0,-2.866780926367068,4.56036147549937,5.089059217797867,3.143665148618185,3.1250433877125126
0,10.274019558418349,8.199736877943504,6.039660021098415,15.024600906970834,3.130043457132853
0,9.404821649199338,8.769112990096982,7.600262469068323,7.985533751060318,3.1350435265531935
0,11.785625354767074,4.698489827935501,8.130866569976122,13.486463685572481,3.140043595973534
0,8.126430682999482,10.19786740671059,10.891472331370995,6.407390714149397,3.1450436653938745
0,9.287237640798052,6.957245740947992,7.032079759974706,10.438314839433907,3.150043734814215
0,4.748046234168077,-3.383375155515756,5.582688861662709,2.5192360631895614,3.1550438042345554
0,8.928856468336084,4.146004730681963,5.143299641570539,2.730154386482129,3.160043873654896
0,8.549668347810197,4.545385412667334,8.903912104212727,3.0410698099064444,3.1650439430752364
0,10.430481876327592,11.604766903273532,10.814526253455304,9.121982333704159,3.170044012495577
0,5.991297056778007,6.564149214765037,5.795142092380603,10.682891957636047,3.1750440819159174
0,0.2821138912579893,4.213532358660935,4.185759623261499,9.813798680719394,3.180044151336258
0,3.832932381310486,5.102916345796375,8.726378847686057,1.9247025010894605,3.1850442207565983
0,4.903752528134515,5.222301186466231,5.336999766637535,12.125603416087465,3.1900442901769317
0,1.1945743326203724,-0.8483131094857392,2.4376223804994215,3.186501422364947,3.195044359597272
0,5.715397795318414,5.7910734674290465,5.498246689128022,-0.532603484050139,3.2000444290176127
0,0.04622291645480284,-3.7095390735465763,-1.4111273080169628,-10.47171130747632,3.205044498437953
0,-1.1129503040071653,-2.420150723287425,-2.040499611721975,-4.300822052083226,3.2100445678582936
0,-1.6521218662148882,0.02923852739030769,-5.979870222784598,-10.429935721496406,3.215044637278634
0,-0.5112917702677527,4.968628687782596,-1.6692391417710994,-6.3790523186329215,3.2200447066989746
1,2.4595399838193903,-1.1919802328476294,-0.8486063689248236,-0.6481718457008855,3.225044776119315
0,-1.0096266039566917,-4.802588225346635,-2.3979719042353924,-3.8172943043568424,3.2300448455396555
0,9.851208466298466,6.726804719437616,8.40266425242257,0.6535803040750211,3.235044914959996
0,8.922045194165438,4.776198610638417,4.4433021010619775,2.6344519784319402,3.2400449843803365
0,13.61288357857405,9.025593457096328,10.013941641283084,13.105320717480769,3.245045053800677
0,3.8937236175391936,6.474989267083681,4.974582872058879,-2.8338134804028194,3.2500451232210175
0,4.514565308179607,8.684386048175323,5.105225791685949,3.477049382657751,3.255045192641358
0,6.21540864693712,5.203783807217541,3.365870397862873,-4.592090695748412,3.2600452620616984
0,2.8062536297431544,5.683182550365293,2.1765166878245816,-2.501233718044462,3.265045331482039
0,2.127100252086747,6.642582283154071,3.927164658451397,-0.8003796864861182,3.2700454009023723
0,5.7479485090896105,6.551983010529947,1.6378143063256674,0.8304713968666644,3.2750454703227128
0,-1.3012016044436638,-1.9186152631210043,-0.5415343722239176,-1.3286804699399732,3.2800455397430532
0,5.7196499060110915,2.7807874661808745,7.429118618930755,2.3321647111632027,3.2850456091633937
0,-10.23949696520555,-10.349808797719025,-10.670226724242879,-14.446993061691385,3.290045678583734
0,-9.778642223656059,-8.750404050764963,-7.779570405736864,-10.696153790010948,3.2950457480040747
0,5.60221412554371,7.889001711586161,8.241087570807075,1.334682525427819,3.300045817424415
0,-8.246927922236221,-4.821591505730955,-6.068252797917854,-7.624484115409427,3.3050458868447556
0,1.0539316286642384,-2.1121836976629753,-1.0875915151099689,-1.8536537120607615,3.310045956265096
0,3.204792774084032,2.5872251409161806,1.3730714161181752,6.657173736252663,3.3150460256854366
0,-1.584344490077564,-4.073364984759245,-2.9962640072234934,1.007998230385335,3.320046095105777
0,-1.8834801679638646,2.8260459306137378,3.814402211938247,5.788819770981426,3.3250461645261176
0,5.277385736268641,3.90545789234366,0.6350700706618824,3.3796383583356997,3.330046233946458
0,-0.8817467815716629,-1.2851290943676499,-2.5942604340683424,-3.9295460075932334,3.3350463033667985
0,4.159122274182856,4.774284975496993,2.5164106946822353,1.771266672969638,3.340046372787139
0,7.129992898969888,-0.17629989322580802,4.307083453816497,-0.6079236002151982,3.3450464422074724
0,7.7908650878437635,4.273116304112077,3.787757840076945,1.072883172630876,3.350046511627813
0,-3.9182611646641234,-10.65746642798245,-8.85156615003491,-11.526313008665214,3.3550465810481533
0,-6.747385864368227,-5.138048084892482,-4.3608885200346315,-6.895512143990029,3.360046650468494
0,-6.116509016972893,-4.878628661560076,-8.990209273071372,-14.73471423257375,3.3650467198888343
0,-9.895630627677336,-13.729208152303617,-8.359528411672832,-9.05391927270594,3.370046789309175
0,-13.594750700946625,-8.099786550689785,-11.63884593760444,-7.17312726163649,3.3750468587295153
0,-0.5238692403586162,2.6496361505477077,-3.7381618517732664,-1.2323381957009925,3.3800469281498557
0,-10.612986248641315,-8.63094004067711,-8.587476154260685,-8.81155207057941,3.3850469975701962
0,-13.05210172777236,-3.851515116032403,-7.44678884442266,-5.460768881429065,3.3900470669905367
0,-5.511215678894974,-3.5120890667711917,-6.296099920919266,-9.579988622820458,3.395047136410877
0,7.949671897670505,6.287338116235599,8.2345906181959,4.530788711303268,3.4000472058312177
0,10.970561001928752,8.206766442188458,7.93528277508412,4.671563127396946,3.405047275251558
0,-0.5185483664566698,2.186195919954134,2.175976551598518,6.182334631864544,3.4100473446718986
0,3.0323437916098017,1.325626557906486,5.25667194905448,0.13310323073670927,3.415047414092239
0,4.9532374748249,4.68505836404062,5.837368968281339,9.533868929614963,3.4200474835125796
0,-0.6558673183969,-3.9955086538897016,-3.0219323903080455,-8.925368266260389,3.425047552932913
0,-1.6749705898670328,-4.916074488220411,0.6787678734132175,-1.9046083518095906,3.4300476223532534
0,11.765927658458061,5.723360868821442,6.839469759450048,10.336148678123923,3.435047691773594
0,8.00682742433259,6.962797425075202,12.540173267578353,9.166902828617834,3.4400477611939344
0,3.187728704912261,1.232235188138355,4.440878396993298,-7.222345895706038,3.445047830614275
0,2.648631496690126,2.0816741652017643,4.751585146124335,1.3584025093664085,3.4500479000346154
0,-4.700464204260154,0.19111436315504643,-0.2177064872228398,-1.8008519519952104,3.455047969454956
0,-1.8395584019623192,7.220555788690737,4.883003494375324,3.9098907244699346,3.4600480388752963
0,-16.64865110020608,-9.210001551683561,-12.426284911836245,-10.859369456930512,3.465048108295637
0,-11.75774230213812,-9.710557651457803,-7.7655717084644325,-15.658632491636201,3.4700481777159773
0,-12.146832009864195,-11.371112503656981,-9.174856897534633,-8.747898374339275,3.4750482471363178
0,-5.8859202243113975,-0.7416661004895991,-9.264140480236337,-1.8471670986951538,3.4800483165566582
0,-4.58500694540489,-0.07221843343764153,-4.15342245690794,-3.2264386575284405,3.4850483859769987
0,19.25590782750721,21.95723050624793,19.277297172705435,20.554286956666292,3.490048455397339
0,-23.213175904865718,-23.453319272985617,-25.151981591025514,-22.57499024875215,3.4950485248176797
0,-8.952258141750566,-1.9738677629036534,-2.4512587476480605,-3.6542702665151086,3.500048594238013
0,-3.291338881729784,-3.634414954879132,-3.840534296152588,-7.953553088871885,3.5050486636583535
0,1.4495818774613074,-1.5449608396774646,-2.3798082348367537,-0.9728387073140492,3.510048733078694
0,10.060504138470213,2.864494592279928,4.680919438385114,3.2678728871864884,3.5150488024990345
0,14.421427903693283,7.573951350612489,9.741648725619623,13.028581703751687,3.520048871919375
0,7.972353174744017,7.173409444666819,5.602379628613333,1.9692877511262705,3.5250489413397155
0,5.793279952226741,12.882868883199345,6.673112148479936,5.429991037424568,3.530049010760056
0,3.144208235880879,5.552329674155045,3.5938462856782465,7.530691570173934,3.5350490801803964
0,4.715138024847874,-3.108208175328934,3.6245820401185265,8.011389356343994,3.540049149600737
0,7.776069317801966,9.001255341345551,1.895319411282961,3.0420844022706337,3.5450492190210774
0,2.067002112931515,6.9007202304149295,6.186058398309149,5.062776713676801,3.550049288441418
0,7.647936407909854,4.480186497633757,5.606798999970965,4.383466295782478,3.5550493578617584
0,1.2488721999234245,2.359654148180466,4.217541214585827,2.8641531533760545,3.560049427282099
0,-2.230190514235485,3.479123186768537,4.318285039974713,4.044837290850038,3.5650494967024393
0,0.36074826203233507,5.27859361775721,0.06903047352525138,4.315518712229167,3.57004956612278
0,-1.7083114746668215,-0.41193455483213187,1.64977751231935,0.26619742118815415,3.5750496355431203
0,4.622630272320373,4.707538672711335,9.31052615320665,4.6368734210925515,3.5800497049634536
0,10.81357349953525,11.277013303780524,13.671276392640994,14.137546714969934,3.585049774383794
0,13.704518203043214,12.316489341224603,15.642028226265603,9.408217305244317,3.5900498438041346
0,22.365464377943415,19.935966786947475,21.702781648475792,22.158885193344574,3.595049913224475
0,2.5564120179818506,4.895445641584357,1.713536652166066,9.559550379385337,3.6000499826448156
0,10.847361115559318,8.984925904500024,10.994293228865288,11.13021286205658,3.605050052065156
0,0.10831166209095883,3.7144075740782094,-0.3849486308488548,-1.7991273611587466,3.6100501214854965
0,1.4992636483857475,0.10389064804309972,1.8858110630236218,-2.8684702934893545,3.615050190905837
0,3.2002170649124024,-0.6366248762643387,2.1165723001594756,6.622184061600336,3.6200502603261775
0,8.851171901884404,8.732860998310345,6.917335070015605,7.952835700518875,3.625050329746518
0,-0.06787185085358827,-0.5876517312893237,-0.18190063823989666,7.753484619271472,3.6300503991668585
0,0.573085796130488,-0.5781630684061886,1.998865164238866,-1.6558691867494222,3.635050468587199
0,1.004044832016263,-3.958673016532196,-5.200367533895106,-0.2852257226256647,3.6400505380075394
0,-1.314994754105838,-4.659181579052357,-2.4395987439573323,-0.9045849936047635,3.64505060742788
0,-2.9940329731466595,-5.319688759043316,-2.058828477049285,4.696052995064244,3.6500506768482204
0,-6.423069835883161,-10.400194559118942,-6.608056743978742,-3.1533117619144284,3.6550507462685538
0,15.347894647104646,14.86930101860144,13.652716444690965,21.71732072996173,3.6600508156888942
0,-3.0611395348025234,-6.151202027788102,-5.136508921597954,-5.092049535297071,3.6650508851092347
0,-5.1701723925031775,-7.991703700252701,-9.225732853547772,-7.311422564257286,3.670050954529575
0,5.740796062971092,2.2277959993495187,-1.9449553617294746,3.4492016363484588,3.6750510239499157
0,8.72176582056687,10.717297069392188,8.155823543663585,5.8398230599266165,3.680051093370256
0,-10.397263130984685,-9.423200491804176,-9.843396147373674,-3.9795583001513455,3.6850511627905966
0,-10.916290803058846,-15.68369668599096,-13.98261444471598,-11.718942450598227,3.690051232210937
0,-17.965317206523025,-25.194191514314685,-18.891831357610602,-22.35832939772374,3.6950513016312776
0,-4.884342351179596,-6.134684976533873,-8.271046894092157,-16.727719146701254,3.700051371051618
0,-4.093366245700719,-6.485177070858556,-8.270261060854128,-6.41711170113199,3.7050514404719586
0,-3.5223888979552394,-3.9756677943833973,-5.849473863505286,-12.256507063158654,3.710051509892299
0,-2.991410315330468,-3.836157143543257,-2.5986853068769964,-0.20590523384676113,3.7150515793126395
0,-4.110430504856922,-2.5566451143237465,-4.2278953952472955,-5.345306213518505,3.72005164873298
0,-4.9494494732162035,-2.9271317023536563,-6.607104132462542,3.275289997958941,3.7250517181533205
0,-8.71846722667178,-9.767616902920222,-11.4563115218855,-3.884116599061972,3.730051787573661
0,-19.78748377085344,-13.688100710796848,-18.28551756612842,-17.063526004018694,3.7350518569939943
0,-10.816499110381388,-12.488583119903907,-12.404722266677252,-13.522938215756971,3.740051926414335
0,-3.655513248623484,-4.429064123075031,-7.193925623685232,-2.5423532320791358,3.7450519958346753
0,-6.74452618788858,-4.629543712158787,-8.333127636111513,-1.1017710497858109,3.7500520652550158
0,1.806462070186502,4.099978121633246,3.8176716979409497,-0.2711916651235754,3.7550521346753563
0,-4.482548475651661,-5.1504986126259835,-9.001527619114306,-3.930615074123334,3.7600522040956967
0,-7.151557826382406,-3.3109739057280607,-2.560725584521382,4.679958727303562,3.765052273516037
0,-5.580565982617256,-5.751447748232255,-9.919922195115143,2.650529743271522,3.7700523429363777
0,10.350427055465675,14.798079869573442,11.050882552733418,15.041097977666318,3.775052412356718
0,-6.228578712121483,-6.25239104259939,-4.108311337111496,-8.03833656613071,3.7800524817770587
0,-10.147583285350857,-2.102860475254082,-10.267503860769327,-13.55777388510306,3.785052551197399
0,-5.576586663905267,-2.083328418927348,-9.986695014107804,-3.8072139759687267,3.7900526206177396
0,1.2344111531215574,1.6162051360241607,3.8141152076339853,-1.596656834744498,3.79505269003808
0,6.735410167052438,10.235740199307472,6.204926809725441,4.4338975430829946,3.8000527594584206
0,4.136410379174181,0.6252767803809783,5.385739797418398,-0.5155508378436883,3.805052828878761
0,2.0374117904175195,-2.4951851116974955,3.4265541755547395,-1.705001972959929,3.8100528982990944
0,0.3384144013398219,2.154354531895673,-2.6026300514631613,-2.5144558577222256,3.815052967719435
0,12.359418212197742,12.37389571986962,11.20818712046841,9.706087512461416,3.8200530371397754
0,6.090423222823983,3.643438460588515,4.759005695130025,-0.7833718579113016,3.825053106560116
0,6.861429432387701,-2.8770172381440036,0.9798256758134729,0.6571660353893836,3.8300531759804564
0,8.16243683931674,6.232528631060258,8.840647065302095,2.497701196369273,3.835053245400797
0,-4.646554558605957,-10.297923924558615,-2.288530134041726,-6.951766371048132,3.8400533148211373
0,-8.025544763938056,-9.578374897631281,-6.1077059201395425,-12.491236662795917,3.845053384241478
0,1.485466220878605,1.4111757196784547,2.0431197090868474,-4.370709674288357,3.8500534536618183
0,-9.853521606217148,-9.009272064210391,-8.136053244060214,-10.090185400160216,3.8550535230821588
0,1.6574917531121907,4.610281759557209,2.9847752229902342,3.090336165685308,3.8600535925024992
0,1.2485062975293197,1.849837200065632,3.255605113000053,0.41085502981966915,3.8650536619228397
0,4.5095220258090745,3.169394266377374,8.826436428676086,3.271371198942982,3.87005373134318
0,7.920538936543062,5.378952967320068,5.827269172331806,8.691884679594361,3.8750538007635207
0,4.4115570278966265,5.878513311365602,6.628103345679694,5.05239547792183,3.880053870183861
0,2.762576297504843,-1.0519246934357191,-0.16106105017730832,-6.397096400409712,3.8850539396042016
0,9.323596742497747,2.9076389606091313,4.909775985400707,0.143409050002956,3.890054009024535
0,9.71461835946147,4.587204280957182,3.4106144527227444,7.803911834570212,3.8950540784448755
0,3.9756411442879096,8.306771274786495,2.2414543517848062,-0.5455880413653283,3.900054147865216
0,-5.383334907795064,0.7563399488365984,-2.047704317702925,-9.665090572638487,3.9050542172855565
0,10.777690198068113,12.515910309319384,10.183138443763712,6.8854042459397595,3.910054286705897
0,-10.951283543421841,-12.09451763804224,-9.366017364502298,-12.134103580218177,3.9150543561262374
0,-17.420256137478773,-15.424943887663074,-14.135171743210812,-20.66361404529043,3.920054425546578
0,-3.039227588703308,-6.935368433407823,-5.8343246925848335,-6.013127142581446,3.9250544949669184
0,-1.3981979007762084,0.9142087318042817,2.0765237879649288,-4.6426428642124264,3.930054564387259
0,-0.8171670767377397,3.2737876157140997,3.2073736995713307,-3.4321612013738285,3.9350546338075993
0,-6.2561351193376655,-2.296631773773838,-6.711774956517149,-9.931682144670162,3.94005470322794
0,0.7348979689030456,3.592950571179513,4.589077820950965,-3.5312056841676522,3.9450547726482803
0,4.965932185672925,6.8125346582828215,4.599932033242147,9.999268190567534,3.950054842068621
0,-10.293032471267214,-12.557879504939734,-7.72921231846638,-3.5702605098613573,3.9550549114889613
0,0.688003995928445,-2.1682919109677092,-2.3483552330334736,5.580208224983293,3.9600549809093017
0,-0.5409584146570309,-2.0687025519440754,-1.6474967091084325,-2.069325594675381,3.965055050329635
0,5.770080295232603,9.570888580323906,5.283363254913889,7.941138041209514,3.9700551197499756
0,0.15112012377826725,-4.129518505974502,-6.0057753392900715,-1.158400857539746,3.975055189170316
0,-8.257838930995,-10.399923802771676,-8.284912489984638,0.19205771865266652,3.9800552585906566
0,-0.7467968709988834,-0.8803273018114487,1.7459518048566596,-2.8574862207641116,3.985055328010997
0,-16.17575369776506,-14.510728994305431,-14.633182452275788,-18.86703266618244,3.9900553974313375
0,-0.41470941220209934,2.0988711291858757,-1.6123152583506082,3.9634183925467457,3.995055466851678
0,-5.583664014514856,-4.621526921306195,-4.611446609727168,0.31386696623188537,4.0000555362720185
0,-0.04261750435820488,7.188076864600363,2.1194234977395494,6.634313065965287,4.005055605692359
0,-1.4115698810651387,0.74768249731416,-0.8897049315554018,6.234756702647293,4.0100556751126994
0,2.8294788561889592,7.2372899870187535,3.981168106825759,2.455197886736332,4.01505574453304
0,7.010528708203648,8.336899343496524,5.2620426172002945,8.185636628190554,4.02005581395338
0,-2.8784203244441557,-1.0034894239935357,-0.2770813963772468,0.1660729364853305,4.025055883373721
0,2.442631758562039,0.7861236933419441,4.1837960698451315,6.976506820654124,4.030055952794061
0,3.4336849573753745,7.405738704021722,4.034675019351062,2.966938289320139,4.035056022214402
0,4.464739271976099,2.475355616313975,6.0355554553098445,3.5173673507054533,4.040056091634742
0,8.76579470201577,12.194974438068972,11.3364373804286,11.53779401259702,4.045056161055076
0,23.44685124652722,25.274595176410493,22.17732079665839,23.378218282114616,4.050056230475416
0,-2.242091096463489,-4.0757821626792685,-7.001794295132316,-7.041359834672727,4.055056299895757
0,5.988967669990856,10.043842425584849,9.739092104912519,10.519059667253636,4.060056369316097
0,3.140027542130103,12.213468945128055,6.339979996020059,3.3894767922551514,4.065056438736438
0,-10.98891148412316,-6.756902600802268,-6.6091306230160525,-10.790108455680135,4.070056508156778
0,2.132150587162526,0.6227277905364142,0.351760246329619,0.9903039273558543,4.075056577577119
0,-4.636786247817558,-3.267639878220835,-3.257347397378506,-4.8892860544755345,4.080056646997459
0,8.254278007365837,11.161994395640551,10.35354644454996,5.451121603278726,4.0850567164177995
0,8.99534334907018,6.701630614667456,5.0644417706734055,3.6315269051369556,4.09005678583814
0,8.766409773179118,7.481268780866294,6.28533857908706,6.361929855404779,4.0950568552584805
0,7.757477274813751,11.020908895497522,9.99623686725539,8.072330457947483,4.100056924678821
0,4.46854584829029,9.070550958993394,12.017136631909883,7.37272871603524,4.1050569940991615
0,-3.8003845127132836,-6.309805029021842,-4.011962131034615,-9.70687536765449,4.110057063519502
0,2.300686185154902,1.0498409305781358,5.41894057367999,-1.6864817907020864,4.115057132939842
0,4.641757935145226,3.9194888368126994,4.889844740944023,3.5239094494579524,4.120057202360176
0,-4.377169269597777,-11.200861311266014,-2.299249634631708,-3.6857016444192614,4.125057271780516
0,0.09390456397403263,2.848790485519264,-0.5883425586621847,-1.625315069508385,4.130057341200857
0,10.954979428873548,20.198444226460886,15.572565963089001,10.325069177053134,4.135057410621197
0,-6.5139446820392655,-5.281900089463936,-7.936524075425423,-7.614548901950877,4.140057480041538
0,-5.432867776088411,-9.30224246383154,-7.255612680555664,-11.124169303797633,4.145057549461878
0,-4.501789860467091,-4.112582898282975,-2.82469985854353,-0.45379202545449027,4.150057618882219
0,-4.08071094194456,-9.462921393956183,-2.273785615184701,-5.47341706331583,4.155057688302559
0,8.290368973095493,3.9867420486260863,3.8371300440853835,6.796955586650529,4.1600577577229
0,7.851449878311978,3.356407429326024,3.828047113910136,4.657325928560874,4.16505782714324
0,6.302531766957753,8.286074747983418,6.338965588733638,7.747693966259417,4.170057896563581
0,2.143614631655652,4.375744004047567,-0.20011453737216844,4.478059703071179,4.175057965983921
0,-7.155301535452959,-3.574584803525668,-5.889193270643071,1.6084231417653958,4.180058035404262
0,-12.294216742255475,-17.874911675966654,-17.17827061723709,-5.851215715273494,4.185058104824602
